Data from test_V78500241_1367.txt Node
Date: Fri Mar 25 16:58:30 CST 2022
User: usil
Spectrometer: V785-0024
Trigger mode: 0
Integration Time (sec): 4.000000E-1
Scans to average: 1
Nonlinearity correction enabled: false
Boxcar width: 0
Storing dark spectrum: false
XAxis mode: Wavelengths
Number of Pixels in Spectrum: 1024
>>>>>Begin Spectral Data<<<<<
801.071	7936
801.214	8031
801.356	7856
801.499	7849
801.641	7841
801.783	7761
801.926	7940
802.068	7986
802.211	8012
802.353	7951
802.496	7795
802.638	7761
802.78	7917
802.923	7902
803.065	7898
803.208	7837
803.35	7909
803.492	8050
803.635	8164
803.777	8024
803.919	8069
804.061	8419
804.204	8206
804.346	8077
804.488	7978
804.63	8123
804.773	8008
804.915	8081
805.057	8256
805.199	8126
805.341	8229
805.483	8286
805.626	8172
805.768	8103
805.91	8164
806.052	8187
806.194	8149
806.336	8282
806.478	8050
806.62	8050
806.762	8149
806.904	8267
807.046	8473
807.188	8408
807.33	8286
807.472	8275
807.614	8183
807.756	8123
807.898	7993
808.04	7887
808.182	7860
808.324	7925
808.465	7906
808.607	8092
808.749	8081
808.891	8142
809.033	8290
809.174	8168
809.316	8024
809.458	8012
809.6	8001
809.741	8016
809.883	7997
810.025	8123
810.166	8069
810.308	8058
810.45	8020
810.591	7913
810.733	7723
810.875	7632
811.016	7544
811.158	7521
811.299	7639
811.441	7731
811.582	7727
811.724	7578
811.865	7518
812.007	7613
812.148	7525
812.29	7563
812.431	7734
812.573	7852
812.714	7982
812.855	8031
812.997	8210
813.138	8370
813.279	8157
813.421	8138
813.562	7993
813.703	7826
813.845	7772
813.986	7373
814.127	7278
814.268	7308
814.41	7194
814.551	7164
814.692	7179
814.833	7080
814.974	7072
815.115	7129
815.256	6928
815.397	6882
815.539	6958
815.68	6787
815.821	6779
815.962	6787
816.103	6818
816.244	6738
816.385	6597
816.526	6616
816.666	6532
816.807	6270
816.948	6388
817.089	6426
817.23	6452
817.371	6350
817.512	6365
817.653	6388
817.793	6380
817.934	6380
818.075	6479
818.216	6410
818.356	6395
818.497	6201
818.638	6148
818.778	6136
818.919	6110
819.06	6159
819.2	6365
819.341	6311
819.481	6342
819.622	6532
819.762	6730
819.903	6711
820.043	6593
820.184	6559
820.324	6540
820.465	6665
820.605	6635
820.746	6589
820.886	6506
821.026	6646
821.167	6620
821.307	6791
821.447	6722
821.588	6642
821.728	6547
821.868	6479
822.008	6331
822.149	6357
822.289	6395
822.429	6129
822.569	6034
822.709	6083
822.849	5984
822.99	5874
823.13	5889
823.27	5901
823.41	5729
823.55	5737
823.69	5756
823.83	5760
823.97	5615
824.11	5512
824.25	5471
824.389	5539
824.529	5493
824.669	5509
824.809	5653
824.949	5627
825.089	5630
825.228	5490
825.368	5376
825.508	5345
825.648	5357
825.787	5326
825.927	5376
826.067	5258
826.206	5299
826.346	5410
826.485	5372
826.625	5334
826.765	5524
826.904	5482
827.044	5208
827.183	5178
827.323	5109
827.462	5250
827.601	5155
827.741	5223
827.88	5220
828.02	5079
828.159	5239
828.298	5341
828.437	5322
828.577	5280
828.716	5474
828.855	5330
828.994	5140
829.134	5170
829.273	5197
829.412	5174
829.551	5147
829.69	5102
829.829	5235
829.968	5357
830.107	5269
830.246	5242
830.385	5189
830.524	5098
830.663	5075
830.802	4938
830.941	4866
831.08	4881
831.219	4987
831.357	4953
831.496	5140
831.635	4923
831.774	4858
831.913	4843
832.051	4645
832.19	4683
832.329	4816
832.467	4706
832.606	4592
832.744	4733
832.883	4714
833.022	4694
833.16	4782
833.299	4786
833.437	4828
833.576	4809
833.714	4862
833.852	4896
833.991	4835
834.129	4930
834.267	4919
834.406	4911
834.544	4949
834.682	4961
834.821	4961
834.959	5147
835.097	4995
835.235	5121
835.373	5064
835.511	5045
835.65	4991
835.788	5022
835.926	4900
836.064	4847
836.202	4900
836.34	5170
836.478	5197
836.615	5151
836.753	5166
836.891	5273
837.029	5201
837.167	5174
837.305	5155
837.443	5124
837.58	5071
837.718	5220
837.856	5216
837.993	5143
838.131	5185
838.269	5201
838.406	5155
838.544	5162
838.681	5006
838.819	4976
838.956	4904
839.094	4904
839.231	4957
839.369	5105
839.506	5364
839.643	5242
839.781	5022
839.918	4957
840.055	5128
840.193	5079
840.33	5132
840.467	5079
840.604	5166
840.742	5425
840.879	5060
841.016	5060
841.153	5170
841.29	5360
841.427	5318
841.564	5318
841.701	5364
841.838	5235
841.975	5204
842.112	5265
842.249	5117
842.385	5086
842.522	5334
842.659	5185
842.796	5136
842.933	5181
843.069	5113
843.206	5189
843.343	5303
843.479	5250
843.616	5288
843.752	5006
843.889	5022
844.025	5189
844.162	5037
844.298	5159
844.435	5010
844.571	5052
844.708	5193
844.844	5227
844.98	5315
845.117	5288
845.253	5041
845.389	5060
845.525	5117
845.661	5143
845.798	5014
845.934	5098
846.07	5018
846.206	5181
846.342	5258
846.478	5159
846.614	5052
846.75	4919
846.886	4911
847.022	5121
847.158	5105
847.294	5071
847.429	5086
847.565	5052
847.701	5296
847.837	4873
847.972	4736
848.108	4930
848.244	4911
848.379	4771
848.515	4683
848.65	4702
848.786	4778
848.921	4782
849.057	4866
849.192	4896
849.328	4866
849.463	4858
849.598	4748
849.734	4793
849.869	4622
850.004	4622
850.14	4702
850.275	4584
850.41	4565
850.545	4577
850.68	4584
850.815	4584
850.95	4641
851.085	4839
851.22	4752
851.355	4706
851.49	4626
851.625	4634
851.76	4599
851.895	4599
852.03	4512
852.165	4675
852.299	4744
852.434	4752
852.569	4793
852.703	4786
852.838	4850
852.973	4862
853.107	4900
853.242	4771
853.376	4660
853.511	4615
853.645	4645
853.78	4778
853.914	4675
854.048	4660
854.183	4645
854.317	4679
854.451	4847
854.585	4649
854.72	4664
854.854	4744
854.988	4573
855.122	4637
855.256	4531
855.39	4645
855.524	4820
855.658	4759
855.792	4706
855.926	4717
856.06	4733
856.194	4771
856.327	4656
856.461	4637
856.595	4596
856.729	4611
856.862	4740
856.996	4672
857.13	4725
857.263	4733
857.397	4763
857.53	4626
857.664	4672
857.797	4733
857.931	4790
858.064	4683
858.197	4729
858.331	4656
858.464	4596
858.597	4504
858.731	4626
858.864	4603
858.997	4584
859.13	4710
859.263	4660
859.396	4721
859.529	4554
859.662	4561
859.795	4497
859.928	4580
860.061	4733
860.194	4790
860.327	4603
860.46	4599
860.592	4683
860.725	4702
860.858	4714
860.99	4535
861.123	4504
861.256	4531
861.388	4618
861.521	5364
861.653	4466
861.786	4421
861.918	4455
862.05	4489
862.183	4535
862.315	4565
862.447	4645
862.58	4561
862.712	4402
862.844	4352
862.976	4489
863.108	4493
863.24	4866
863.372	4310
863.504	4371
863.636	4402
863.768	4459
863.9	4413
864.032	4367
864.164	4379
864.296	4466
864.428	4500
864.559	4584
864.691	4554
864.823	4535
864.954	4504
865.086	4512
865.217	4508
865.349	4405
865.48	4466
865.612	4466
865.743	4637
865.875	4489
866.006	4421
866.137	4402
866.269	4405
866.4	4394
866.531	4459
866.662	4371
866.793	4398
866.924	4417
867.055	4485
867.186	4455
867.317	4398
867.448	4379
867.579	4398
867.71	4402
867.841	4341
867.972	4474
868.103	4436
868.233	4481
868.364	4394
868.495	4474
868.625	4622
868.756	4759
868.886	4546
869.017	4634
869.147	4759
869.278	4778
869.408	4668
869.539	4607
869.669	4668
869.799	4664
869.929	4736
870.06	4755
870.19	4965
870.32	4877
870.45	4911
870.58	4957
870.71	5056
870.84	5075
870.97	4911
871.1	4896
871.23	5128
871.36	5075
871.489	5045
871.619	5056
871.749	5056
871.879	5109
872.008	5151
872.138	5064
872.267	4957
872.397	4877
872.526	4805
872.656	4706
872.785	4744
872.915	4919
873.044	4957
873.173	4911
873.303	4938
873.432	4942
873.561	4946
873.69	4908
873.819	4835
873.948	4881
874.077	4786
874.206	4755
874.335	4812
874.464	4927
874.593	5045
874.722	4923
874.851	5098
874.979	5052
875.108	4961
875.237	4885
875.365	4885
875.494	4934
875.623	4976
875.751	4790
875.88	4854
876.008	4984
876.136	4984
876.265	5147
876.393	5357
876.521	5246
876.65	5201
876.778	5136
876.906	5105
877.034	4976
877.162	5006
877.29	4976
877.418	5048
877.546	5041
877.674	5033
877.802	4999
877.93	4984
878.058	4904
878.185	4862
878.313	4961
878.441	4949
878.568	4774
878.696	4896
878.824	4984
878.951	5037
879.079	5086
879.206	5250
879.333	5109
879.461	4896
879.588	4976
879.715	5086
879.842	5166
879.97	4957
880.097	4828
880.224	4736
880.351	4755
880.478	4744
880.605	4797
880.732	4755
880.859	5071
880.986	4881
881.112	4866
881.239	4774
881.366	4656
881.493	4611
881.619	4584
881.746	4668
881.872	4611
881.999	4626
882.125	4698
882.252	4778
882.378	4820
882.505	4930
882.631	4771
882.757	4706
882.883	4672
883.01	4660
883.136	4637
883.262	4577
883.388	4656
883.514	4786
883.64	4885
883.766	4801
883.892	4649
884.018	4729
884.143	4923
884.269	4972
884.395	4698
884.52	4637
884.646	4622
884.772	4550
884.897	4550
885.023	4641
885.148	4748
885.274	4843
885.399	4778
885.524	4675
885.65	4679
885.775	4752
885.9	4714
886.025	4831
886.15	4744
886.275	4698
886.4	4607
886.525	4740
886.65	4660
886.775	4656
886.9	4900
887.025	4949
887.149	4843
887.274	4664
887.399	4565
887.523	4641
887.648	4596
887.773	4588
887.897	4717
888.021	4797
888.146	4687
888.27	4805
888.395	4919
888.519	4778
888.643	4778
888.767	4839
888.891	4660
889.015	4634
889.139	4653
889.263	4596
889.387	4675
889.511	4866
889.635	4778
889.759	4626
889.883	4630
890.006	4725
890.13	4839
890.254	4599
890.377	4675
890.501	4542
890.624	4519
890.748	4615
890.871	4516
890.995	4455
891.118	4390
891.241	4519
891.364	4527
891.488	4577
891.611	4508
891.734	4561
891.857	4630
891.98	4546
892.103	4622
892.226	4592
892.349	4504
892.471	4466
892.594	4508
892.717	4611
892.839	4538
892.962	4554
893.085	4622
893.207	4588
893.33	4443
893.452	4558
893.575	4596
893.697	4577
893.819	4816
893.941	4801
894.064	4755
894.186	4577
894.308	4569
894.43	4729
894.552	4801
894.674	4767
894.796	4542
894.918	4626
895.04	4569
895.161	4740
895.283	4634
895.405	4584
895.526	4634
895.648	4683
895.769	4660
895.891	4653
896.012	4752
896.134	4744
896.255	4714
896.376	4626
896.498	4596
896.619	4656
896.74	4580
896.861	4679
896.982	4850
897.103	5048
897.224	4839
897.345	4755
897.466	4637
897.587	4759
897.708	4847
897.828	4721
897.949	4672
898.07	4558
898.19	4653
898.311	4828
898.431	4679
898.552	4691
898.672	4820
898.792	4801
898.913	4729
899.033	4645
899.153	4512
899.273	4409
899.393	4478
899.513	4542
899.633	4542
899.753	4523
899.873	4481
899.993	4596
900.113	4516
900.232	4550
900.352	4508
900.472	4432
900.591	4405
900.711	4478
900.83	4443
900.95	4637
901.069	4634
901.189	4546
901.308	4375
901.427	4287
901.546	4379
901.665	4436
901.784	4504
901.904	4405
902.023	4310
902.141	4166
902.26	4135
902.379	4303
902.498	4268
902.617	4223
902.735	4325
902.854	4325
902.973	4329
903.091	4147
903.21	4253
903.328	4287
903.446	4268
903.565	4272
903.683	4333
903.801	4265
903.919	4356
904.038	4424
904.156	4306
904.274	4432
904.392	4409
904.51	4405
904.627	4455
904.745	4584
904.863	4683
904.981	4379
905.098	4276
905.216	4367
905.334	4432
905.451	4424
905.569	4409
905.686	4546
905.803	4519
905.921	4421
906.038	4508
906.155	4474
906.272	4424
906.389	4497
906.506	4348
906.623	4341
906.74	4421
906.857	4341
906.974	4356
907.091	4569
907.208	4641
907.324	4531
907.441	4527
907.557	4287
907.674	4299
907.79	4333
907.907	4405
908.023	4443
908.139	4489
908.256	4383
908.372	4436
908.488	4462
908.604	4314
908.72	4363
908.836	4356
908.952	4383
909.068	4398
909.184	4573
909.3	4485
909.415	4577
909.531	4577
909.647	4325
909.762	4383
909.878	4352
909.993	4413
910.108	4379
910.224	4398
910.339	4470
910.454	4424
910.57	4325
910.685	4280
910.8	4599
910.915	4618
911.03	4481
911.145	4337
911.259	4348
911.374	4348
911.489	4295
911.604	4238
911.718	4181
911.833	4192
911.947	4063
912.062	4040
912.176	4211
912.291	4211
912.405	4223
912.519	4500
912.633	4508
912.748	4367
912.862	4310
912.976	4200
913.09	4048
913.204	4120
913.318	4291
913.431	4356
913.545	4341
913.659	4402
913.772	4344
913.886	4230
914	4211
914.113	4379
914.226	4409
914.34	4363
914.453	4173
914.566	4428
914.68	4299
914.793	4299
914.906	4154
915.019	4128
915.132	4097
915.245	4173
915.358	4219
915.47	4204
915.583	4276
915.696	4284
915.809	4402
915.921	4451
916.034	4246
916.146	4246
916.259	4215
916.371	4333
916.483	4360
916.595	4246
916.708	4299
916.82	4314
916.932	4333
917.044	4295
917.156	4314
917.268	4219
917.38	4265
917.491	4268
917.603	4356
917.715	4428
917.826	4428
917.938	4348
918.049	4242
918.161	4402
918.272	4481
918.384	4531
918.495	4481
918.606	4325
918.717	4230
918.828	4280
918.939	4367
919.05	4280
919.161	4306
919.272	4112
919.383	4246
919.494	4474
919.604	4615
919.715	4424
919.826	4318
919.936	4363
920.047	4538
920.157	4508
920.267	4721
920.378	4497
920.488	4497
920.598	4763
920.708	4870
920.818	4752
920.928	4759
921.038	4919
921.148	4900
921.258	4599
921.368	4542
921.477	4474
921.587	4466
921.697	4379
921.806	4493
921.916	4432
922.025	4238
922.134	4291
922.244	4268
922.353	4314
922.462	4223
922.571	4101
922.68	3979
922.789	4032
922.898	4044
923.007	3983
923.116	4090
923.224	4040
923.333	4044
923.442	3972
923.55	3998
923.659	4071
923.767	4090
923.876	4013
923.984	4090
924.092	3941
924.201	4105
924.309	4063
924.417	4112
924.525	4090
924.633	4116
924.741	5056
924.849	3888
924.956	4082
925.064	3975
925.172	3869
925.279	3991
925.387	4010
925.494	3975
925.602	4185
925.709	4166
925.816	4021
925.924	4135
926.031	4204
926.138	4124
926.245	4185
926.352	4097
926.459	4261
926.566	4280
926.673	4162
926.779	4086
926.886	4071
926.993	3972
927.099	3949
927.206	3949
927.312	3945
927.419	4067
927.525	4017
927.631	4097
927.737	3949
927.843	3926
927.95	3857
928.056	3907
928.162	4021
928.267	4051
928.373	4645
928.479	4048
928.585	3880
928.69	3987
928.796	4048
928.901	3979
929.007	3797
929.112	3983
929.218	3964
929.323	3926
929.428	3953
929.533	4097
929.638	3911
929.743	3949
929.848	4040
929.953	3991
930.058	3926
930.163	3789
930.267	3793
930.372	3960
930.477	3804
930.581	4109
930.685	3949
930.79	3850
930.894	3850
930.998	3869
931.103	4021
931.207	3705
931.311	3724
931.415	3720
931.519	3443
931.623	3553
