Data from test_V78500241_975.txt Node
Date: Fri Mar 25 16:55:46 CST 2022
User: usil
Spectrometer: V785-0024
Trigger mode: 0
Integration Time (sec): 4.000000E-1
Scans to average: 1
Nonlinearity correction enabled: false
Boxcar width: 0
Storing dark spectrum: false
XAxis mode: Wavelengths
Number of Pixels in Spectrum: 1024
>>>>>Begin Spectral Data<<<<<
801.071	8008
801.214	8005
801.356	7917
801.499	7879
801.641	7757
801.783	7761
801.926	7944
802.068	7894
802.211	7967
802.353	7936
802.496	7799
802.638	7814
802.78	7830
802.923	7936
803.065	7902
803.208	7906
803.35	7944
803.492	8111
803.635	8096
803.777	7989
803.919	8054
804.061	8393
804.204	8172
804.346	8031
804.488	7936
804.63	8103
804.773	8016
804.915	8138
805.057	8252
805.199	8145
805.341	8210
805.483	8237
805.626	8107
805.768	8046
805.91	8183
806.052	8244
806.194	8054
806.336	8271
806.478	8043
806.62	8024
806.762	8111
806.904	8195
807.046	8412
807.188	8328
807.33	8309
807.472	8374
807.614	8221
807.756	8050
807.898	7997
808.04	7887
808.182	7917
808.324	7951
808.465	7902
808.607	8027
808.749	8054
808.891	8123
809.033	8271
809.174	8149
809.316	8077
809.458	8001
809.6	7959
809.741	8016
809.883	8050
810.025	8103
810.166	8046
810.308	7993
810.45	8001
810.591	7875
810.733	7719
810.875	7620
811.016	7510
811.158	7544
811.299	7578
811.441	7674
811.582	7613
811.724	7540
811.865	7510
812.007	7540
812.148	7620
812.29	7636
812.431	7712
812.573	7890
812.714	7940
812.855	8092
812.997	8199
813.138	8286
813.279	8130
813.421	8119
813.562	8008
813.703	7860
813.845	7803
813.986	7544
814.127	7221
814.268	7259
814.41	7107
814.551	7107
814.692	7156
814.833	7065
814.974	7050
815.115	7152
815.256	6901
815.397	6932
815.539	6924
815.68	6867
815.821	6787
815.962	6875
816.103	6772
816.244	6764
816.385	6642
816.526	6566
816.666	6467
816.807	6273
816.948	6403
817.089	6429
817.23	6475
817.371	6410
817.512	6357
817.653	6391
817.793	6410
817.934	6441
818.075	6486
818.216	6464
818.356	6395
818.497	6205
818.638	6144
818.778	6163
818.919	6110
819.06	6182
819.2	6232
819.341	6323
819.481	6445
819.622	6502
819.762	6802
819.903	6673
820.043	6616
820.184	6525
820.324	6578
820.465	6692
820.605	6719
820.746	6684
820.886	6502
821.026	6582
821.167	6677
821.307	6821
821.447	6707
821.588	6662
821.728	6547
821.868	6456
822.008	6323
822.149	6308
822.289	6327
822.429	6182
822.569	6083
822.709	6030
822.849	5832
822.99	5912
823.13	5931
823.27	5927
823.41	5760
823.55	5741
823.69	5737
823.83	5771
823.97	5657
824.11	5558
824.25	5497
824.389	5566
824.529	5570
824.669	5516
824.809	5653
824.949	5611
825.089	5577
825.228	5516
825.368	5402
825.508	5288
825.648	5318
825.787	5368
825.927	5353
826.067	5261
826.206	5299
826.346	5345
826.485	5360
826.625	5436
826.765	5528
826.904	5440
827.044	5265
827.183	5216
827.323	5090
827.462	5235
827.601	5124
827.741	5159
827.88	5220
828.02	5083
828.159	5223
828.298	5322
828.437	5360
828.577	5265
828.716	5501
828.855	5322
828.994	5147
829.134	5128
829.273	5189
829.412	5140
829.551	5109
829.69	5147
829.829	5197
829.968	5379
830.107	5307
830.246	5273
830.385	5147
830.524	5178
830.663	5033
830.802	4968
830.941	4919
831.08	4870
831.219	4972
831.357	4972
831.496	5189
831.635	4938
831.774	4782
831.913	4850
832.051	4687
832.19	4702
832.329	4790
832.467	4683
832.606	4630
832.744	4672
832.883	4736
833.022	4721
833.16	4793
833.299	4759
833.437	4835
833.576	4793
833.714	4824
833.852	4831
833.991	4870
834.129	4961
834.267	4976
834.406	4862
834.544	4953
834.682	4991
834.821	5018
834.959	5105
835.097	5064
835.235	5094
835.373	5075
835.511	5094
835.65	4999
835.788	5052
835.926	4885
836.064	4881
836.202	4873
836.34	5136
836.478	5242
836.615	5147
836.753	5181
836.891	5246
837.029	5227
837.167	5189
837.305	5178
837.443	5162
837.58	5056
837.718	5193
837.856	5166
837.993	5132
838.131	5231
838.269	5212
838.406	5174
838.544	5174
838.681	4976
838.819	4999
838.956	4930
839.094	4919
839.231	4957
839.369	5071
839.506	5372
839.643	5227
839.781	5052
839.918	4976
840.055	5086
840.193	5067
840.33	5136
840.467	5094
840.604	5147
840.742	5452
840.879	5048
841.016	5037
841.153	5174
841.29	5368
841.427	5341
841.564	5337
841.701	5322
841.838	5265
841.975	5273
842.112	5227
842.249	5086
842.385	5033
842.522	5269
842.659	5185
842.796	5086
842.933	5143
843.069	5098
843.206	5151
843.343	5231
843.479	5204
843.616	5269
843.752	5037
843.889	4980
844.025	5143
844.162	5033
844.298	5185
844.435	5079
844.571	4999
844.708	5185
844.844	5288
844.98	5307
845.117	5337
845.253	5174
845.389	5090
845.525	5140
845.661	5132
845.798	5041
845.934	5079
846.07	4976
846.206	5185
846.342	5254
846.478	5159
846.614	5010
846.75	4961
846.886	4949
847.022	5174
847.158	4991
847.294	5052
847.429	5079
847.565	5056
847.701	5337
847.837	4820
847.972	4809
848.108	4949
848.244	4908
848.379	4721
848.515	4679
848.65	4744
848.786	4755
848.921	4790
849.057	4877
849.192	4873
849.328	4824
849.463	4831
849.598	4801
849.734	4782
849.869	4641
850.004	4622
850.14	4675
850.275	4603
850.41	4497
850.545	4546
850.68	4611
850.815	4626
850.95	4592
851.085	4809
851.22	4740
851.355	4675
851.49	4607
851.625	4615
851.76	4637
851.895	4535
852.03	4504
852.165	4641
852.299	4664
852.434	4816
852.569	4771
852.703	4721
852.838	4847
852.973	4949
853.107	4866
853.242	4736
853.376	4656
853.511	4550
853.645	4607
853.78	4778
853.914	4637
854.048	4653
854.183	4561
854.317	4672
854.451	4805
854.585	4656
854.72	4641
854.854	4767
854.988	4577
855.122	4603
855.256	4466
855.39	4599
855.524	4782
855.658	4698
855.792	4679
855.926	4675
856.06	4771
856.194	4725
856.327	4691
856.461	4603
856.595	4603
856.729	4618
856.862	4725
856.996	4694
857.13	4668
857.263	4752
857.397	4786
857.53	4626
857.664	4721
857.797	4744
857.931	4793
858.064	4698
858.197	4717
858.331	4626
858.464	4599
858.597	4516
858.731	4542
858.864	4615
858.997	4573
859.13	4607
859.263	4656
859.396	4752
859.529	4561
859.662	4516
859.795	4455
859.928	4618
860.061	4786
860.194	4752
860.327	4592
860.46	4546
860.592	4698
860.725	4721
860.858	4725
860.99	4580
861.123	4462
861.256	4554
861.388	4653
861.521	5280
861.653	4519
861.786	4405
861.918	4432
862.05	4497
862.183	4565
862.315	4607
862.447	4675
862.58	4558
862.712	4390
862.844	4295
862.976	4478
863.108	4413
863.24	4839
863.372	4310
863.504	4413
863.636	4379
863.768	4493
863.9	4421
864.032	4360
864.164	4386
864.296	4421
864.428	4542
864.559	4565
864.691	4508
864.823	4489
864.954	4481
865.086	4470
865.217	4417
865.349	4371
865.48	4504
865.612	4481
865.743	4656
865.875	4485
866.006	4443
866.137	4470
866.269	4443
866.4	4432
866.531	4356
866.662	4371
866.793	4421
866.924	4390
867.055	4424
867.186	4440
867.317	4409
867.448	4386
867.579	4352
867.71	4371
867.841	4352
867.972	4474
868.103	4485
868.233	4428
868.364	4443
868.495	4470
868.625	4687
868.756	4744
868.886	4546
869.017	4641
869.147	4729
869.278	4748
869.408	4691
869.539	4618
869.669	4691
869.799	4626
869.929	4744
870.06	4755
870.19	4923
870.32	4870
870.45	4900
870.58	5018
870.71	5052
870.84	5079
870.97	4984
871.1	4885
871.23	5113
871.36	5117
871.489	4965
871.619	5056
871.749	5098
871.879	5109
872.008	5181
872.138	5048
872.267	4942
872.397	4873
872.526	4778
872.656	4698
872.785	4820
872.915	4911
873.044	5033
873.173	4904
873.303	4934
873.432	4915
873.561	4949
873.69	4858
873.819	4812
873.948	4915
874.077	4790
874.206	4801
874.335	4752
874.464	4927
874.593	5006
874.722	4968
874.851	5056
874.979	5105
875.108	5025
875.237	4915
875.365	4866
875.494	4881
875.623	4976
875.751	4828
875.88	4862
876.008	4942
876.136	4957
876.265	5155
876.393	5311
876.521	5254
876.65	5178
876.778	5166
876.906	4995
877.034	4991
877.162	5014
877.29	4968
877.418	5060
877.546	5022
877.674	5041
877.802	5014
877.93	4999
878.058	4927
878.185	4862
878.313	4957
878.441	4919
878.568	4812
878.696	4850
878.824	4923
878.951	4942
879.079	5128
879.206	5277
879.333	5064
879.461	4995
879.588	4927
879.715	5083
879.842	5254
879.97	5006
880.097	4755
880.224	4786
880.351	4816
880.478	4812
880.605	4801
880.732	4793
880.859	5060
880.986	4900
881.112	4847
881.239	4767
881.366	4679
881.493	4584
881.619	4538
881.746	4611
881.872	4618
881.999	4653
882.125	4664
882.252	4797
882.378	4812
882.505	4911
882.631	4850
882.757	4675
882.883	4702
883.01	4729
883.136	4660
883.262	4577
883.388	4573
883.514	4805
883.64	4801
883.766	4797
883.892	4679
884.018	4744
884.143	4904
884.269	4957
884.395	4634
884.52	4618
884.646	4653
884.772	4558
884.897	4523
885.023	4683
885.148	4752
885.274	4885
885.399	4763
885.524	4687
885.65	4698
885.775	4740
885.9	4656
886.025	4816
886.15	4771
886.275	4691
886.4	4683
886.525	4683
886.65	4660
886.775	4687
886.9	4847
887.025	5067
887.149	4778
887.274	4622
887.399	4558
887.523	4569
887.648	4611
887.773	4558
887.897	4752
888.021	4759
888.146	4710
888.27	4774
888.395	4904
888.519	4782
888.643	4847
888.767	4805
888.891	4691
889.015	4592
889.139	4615
889.263	4592
889.387	4706
889.511	4824
889.635	4786
889.759	4660
889.883	4653
890.006	4733
890.13	4801
890.254	4554
890.377	4656
890.501	4542
890.624	4516
890.748	4607
890.871	4527
890.995	4386
891.118	4375
891.241	4508
891.364	4538
891.488	4618
891.611	4508
891.734	4538
891.857	4615
891.98	4519
892.103	4649
892.226	4603
892.349	4512
892.471	4409
892.594	4588
892.717	4573
892.839	4542
892.962	4580
893.085	4637
893.207	4519
893.33	4462
893.452	4485
893.575	4660
893.697	4584
893.819	4793
893.941	4816
894.064	4744
894.186	4573
894.308	4531
894.43	4755
894.552	4797
894.674	4736
894.796	4561
894.918	4554
895.04	4546
895.161	4714
895.283	4660
895.405	4588
895.526	4664
895.648	4691
895.769	4687
895.891	4706
896.012	4706
896.134	4714
896.255	4683
896.376	4637
896.498	4607
896.619	4694
896.74	4622
896.861	4603
896.982	4873
897.103	5056
897.224	4824
897.345	4736
897.466	4668
897.587	4714
897.708	4889
897.828	4733
897.949	4660
898.07	4554
898.19	4615
898.311	4809
898.431	4626
898.552	4694
898.672	4774
898.792	4873
898.913	4744
899.033	4611
899.153	4516
899.273	4417
899.393	4493
899.513	4516
899.633	4500
899.753	4607
899.873	4516
899.993	4550
900.113	4542
900.232	4565
900.352	4538
900.472	4500
900.591	4424
900.711	4485
900.83	4447
900.95	4577
901.069	4694
901.189	4577
901.308	4375
901.427	4276
901.546	4348
901.665	4428
901.784	4455
901.904	4344
902.023	4295
902.141	4169
902.26	4166
902.379	4303
902.498	4246
902.617	4192
902.735	4325
902.854	4386
902.973	4333
903.091	4215
903.21	4227
903.328	4265
903.446	4238
903.565	4249
903.683	4348
903.801	4268
903.919	4348
904.038	4417
904.156	4287
904.274	4390
904.392	4398
904.51	4462
904.627	4466
904.745	4516
904.863	4584
904.981	4356
905.098	4299
905.216	4367
905.334	4424
905.451	4436
905.569	4443
905.686	4554
905.803	4519
905.921	4421
906.038	4474
906.155	4390
906.272	4352
906.389	4478
906.506	4386
906.623	4344
906.74	4375
906.857	4234
906.974	4379
907.091	4580
907.208	4683
907.324	4527
907.441	4481
907.557	4375
907.674	4325
907.79	4314
907.907	4360
908.023	4466
908.139	4470
908.256	4478
908.372	4447
908.488	4428
908.604	4344
908.72	4352
908.836	4375
908.952	4371
909.068	4417
909.184	4561
909.3	4478
909.415	4561
909.531	4538
909.647	4363
909.762	4375
909.878	4356
909.993	4390
910.108	4394
910.224	4379
910.339	4497
910.454	4451
910.57	4318
910.685	4284
910.8	4580
910.915	4580
911.03	4478
911.145	4272
911.259	4325
911.374	4375
911.489	4249
911.604	4303
911.718	4124
911.833	4219
911.947	4055
912.062	4025
912.176	4196
912.291	4219
912.405	4246
912.519	4440
912.633	4462
912.748	4341
912.862	4348
912.976	4211
913.09	4116
913.204	4131
913.318	4246
913.431	4371
913.545	4348
913.659	4436
913.772	4398
913.886	4192
914	4246
914.113	4348
914.226	4424
914.34	4367
914.453	4230
914.566	4417
914.68	4261
914.793	4303
914.906	4154
915.019	4074
915.132	4051
915.245	4185
915.358	4196
915.47	4211
915.583	4246
915.696	4314
915.809	4402
915.921	4394
916.034	4257
916.146	4257
916.259	4249
916.371	4367
916.483	4337
916.595	4253
916.708	4318
916.82	4299
916.932	4341
917.044	4306
917.156	4325
917.268	4173
917.38	4223
917.491	4299
917.603	4329
917.715	4443
917.826	4478
917.938	4337
918.049	4246
918.161	4379
918.272	4558
918.384	4523
918.495	4405
918.606	4310
918.717	4253
918.828	4318
918.939	4337
919.05	4257
919.161	4295
919.272	4143
919.383	4223
919.494	4428
919.604	4618
919.715	4383
919.826	4341
919.936	4440
920.047	4508
920.157	4508
920.267	4660
920.378	4550
920.488	4489
920.598	4721
920.708	4889
920.818	4797
920.928	4736
921.038	4923
921.148	4873
921.258	4561
921.368	4573
921.477	4500
921.587	4474
921.697	4341
921.806	4531
921.916	4417
922.025	4268
922.134	4242
922.244	4192
922.353	4318
922.462	4204
922.571	4090
922.68	3949
922.789	3956
922.898	4010
923.007	4048
923.116	4093
923.224	4044
923.333	4063
923.442	3968
923.55	3907
923.659	4029
923.767	4082
923.876	3964
923.984	4078
924.092	3991
924.201	4051
924.309	4055
924.417	4101
924.525	4067
924.633	4051
924.741	5041
924.849	3930
924.956	4105
925.064	3979
925.172	3865
925.279	3956
925.387	4078
925.494	4078
925.602	4181
925.709	4177
925.816	4010
925.924	4109
926.031	4196
926.138	4166
926.245	4234
926.352	4116
926.459	4215
926.566	4287
926.673	4154
926.779	4059
926.886	4040
926.993	3987
927.099	3960
927.206	3968
927.312	3880
927.419	4021
927.525	4021
927.631	4093
927.737	3949
927.843	3922
927.95	3838
928.056	3934
928.162	4013
928.267	4048
928.373	4668
928.479	4116
928.585	3869
928.69	4010
928.796	4013
928.901	3949
929.007	3804
929.112	3960
929.218	3994
929.323	3964
929.428	3934
929.533	4112
929.638	3911
929.743	3956
929.848	4048
929.953	3991
930.058	3922
930.163	3755
930.267	3804
930.372	3956
930.477	3759
930.581	4105
930.685	3926
930.79	3823
930.894	3869
930.998	3789
931.103	4017
931.207	3728
931.311	3690
931.415	3656
931.519	3488
931.623	3545
