Data from test_V78500241_2132.txt Node
Date: Fri Mar 25 17:03:49 CST 2022
User: usil
Spectrometer: V785-0024
Trigger mode: 0
Integration Time (sec): 4.000000E-1
Scans to average: 1
Nonlinearity correction enabled: false
Boxcar width: 0
Storing dark spectrum: false
XAxis mode: Wavelengths
Number of Pixels in Spectrum: 1024
>>>>>Begin Spectral Data<<<<<
801.071	8001
801.214	7959
801.356	7898
801.499	7940
801.641	7784
801.783	7845
801.926	7932
802.068	7955
802.211	7989
802.353	7970
802.496	7841
802.638	7871
802.78	7845
802.923	7845
803.065	7871
803.208	7887
803.35	7959
803.492	8100
803.635	8202
803.777	8100
803.919	8157
804.061	8408
804.204	8168
804.346	8111
804.488	7993
804.63	8062
804.773	7982
804.915	8077
805.057	8328
805.199	8221
805.341	8240
805.483	8256
805.626	8210
805.768	8168
805.91	8138
806.052	8256
806.194	8153
806.336	8267
806.478	8077
806.62	8103
806.762	8145
806.904	8305
807.046	8522
807.188	8389
807.33	8282
807.472	8290
807.614	8130
807.756	8088
807.898	7986
808.04	7902
808.182	7940
808.324	7940
808.465	7856
808.607	8107
808.749	8145
808.891	8202
809.033	8343
809.174	8191
809.316	8065
809.458	8058
809.6	7978
809.741	8134
809.883	7997
810.025	8062
810.166	8084
810.308	8069
810.45	8001
810.591	7818
810.733	7734
810.875	7681
811.016	7487
811.158	7445
811.299	7575
811.441	7715
811.582	7666
811.724	7529
811.865	7495
812.007	7552
812.148	7601
812.29	7586
812.431	7780
812.573	7875
812.714	7940
812.855	8142
812.997	8168
813.138	8271
813.279	8058
813.421	8119
813.562	7951
813.703	7818
813.845	7723
813.986	7419
814.127	7202
814.268	7152
814.41	7213
814.551	7160
814.692	7247
814.833	7118
814.974	7110
815.115	7038
815.256	7000
815.397	6901
815.539	6947
815.68	6837
815.821	6719
815.962	6833
816.103	6814
816.244	6700
816.385	6566
816.526	6604
816.666	6441
816.807	6296
816.948	6418
817.089	6414
817.23	6395
817.371	6334
817.512	6365
817.653	6403
817.793	6342
817.934	6426
818.075	6433
818.216	6388
818.356	6388
818.497	6285
818.638	6171
818.778	6163
818.919	6133
819.06	6159
819.2	6353
819.341	6311
819.481	6376
819.622	6521
819.762	6707
819.903	6642
820.043	6528
820.184	6593
820.324	6604
820.465	6688
820.605	6654
820.746	6627
820.886	6547
821.026	6673
821.167	6749
821.307	6852
821.447	6722
821.588	6623
821.728	6547
821.868	6498
822.008	6365
822.149	6376
822.289	6369
822.429	6159
822.569	6125
822.709	6136
822.849	5901
822.99	5916
823.13	5923
823.27	5923
823.41	5798
823.55	5802
823.69	5786
823.83	5790
823.97	5649
824.11	5543
824.25	5509
824.389	5589
824.529	5638
824.669	5547
824.809	5684
824.949	5680
825.089	5668
825.228	5535
825.368	5406
825.508	5406
825.648	5360
825.787	5429
825.927	5376
826.067	5341
826.206	5303
826.346	5433
826.485	5398
826.625	5459
826.765	5611
826.904	5474
827.044	5337
827.183	5250
827.323	5128
827.462	5322
827.601	5223
827.741	5242
827.88	5242
828.02	5113
828.159	5296
828.298	5372
828.437	5429
828.577	5341
828.716	5535
828.855	5341
828.994	5220
829.134	5174
829.273	5242
829.412	5136
829.551	5170
829.69	5204
829.829	5239
829.968	5410
830.107	5265
830.246	5353
830.385	5197
830.524	5204
830.663	5105
830.802	4999
830.941	4873
831.08	4873
831.219	4991
831.357	5014
831.496	5197
831.635	4972
831.774	4900
831.913	4904
832.051	4767
832.19	4790
832.329	4911
832.467	4729
832.606	4672
832.744	4759
832.883	4767
833.022	4733
833.16	4778
833.299	4892
833.437	4870
833.576	4911
833.714	4877
833.852	4923
833.991	4984
834.129	4968
834.267	5010
834.406	4866
834.544	5048
834.682	4999
834.821	4999
834.959	5227
835.097	4980
835.235	5170
835.373	5094
835.511	5113
835.65	5079
835.788	5060
835.926	4904
836.064	4896
836.202	4923
836.34	5212
836.478	5258
836.615	5151
836.753	5235
836.891	5307
837.029	5246
837.167	5204
837.305	5201
837.443	5151
837.58	5170
837.718	5273
837.856	5193
837.993	5178
838.131	5311
838.269	5311
838.406	5242
838.544	5239
838.681	5033
838.819	4995
838.956	4923
839.094	4972
839.231	5037
839.369	5109
839.506	5452
839.643	5299
839.781	5083
839.918	5037
840.055	5117
840.193	5147
840.33	5113
840.467	5208
840.604	5201
840.742	5474
840.879	5132
841.016	5124
841.153	5166
841.29	5433
841.427	5353
841.564	5337
841.701	5383
841.838	5269
841.975	5307
842.112	5311
842.249	5201
842.385	5132
842.522	5357
842.659	5147
842.796	5189
842.933	5258
843.069	5147
843.206	5181
843.343	5292
843.479	5277
843.616	5318
843.752	5075
843.889	5045
844.025	5277
844.162	5025
844.298	5223
844.435	5181
844.571	5056
844.708	5235
844.844	5330
844.98	5376
845.117	5326
845.253	5159
845.389	5132
845.525	5178
845.661	5189
845.798	5029
845.934	5143
846.07	5090
846.206	5220
846.342	5318
846.478	5170
846.614	5056
846.75	5014
846.886	5010
847.022	5159
847.158	5075
847.294	5124
847.429	5170
847.565	5083
847.701	5360
847.837	4900
847.972	4824
848.108	4942
848.244	4949
848.379	4740
848.515	4755
848.65	4759
848.786	4759
848.921	4843
849.057	4900
849.192	4968
849.328	4843
849.463	4896
849.598	4824
849.734	4797
849.869	4721
850.004	4653
850.14	4710
850.275	4596
850.41	4584
850.545	4584
850.68	4630
850.815	4649
850.95	4656
851.085	4866
851.22	4778
851.355	4717
851.49	4672
851.625	4656
851.76	4679
851.895	4592
852.03	4554
852.165	4683
852.299	4790
852.434	4782
852.569	4759
852.703	4790
852.838	4862
852.973	4953
853.107	4957
853.242	4774
853.376	4778
853.511	4546
853.645	4603
853.78	4862
853.914	4725
854.048	4683
854.183	4637
854.317	4736
854.451	4866
854.585	4698
854.72	4683
854.854	4763
854.988	4641
855.122	4637
855.256	4519
855.39	4694
855.524	4801
855.658	4767
855.792	4744
855.926	4740
856.06	4812
856.194	4904
856.327	4706
856.461	4653
856.595	4672
856.729	4634
856.862	4797
856.996	4698
857.13	4752
857.263	4752
857.397	4820
857.53	4687
857.664	4706
857.797	4759
857.931	4835
858.064	4706
858.197	4748
858.331	4660
858.464	4668
858.597	4569
858.731	4668
858.864	4691
858.997	4630
859.13	4694
859.263	4687
859.396	4683
859.529	4607
859.662	4584
859.795	4554
859.928	4694
860.061	4816
860.194	4793
860.327	4649
860.46	4626
860.592	4740
860.725	4797
860.858	4771
860.99	4558
861.123	4561
861.256	4577
861.388	4656
861.521	5467
861.653	4493
861.786	4470
861.918	4455
862.05	4527
862.183	4554
862.315	4599
862.447	4668
862.58	4580
862.712	4466
862.844	4360
862.976	4512
863.108	4561
863.24	4820
863.372	4348
863.504	4474
863.636	4428
863.768	4546
863.9	4432
864.032	4371
864.164	4375
864.296	4500
864.428	4573
864.559	4554
864.691	4535
864.823	4542
864.954	4500
865.086	4519
865.217	4470
865.349	4481
865.48	4497
865.612	4516
865.743	4637
865.875	4466
866.006	4428
866.137	4478
866.269	4462
866.4	4455
866.531	4451
866.662	4402
866.793	4459
866.924	4443
867.055	4535
867.186	4451
867.317	4443
867.448	4386
867.579	4390
867.71	4489
867.841	4390
867.972	4500
868.103	4440
868.233	4462
868.364	4466
868.495	4500
868.625	4649
868.756	4782
868.886	4584
869.017	4664
869.147	4831
869.278	4786
869.408	4645
869.539	4664
869.669	4729
869.799	4702
869.929	4759
870.06	4759
870.19	4987
870.32	4911
870.45	4976
870.58	5052
870.71	5128
870.84	5128
870.97	4972
871.1	4949
871.23	5102
871.36	5090
871.489	5079
871.619	5132
871.749	5117
871.879	5159
872.008	5208
872.138	5136
872.267	5018
872.397	4847
872.526	4835
872.656	4714
872.785	4835
872.915	5003
873.044	5029
873.173	4953
873.303	4995
873.432	4987
873.561	5010
873.69	4858
873.819	4854
873.948	4862
874.077	4831
874.206	4782
874.335	4801
874.464	4953
874.593	5071
874.722	4984
874.851	5121
874.979	5102
875.108	5060
875.237	4957
875.365	4870
875.494	4896
875.623	4965
875.751	4820
875.88	4904
876.008	4930
876.136	5105
876.265	5212
876.393	5376
876.521	5261
876.65	5162
876.778	5166
876.906	5098
877.034	5033
877.162	5041
877.29	5064
877.418	5090
877.546	5052
877.674	5029
877.802	5090
877.93	5006
878.058	4949
878.185	4889
878.313	4965
878.441	4995
878.568	4805
878.696	4919
878.824	4938
878.951	4991
879.079	5105
879.206	5345
879.333	5086
879.461	4968
879.588	5048
879.715	5140
879.842	5189
879.97	5022
880.097	4771
880.224	4755
880.351	4805
880.478	4850
880.605	4801
880.732	4820
880.859	5136
880.986	4892
881.112	4915
881.239	4774
881.366	4656
881.493	4645
881.619	4588
881.746	4672
881.872	4656
881.999	4653
882.125	4740
882.252	4801
882.378	4858
882.505	5010
882.631	4854
882.757	4660
882.883	4801
883.01	4721
883.136	4691
883.262	4588
883.388	4637
883.514	4809
883.64	4892
883.766	4801
883.892	4672
884.018	4706
884.143	4828
884.269	4999
884.395	4729
884.52	4626
884.646	4687
884.772	4580
884.897	4569
885.023	4664
885.148	4828
885.274	4873
885.399	4744
885.524	4736
885.65	4729
885.775	4767
885.9	4717
886.025	4847
886.15	4778
886.275	4771
886.4	4694
886.525	4691
886.65	4714
886.775	4721
886.9	4889
887.025	5041
887.149	4774
887.274	4645
887.399	4615
887.523	4611
887.648	4577
887.773	4580
887.897	4774
888.021	4790
888.146	4672
888.27	4873
888.395	4889
888.519	4797
888.643	4843
888.767	4809
888.891	4672
889.015	4660
889.139	4637
889.263	4656
889.387	4744
889.511	4900
889.635	4778
889.759	4645
889.883	4653
890.006	4797
890.13	4793
890.254	4615
890.377	4656
890.501	4538
890.624	4516
890.748	4694
890.871	4535
890.995	4413
891.118	4398
891.241	4516
891.364	4512
891.488	4679
891.611	4550
891.734	4508
891.857	4565
891.98	4527
892.103	4729
892.226	4580
892.349	4565
892.471	4398
892.594	4599
892.717	4592
892.839	4592
892.962	4599
893.085	4660
893.207	4580
893.33	4447
893.452	4478
893.575	4675
893.697	4538
893.819	4763
893.941	4862
894.064	4790
894.186	4577
894.308	4554
894.43	4755
894.552	4843
894.674	4725
894.796	4538
894.918	4630
895.04	4565
895.161	4755
895.283	4710
895.405	4584
895.526	4607
895.648	4733
895.769	4675
895.891	4702
896.012	4767
896.134	4710
896.255	4656
896.376	4618
896.498	4607
896.619	4672
896.74	4569
896.861	4599
896.982	4904
897.103	5083
897.224	4850
897.345	4752
897.466	4675
897.587	4698
897.708	4858
897.828	4748
897.949	4679
898.07	4577
898.19	4618
898.311	4820
898.431	4694
898.552	4721
898.672	4835
898.792	4805
898.913	4755
899.033	4649
899.153	4497
899.273	4417
899.393	4455
899.513	4535
899.633	4500
899.753	4561
899.873	4580
899.993	4531
900.113	4584
900.232	4615
900.352	4538
900.472	4481
900.591	4394
900.711	4485
900.83	4428
900.95	4577
901.069	4759
901.189	4523
901.308	4398
901.427	4352
901.546	4394
901.665	4443
901.784	4500
901.904	4394
902.023	4333
902.141	4192
902.26	4185
902.379	4333
902.498	4261
902.617	4215
902.735	4360
902.854	4424
902.973	4356
903.091	4158
903.21	4230
903.328	4295
903.446	4265
903.565	4287
903.683	4325
903.801	4310
903.919	4390
904.038	4409
904.156	4344
904.274	4443
904.392	4413
904.51	4428
904.627	4459
904.745	4596
904.863	4675
904.981	4424
905.098	4291
905.216	4379
905.334	4478
905.451	4409
905.569	4462
905.686	4500
905.803	4596
905.921	4432
906.038	4561
906.155	4527
906.272	4398
906.389	4508
906.506	4367
906.623	4356
906.74	4402
906.857	4341
906.974	4344
907.091	4531
907.208	4626
907.324	4523
907.441	4497
907.557	4337
907.674	4356
907.79	4261
907.907	4394
908.023	4504
908.139	4455
908.256	4447
908.372	4462
908.488	4413
908.604	4379
908.72	4325
908.836	4386
908.952	4375
909.068	4371
909.184	4546
909.3	4436
909.415	4596
909.531	4523
909.647	4329
909.762	4371
909.878	4337
909.993	4485
910.108	4421
910.224	4417
910.339	4466
910.454	4417
910.57	4344
910.685	4295
910.8	4691
910.915	4592
911.03	4500
911.145	4276
911.259	4360
911.374	4341
911.489	4299
911.604	4265
911.718	4181
911.833	4227
911.947	4082
912.062	4067
912.176	4219
912.291	4227
912.405	4276
912.519	4428
912.633	4497
912.748	4352
912.862	4299
912.976	4242
913.09	4082
913.204	4166
913.318	4284
913.431	4352
913.545	4360
913.659	4462
913.772	4360
913.886	4215
914	4238
914.113	4390
914.226	4421
914.34	4394
914.453	4230
914.566	4417
914.68	4287
914.793	4280
914.906	4177
915.019	4147
915.132	4055
915.245	4181
915.358	4192
915.47	4246
915.583	4299
915.696	4268
915.809	4383
915.921	4436
916.034	4253
916.146	4261
916.259	4219
916.371	4398
916.483	4367
916.595	4325
916.708	4390
916.82	4352
916.932	4325
917.044	4341
917.156	4337
917.268	4242
917.38	4242
917.491	4284
917.603	4329
917.715	4451
917.826	4451
917.938	4344
918.049	4242
918.161	4432
918.272	4546
918.384	4493
918.495	4379
918.606	4325
918.717	4261
918.828	4329
918.939	4363
919.05	4265
919.161	4344
919.272	4139
919.383	4249
919.494	4455
919.604	4626
919.715	4398
919.826	4291
919.936	4417
920.047	4504
920.157	4481
920.267	4702
920.378	4550
920.488	4508
920.598	4668
920.708	4908
920.818	4812
920.928	4771
921.038	4987
921.148	4904
921.258	4626
921.368	4538
921.477	4466
921.587	4497
921.697	4394
921.806	4531
921.916	4428
922.025	4242
922.134	4306
922.244	4207
922.353	4329
922.462	4215
922.571	4158
922.68	4006
922.789	3937
922.898	4036
923.007	4029
923.116	4131
923.224	4082
923.333	4067
923.442	4013
923.55	3994
923.659	4074
923.767	4093
923.876	3991
923.984	4131
924.092	3968
924.201	4109
924.309	4120
924.417	4112
924.525	4051
924.633	4112
924.741	5064
924.849	3903
924.956	4135
925.064	3960
925.172	3941
925.279	3949
925.387	4067
925.494	4059
925.602	4238
925.709	4200
925.816	4021
925.924	4139
926.031	4227
926.138	4181
926.245	4204
926.352	4086
926.459	4227
926.566	4295
926.673	4150
926.779	4101
926.886	4067
926.993	3979
927.099	3953
927.206	3918
927.312	3922
927.419	4067
927.525	4071
927.631	4128
927.737	3983
927.843	3956
927.95	3869
928.056	3975
928.162	3998
928.267	4040
928.373	4592
928.479	4101
928.585	3884
928.69	4032
928.796	4074
928.901	3983
929.007	3876
929.112	4036
929.218	3998
929.323	3930
929.428	3911
929.533	4112
929.638	3869
929.743	3930
929.848	4082
929.953	3953
930.058	3934
930.163	3800
930.267	3781
930.372	3998
930.477	3819
930.581	4048
930.685	3926
930.79	3823
930.894	3896
930.998	3876
931.103	4048
931.207	3698
931.311	3694
931.415	3660
931.519	3496
931.623	3557
