Data from test_V78500241_840.txt Node
Date: Fri Mar 25 16:54:50 CST 2022
User: usil
Spectrometer: V785-0024
Trigger mode: 0
Integration Time (sec): 4.000000E-1
Scans to average: 1
Nonlinearity correction enabled: false
Boxcar width: 0
Storing dark spectrum: false
XAxis mode: Wavelengths
Number of Pixels in Spectrum: 1024
>>>>>Begin Spectral Data<<<<<
801.071	7955
801.214	8054
801.356	7784
801.499	7890
801.641	7723
801.783	7852
801.926	8012
802.068	7917
802.211	7936
802.353	7921
802.496	7864
802.638	7951
802.78	7936
802.923	7856
803.065	7883
803.208	7898
803.35	8035
803.492	8103
803.635	8157
803.777	8005
803.919	8077
804.061	8385
804.204	8111
804.346	7967
804.488	7944
804.63	8065
804.773	8058
804.915	8103
805.057	8256
805.199	8176
805.341	8187
805.483	8202
805.626	8164
805.768	8130
805.91	8111
806.052	8195
806.194	8020
806.336	8267
806.478	8069
806.62	8062
806.762	8138
806.904	8199
807.046	8412
807.188	8408
807.33	8309
807.472	8271
807.614	8107
807.756	8096
807.898	8012
808.04	7909
808.182	7879
808.324	7879
808.465	7898
808.607	8050
808.749	8065
808.891	8115
809.033	8263
809.174	8210
809.316	8027
809.458	8058
809.6	7967
809.741	7940
809.883	8001
810.025	8050
810.166	8058
810.308	8001
810.45	8024
810.591	7906
810.733	7734
810.875	7662
811.016	7529
811.158	7502
811.299	7548
811.441	7731
811.582	7689
811.724	7559
811.865	7510
812.007	7567
812.148	7559
812.29	7578
812.431	7597
812.573	7799
812.714	7833
812.855	8115
812.997	8214
813.138	8252
813.279	8119
813.421	8123
813.562	7997
813.703	7814
813.845	7731
813.986	7434
814.127	7285
814.268	7263
814.41	7206
814.551	7107
814.692	7160
814.833	7057
814.974	7080
815.115	7046
815.256	6954
815.397	6890
815.539	6905
815.68	6821
815.821	6768
815.962	6833
816.103	6852
816.244	6730
816.385	6589
816.526	6612
816.666	6433
816.807	6254
816.948	6365
817.089	6445
817.23	6433
817.371	6391
817.512	6410
817.653	6334
817.793	6365
817.934	6410
818.075	6441
818.216	6418
818.356	6338
818.497	6228
818.638	6159
818.778	6098
818.919	6117
819.06	6114
819.2	6304
819.341	6311
819.481	6308
819.622	6498
819.762	6719
819.903	6623
820.043	6566
820.184	6582
820.324	6551
820.465	6703
820.605	6654
820.746	6681
820.886	6490
821.026	6692
821.167	6760
821.307	6776
821.447	6772
821.588	6623
821.728	6566
821.868	6513
822.008	6308
822.149	6311
822.289	6289
822.429	6144
822.569	6057
822.709	6072
822.849	5912
822.99	5882
823.13	5912
823.27	5901
823.41	5748
823.55	5748
823.69	5748
823.83	5817
823.97	5608
824.11	5528
824.25	5516
824.389	5554
824.529	5585
824.669	5505
824.809	5566
824.949	5672
825.089	5611
825.228	5589
825.368	5379
825.508	5315
825.648	5345
825.787	5299
825.927	5383
826.067	5292
826.206	5239
826.346	5395
826.485	5368
826.625	5372
826.765	5501
826.904	5433
827.044	5250
827.183	5166
827.323	5086
827.462	5284
827.601	5102
827.741	5204
827.88	5181
828.02	5124
828.159	5193
828.298	5250
828.437	5303
828.577	5273
828.716	5482
828.855	5292
828.994	5136
829.134	5151
829.273	5159
829.412	5117
829.551	5151
829.69	5147
829.829	5162
829.968	5349
830.107	5284
830.246	5280
830.385	5170
830.524	5098
830.663	5029
830.802	4991
830.941	4881
831.08	4858
831.219	4968
831.357	4934
831.496	5128
831.635	4911
831.774	4820
831.913	4858
832.051	4755
832.19	4729
832.329	4793
832.467	4672
832.606	4645
832.744	4706
832.883	4675
833.022	4683
833.16	4782
833.299	4778
833.437	4790
833.576	4816
833.714	4850
833.852	4885
833.991	4892
834.129	4927
834.267	4949
834.406	4896
834.544	4949
834.682	4927
834.821	4949
834.959	5162
835.097	5003
835.235	5128
835.373	5067
835.511	5045
835.65	4984
835.788	4987
835.926	4881
836.064	4835
836.202	4904
836.34	5162
836.478	5162
836.615	5109
836.753	5189
836.891	5296
837.029	5288
837.167	5220
837.305	5174
837.443	5178
837.58	5075
837.718	5212
837.856	5166
837.993	5162
838.131	5193
838.269	5166
838.406	5136
838.544	5109
838.681	5022
838.819	4961
838.956	4873
839.094	4870
839.231	4968
839.369	5056
839.506	5429
839.643	5265
839.781	5075
839.918	5018
840.055	5117
840.193	5098
840.33	5041
840.467	5060
840.604	5197
840.742	5391
840.879	5079
841.016	5048
841.153	5121
841.29	5318
841.427	5299
841.564	5273
841.701	5360
841.838	5250
841.975	5216
842.112	5280
842.249	5094
842.385	5098
842.522	5364
842.659	5162
842.796	5102
842.933	5185
843.069	5151
843.206	5170
843.343	5307
843.479	5212
843.616	5250
843.752	4999
843.889	5014
844.025	5208
844.162	4999
844.298	5231
844.435	5075
844.571	5022
844.708	5178
844.844	5307
844.98	5322
845.117	5284
845.253	5098
845.389	5105
845.525	5159
845.661	5159
845.798	5064
845.934	5124
846.07	5048
846.206	5155
846.342	5288
846.478	5151
846.614	5041
846.75	4938
846.886	4934
847.022	5102
847.158	5025
847.294	5037
847.429	5132
847.565	5113
847.701	5246
847.837	4858
847.972	4774
848.108	4980
848.244	4953
848.379	4816
848.515	4721
848.65	4664
848.786	4668
848.921	4831
849.057	4881
849.192	4915
849.328	4812
849.463	4866
849.598	4736
849.734	4740
849.869	4664
850.004	4641
850.14	4653
850.275	4584
850.41	4493
850.545	4516
850.68	4607
850.815	4634
850.95	4611
851.085	4839
851.22	4683
851.355	4649
851.49	4618
851.625	4599
851.76	4603
851.895	4512
852.03	4535
852.165	4679
852.299	4710
852.434	4790
852.569	4687
852.703	4752
852.838	4812
852.973	4919
853.107	4904
853.242	4702
853.376	4649
853.511	4596
853.645	4599
853.78	4812
853.914	4660
854.048	4656
854.183	4637
854.317	4672
854.451	4854
854.585	4672
854.72	4641
854.854	4736
854.988	4561
855.122	4660
855.256	4523
855.39	4679
855.524	4733
855.658	4653
855.792	4714
855.926	4729
856.06	4736
856.194	4763
856.327	4694
856.461	4592
856.595	4596
856.729	4588
856.862	4717
856.996	4668
857.13	4744
857.263	4767
857.397	4828
857.53	4645
857.664	4710
857.797	4752
857.931	4755
858.064	4694
858.197	4729
858.331	4645
858.464	4558
858.597	4531
858.731	4622
858.864	4577
858.997	4531
859.13	4626
859.263	4698
859.396	4656
859.529	4519
859.662	4573
859.795	4478
859.928	4592
860.061	4767
860.194	4801
860.327	4580
860.46	4535
860.592	4683
860.725	4675
860.858	4672
860.99	4573
861.123	4558
861.256	4504
861.388	4668
861.521	5288
861.653	4512
861.786	4440
861.918	4428
862.05	4523
862.183	4554
862.315	4615
862.447	4622
862.58	4508
862.712	4394
862.844	4325
862.976	4455
863.108	4440
863.24	4767
863.372	4303
863.504	4417
863.636	4390
863.768	4447
863.9	4375
864.032	4386
864.164	4348
864.296	4428
864.428	4500
864.559	4569
864.691	4478
864.823	4558
864.954	4481
865.086	4478
865.217	4466
865.349	4383
865.48	4443
865.612	4504
865.743	4565
865.875	4455
866.006	4436
866.137	4409
866.269	4405
866.4	4424
866.531	4436
866.662	4371
866.793	4383
866.924	4337
867.055	4462
867.186	4421
867.317	4409
867.448	4375
867.579	4390
867.71	4344
867.841	4352
867.972	4432
868.103	4432
868.233	4402
868.364	4417
868.495	4459
868.625	4679
868.756	4714
868.886	4577
869.017	4554
869.147	4790
869.278	4786
869.408	4664
869.539	4634
869.669	4622
869.799	4637
869.929	4729
870.06	4736
870.19	4938
870.32	4896
870.45	4942
870.58	5033
870.71	5067
870.84	5079
870.97	5003
871.1	4904
871.23	5098
871.36	5079
871.489	5037
871.619	5060
871.749	5075
871.879	5071
872.008	5174
872.138	5018
872.267	4976
872.397	4831
872.526	4752
872.656	4668
872.785	4790
872.915	4934
873.044	4972
873.173	4904
873.303	4938
873.432	4915
873.561	4923
873.69	4793
873.819	4839
873.948	4908
874.077	4843
874.206	4702
874.335	4793
874.464	4904
874.593	5022
874.722	4919
874.851	5083
874.979	5048
875.108	5022
875.237	4870
875.365	4839
875.494	4839
875.623	4957
875.751	4824
875.88	4828
876.008	4961
876.136	4999
876.265	5174
876.393	5357
876.521	5273
876.65	5220
876.778	5132
876.906	5056
877.034	4965
877.162	5041
877.29	4965
877.418	5029
877.546	5056
877.674	4987
877.802	5025
877.93	4968
878.058	4927
878.185	4805
878.313	4930
878.441	4923
878.568	4778
878.696	4854
878.824	4934
878.951	4987
879.079	5109
879.206	5299
879.333	5071
879.461	4968
879.588	5025
879.715	5105
879.842	5239
879.97	4999
880.097	4786
880.224	4778
880.351	4797
880.478	4816
880.605	4778
880.732	4778
880.859	5102
880.986	4870
881.112	4965
881.239	4778
881.366	4679
881.493	4630
881.619	4672
881.746	4668
881.872	4622
881.999	4683
882.125	4714
882.252	4812
882.378	4839
882.505	4927
882.631	4805
882.757	4675
882.883	4748
883.01	4793
883.136	4721
883.262	4580
883.388	4649
883.514	4885
883.64	4885
883.766	4778
883.892	4698
884.018	4763
884.143	4953
884.269	5090
884.395	4702
884.52	4630
884.646	4679
884.772	4649
884.897	4626
885.023	4656
885.148	4854
885.274	4919
885.399	4843
885.524	4759
885.65	4740
885.775	4782
885.9	4740
886.025	4965
886.15	4843
886.275	4748
886.4	4653
886.525	4755
886.65	4706
886.775	4740
886.9	4957
887.025	5041
887.149	4839
887.274	4668
887.399	4603
887.523	4664
887.648	4626
887.773	4596
887.897	4824
888.021	4854
888.146	4729
888.27	4816
888.395	4934
888.519	4843
888.643	4847
888.767	4839
888.891	4683
889.015	4645
889.139	4653
889.263	4656
889.387	4714
889.511	4858
889.635	4793
889.759	4641
889.883	4717
890.006	4778
890.13	4835
890.254	4622
890.377	4698
890.501	4550
890.624	4565
890.748	4664
890.871	4565
890.995	4485
891.118	4424
891.241	4527
891.364	4592
891.488	4645
891.611	4561
891.734	4569
891.857	4603
891.98	4580
892.103	4691
892.226	4596
892.349	4493
892.471	4443
892.594	4580
892.717	4656
892.839	4603
892.962	4634
893.085	4698
893.207	4615
893.33	4519
893.452	4516
893.575	4740
893.697	4607
893.819	4831
893.941	4831
894.064	4793
894.186	4618
894.308	4611
894.43	4797
894.552	4801
894.674	4820
894.796	4558
894.918	4645
895.04	4603
895.161	4698
895.283	4702
895.405	4603
895.526	4664
895.648	4698
895.769	4717
895.891	4748
896.012	4786
896.134	4774
896.255	4683
896.376	4691
896.498	4626
896.619	4717
896.74	4637
896.861	4653
896.982	4961
897.103	5079
897.224	4870
897.345	4759
897.466	4702
897.587	4763
897.708	4843
897.828	4763
897.949	4694
898.07	4622
898.19	4664
898.311	4866
898.431	4694
898.552	4714
898.672	4847
898.792	4831
898.913	4740
899.033	4645
899.153	4489
899.273	4470
899.393	4531
899.513	4535
899.633	4535
899.753	4573
899.873	4580
899.993	4622
900.113	4569
900.232	4637
900.352	4588
900.472	4542
900.591	4451
900.711	4493
900.83	4455
900.95	4668
901.069	4691
901.189	4558
901.308	4371
901.427	4352
901.546	4398
901.665	4443
901.784	4558
901.904	4405
902.023	4367
902.141	4207
902.26	4173
902.379	4325
902.498	4299
902.617	4246
902.735	4413
902.854	4428
902.973	4356
903.091	4204
903.21	4276
903.328	4322
903.446	4314
903.565	4299
903.683	4405
903.801	4291
903.919	4474
904.038	4493
904.156	4379
904.274	4447
904.392	4367
904.51	4497
904.627	4497
904.745	4584
904.863	4653
904.981	4390
905.098	4322
905.216	4409
905.334	4451
905.451	4470
905.569	4519
905.686	4542
905.803	4573
905.921	4447
906.038	4542
906.155	4481
906.272	4455
906.389	4481
906.506	4333
906.623	4363
906.74	4405
906.857	4306
906.974	4402
907.091	4588
907.208	4691
907.324	4618
907.441	4538
907.557	4367
907.674	4337
907.79	4360
907.907	4363
908.023	4493
908.139	4493
908.256	4478
908.372	4478
908.488	4523
908.604	4402
908.72	4405
908.836	4443
908.952	4405
909.068	4421
909.184	4554
909.3	4470
909.415	4637
909.531	4615
909.647	4386
909.762	4390
909.878	4417
909.993	4440
910.108	4443
910.224	4428
910.339	4474
910.454	4402
910.57	4352
910.685	4325
910.8	4710
910.915	4664
911.03	4512
911.145	4329
911.259	4375
911.374	4405
911.489	4314
911.604	4291
911.718	4215
911.833	4219
911.947	4086
912.062	4101
912.176	4227
912.291	4257
912.405	4276
912.519	4485
912.633	4508
912.748	4363
912.862	4341
912.976	4246
913.09	4105
913.204	4211
913.318	4246
913.431	4417
913.545	4405
913.659	4493
913.772	4348
913.886	4261
914	4238
914.113	4363
914.226	4451
914.34	4432
914.453	4272
914.566	4394
914.68	4306
914.793	4329
914.906	4188
915.019	4131
915.132	4120
915.245	4192
915.358	4284
915.47	4261
915.583	4280
915.696	4272
915.809	4421
915.921	4451
916.034	4280
916.146	4261
916.259	4227
916.371	4394
916.483	4371
916.595	4284
916.708	4325
916.82	4337
916.932	4356
917.044	4360
917.156	4386
917.268	4280
917.38	4329
917.491	4276
917.603	4386
917.715	4424
917.826	4443
917.938	4367
918.049	4257
918.161	4379
918.272	4516
918.384	4558
918.495	4409
918.606	4291
918.717	4257
918.828	4367
918.939	4394
919.05	4265
919.161	4367
919.272	4139
919.383	4219
919.494	4428
919.604	4599
919.715	4451
919.826	4379
919.936	4421
920.047	4569
920.157	4500
920.267	4702
920.378	4546
920.488	4565
920.598	4752
920.708	4904
920.818	4721
920.928	4820
921.038	5003
921.148	4934
921.258	4622
921.368	4554
921.477	4550
921.587	4478
921.697	4421
921.806	4577
921.916	4436
922.025	4257
922.134	4284
922.244	4268
922.353	4352
922.462	4200
922.571	4181
922.68	4048
922.789	3991
922.898	4090
923.007	3983
923.116	4154
923.224	4090
923.333	4124
923.442	4013
923.55	3998
923.659	4021
923.767	4112
923.876	3979
923.984	4192
924.092	3991
924.201	4128
924.309	4101
924.417	4177
924.525	4090
924.633	4135
924.741	4934
924.849	3915
924.956	4177
925.064	3979
925.172	3907
925.279	3956
925.387	4051
925.494	4086
925.602	4242
925.709	4169
925.816	4044
925.924	4177
926.031	4223
926.138	4215
926.245	4185
926.352	4055
926.459	4276
926.566	4329
926.673	4185
926.779	4128
926.886	4093
926.993	3987
927.099	3983
927.206	3956
927.312	3991
927.419	4055
927.525	4063
927.631	4124
927.737	3964
927.843	3937
927.95	3854
928.056	3945
928.162	4025
928.267	4078
928.373	4687
928.479	4109
928.585	3892
928.69	4051
928.796	4074
928.901	4025
929.007	3880
929.112	4002
929.218	3994
929.323	3960
929.428	3975
929.533	4131
929.638	3911
929.743	3998
929.848	4067
929.953	3975
930.058	3922
930.163	3797
930.267	3846
930.372	4006
930.477	3850
930.581	4147
930.685	3930
930.79	3812
930.894	3857
930.998	3880
931.103	4032
931.207	3728
931.311	3694
931.415	3705
931.519	3519
931.623	3591
