Data from test_V78500241_210.txt Node
Date: Fri Mar 25 16:50:27 CST 2022
User: usil
Spectrometer: V785-0024
Trigger mode: 0
Integration Time (sec): 4.000000E-1
Scans to average: 1
Nonlinearity correction enabled: false
Boxcar width: 0
Storing dark spectrum: false
XAxis mode: Wavelengths
Number of Pixels in Spectrum: 1024
>>>>>Begin Spectral Data<<<<<
801.071	7944
801.214	8039
801.356	7902
801.499	7845
801.641	7830
801.783	7811
801.926	7978
802.068	7944
802.211	7993
802.353	8008
802.496	7898
802.638	7917
802.78	8046
802.923	7997
803.065	7936
803.208	7868
803.35	7936
803.492	8012
803.635	8126
803.777	8065
803.919	8069
804.061	8423
804.204	8157
804.346	8058
804.488	7947
804.63	8035
804.773	7982
804.915	8134
805.057	8317
805.199	8096
805.341	8187
805.483	8206
805.626	8161
805.768	8092
805.91	8126
806.052	8126
806.194	8046
806.336	8275
806.478	8126
806.62	8096
806.762	8100
806.904	8267
807.046	8446
807.188	8339
807.33	8282
807.472	8286
807.614	8138
807.756	8046
807.898	7944
808.04	7852
808.182	7837
808.324	7970
808.465	7925
808.607	8111
808.749	8126
808.891	8263
809.033	8275
809.174	8218
809.316	8088
809.458	8035
809.6	8008
809.741	8054
809.883	8065
810.025	8111
810.166	8107
810.308	7978
810.45	7906
810.591	7826
810.733	7655
810.875	7696
811.016	7548
811.158	7468
811.299	7620
811.441	7753
811.582	7597
811.724	7597
811.865	7525
812.007	7632
812.148	7685
812.29	7655
812.431	7731
812.573	7894
812.714	7997
812.855	8191
812.997	8199
813.138	8317
813.279	8195
813.421	8031
813.562	8024
813.703	7849
813.845	7803
813.986	7464
814.127	7270
814.268	7335
814.41	7278
814.551	7187
814.692	7221
814.833	7046
814.974	7084
815.115	7133
815.256	6928
815.397	6939
815.539	7004
815.68	6783
815.821	6760
815.962	6844
816.103	6795
816.244	6722
816.385	6665
816.526	6597
816.666	6513
816.807	6289
816.948	6445
817.089	6460
817.23	6445
817.371	6353
817.512	6388
817.653	6384
817.793	6304
817.934	6407
818.075	6475
818.216	6403
818.356	6429
818.497	6277
818.638	6136
818.778	6171
818.919	6140
819.06	6129
819.2	6251
819.341	6300
819.481	6361
819.622	6502
819.762	6700
819.903	6665
820.043	6582
820.184	6509
820.324	6570
820.465	6639
820.605	6635
820.746	6612
820.886	6479
821.026	6597
821.167	6703
821.307	6787
821.447	6741
821.588	6604
821.728	6528
821.868	6467
822.008	6270
822.149	6350
822.289	6372
822.429	6136
822.569	6091
822.709	6095
822.849	5931
822.99	5882
823.13	5939
823.27	5889
823.41	5844
823.55	5775
823.69	5786
823.83	5737
823.97	5672
824.11	5543
824.25	5493
824.389	5592
824.529	5562
824.669	5501
824.809	5649
824.949	5638
825.089	5676
825.228	5547
825.368	5372
825.508	5307
825.648	5349
825.787	5402
825.927	5406
826.067	5337
826.206	5315
826.346	5395
826.485	5383
826.625	5395
826.765	5577
826.904	5410
827.044	5193
827.183	5193
827.323	5178
827.462	5265
827.601	5174
827.741	5212
827.88	5174
828.02	5109
828.159	5220
828.298	5307
828.437	5360
828.577	5280
828.716	5433
828.855	5334
828.994	5174
829.134	5117
829.273	5220
829.412	5140
829.551	5204
829.69	5166
829.829	5273
829.968	5398
830.107	5292
830.246	5288
830.385	5155
830.524	5105
830.663	5033
830.802	5029
830.941	4889
831.08	4885
831.219	4965
831.357	5022
831.496	5079
831.635	4923
831.774	4831
831.913	4862
832.051	4740
832.19	4740
832.329	4835
832.467	4702
832.606	4634
832.744	4744
832.883	4755
833.022	4717
833.16	4854
833.299	4767
833.437	4843
833.576	4839
833.714	4771
833.852	4843
833.991	4870
834.129	4934
834.267	4972
834.406	4923
834.544	4995
834.682	4999
834.821	4949
834.959	5174
835.097	5006
835.235	5143
835.373	5067
835.511	5094
835.65	5018
835.788	5033
835.926	4968
836.064	4870
836.202	4923
836.34	5128
836.478	5216
836.615	5147
836.753	5204
836.891	5299
837.029	5220
837.167	5174
837.305	5113
837.443	5124
837.58	5064
837.718	5227
837.856	5208
837.993	5159
838.131	5254
838.269	5223
838.406	5223
838.544	5151
838.681	5045
838.819	4991
838.956	4904
839.094	4911
839.231	5022
839.369	5124
839.506	5417
839.643	5204
839.781	5075
839.918	5033
840.055	5121
840.193	5071
840.33	5113
840.467	5159
840.604	5201
840.742	5444
840.879	5045
841.016	5102
841.153	5155
841.29	5364
841.427	5341
841.564	5288
841.701	5376
841.838	5307
841.975	5273
842.112	5246
842.249	5117
842.385	5090
842.522	5296
842.659	5204
842.796	5174
842.933	5140
843.069	5086
843.206	5155
843.343	5299
843.479	5242
843.616	5284
843.752	5052
843.889	5052
844.025	5212
844.162	5010
844.298	5178
844.435	5098
844.571	5052
844.708	5201
844.844	5280
844.98	5337
845.117	5318
845.253	5090
845.389	5064
845.525	5201
845.661	5117
845.798	5056
845.934	5147
846.07	5041
846.206	5162
846.342	5284
846.478	5174
846.614	5003
846.75	4987
846.886	4965
847.022	5159
847.158	5048
847.294	5006
847.429	5105
847.565	5037
847.701	5406
847.837	4835
847.972	4812
848.108	4919
848.244	4946
848.379	4778
848.515	4679
848.65	4725
848.786	4725
848.921	4771
849.057	4881
849.192	4885
849.328	4824
849.463	4881
849.598	4733
849.734	4729
849.869	4698
850.004	4641
850.14	4675
850.275	4664
850.41	4538
850.545	4565
850.68	4622
850.815	4653
850.95	4622
851.085	4854
851.22	4755
851.355	4660
851.49	4565
851.625	4618
851.76	4611
851.895	4527
852.03	4516
852.165	4664
852.299	4706
852.434	4774
852.569	4759
852.703	4767
852.838	4816
852.973	4919
853.107	4930
853.242	4771
853.376	4687
853.511	4569
853.645	4637
853.78	4797
853.914	4668
854.048	4668
854.183	4615
854.317	4725
854.451	4892
854.585	4725
854.72	4645
854.854	4835
854.988	4615
855.122	4622
855.256	4535
855.39	4656
855.524	4797
855.658	4717
855.792	4725
855.926	4748
856.06	4759
856.194	4790
856.327	4744
856.461	4626
856.595	4622
856.729	4687
856.862	4767
856.996	4675
857.13	4725
857.263	4714
857.397	4824
857.53	4668
857.664	4729
857.797	4767
857.931	4736
858.064	4698
858.197	4744
858.331	4603
858.464	4630
858.597	4542
858.731	4607
858.864	4634
858.997	4603
859.13	4672
859.263	4656
859.396	4694
859.529	4569
859.662	4615
859.795	4580
859.928	4656
860.061	4820
860.194	4786
860.327	4622
860.46	4565
860.592	4725
860.725	4675
860.858	4679
860.99	4596
861.123	4565
861.256	4569
861.388	4554
861.521	5261
861.653	4447
861.786	4443
861.918	4470
862.05	4546
862.183	4500
862.315	4615
862.447	4645
862.58	4512
862.712	4421
862.844	4333
862.976	4481
863.108	4493
863.24	4870
863.372	4344
863.504	4390
863.636	4394
863.768	4440
863.9	4398
864.032	4443
864.164	4432
864.296	4466
864.428	4580
864.559	4565
864.691	4558
864.823	4493
864.954	4516
865.086	4474
865.217	4421
865.349	4462
865.48	4451
865.612	4558
865.743	4641
865.875	4478
866.006	4405
866.137	4500
866.269	4497
866.4	4440
866.531	4363
866.662	4409
866.793	4455
866.924	4428
867.055	4504
867.186	4432
867.317	4413
867.448	4383
867.579	4360
867.71	4428
867.841	4386
867.972	4497
868.103	4500
868.233	4424
868.364	4451
868.495	4500
868.625	4660
868.756	4748
868.886	4558
869.017	4603
869.147	4755
869.278	4752
869.408	4664
869.539	4622
869.669	4679
869.799	4679
869.929	4797
870.06	4748
870.19	4949
870.32	4927
870.45	4968
870.58	4991
870.71	5117
870.84	5079
870.97	4953
871.1	4911
871.23	5151
871.36	5121
871.489	5037
871.619	5102
871.749	5124
871.879	5105
872.008	5166
872.138	5102
872.267	4968
872.397	4854
872.526	4805
872.656	4759
872.785	4847
872.915	4976
873.044	5056
873.173	4949
873.303	4968
873.432	4953
873.561	4908
873.69	4873
873.819	4889
873.948	4942
874.077	4778
874.206	4771
874.335	4790
874.464	4911
874.593	5083
874.722	4972
874.851	5132
874.979	5071
875.108	5048
875.237	4900
875.365	4889
875.494	4911
875.623	5010
875.751	4812
875.88	4881
876.008	4968
876.136	5048
876.265	5216
876.393	5345
876.521	5280
876.65	5235
876.778	5189
876.906	5109
877.034	5018
877.162	5041
877.29	5037
877.418	5102
877.546	5067
877.674	5041
877.802	5029
877.93	5052
878.058	4900
878.185	4847
878.313	4953
878.441	4949
878.568	4843
878.696	4847
878.824	4972
878.951	5010
879.079	5132
879.206	5311
879.333	5075
879.461	4968
879.588	5003
879.715	5121
879.842	5227
879.97	5003
880.097	4812
880.224	4763
880.351	4805
880.478	4809
880.605	4850
880.732	4801
880.859	5109
880.986	4930
881.112	4995
881.239	4809
881.366	4702
881.493	4622
881.619	4637
881.746	4641
881.872	4675
881.999	4710
882.125	4683
882.252	4847
882.378	4843
882.505	4965
882.631	4831
882.757	4645
882.883	4687
883.01	4771
883.136	4694
883.262	4630
883.388	4615
883.514	4816
883.64	4877
883.766	4850
883.892	4675
884.018	4717
884.143	4889
884.269	5048
884.395	4668
884.52	4577
884.646	4687
884.772	4596
884.897	4565
885.023	4660
885.148	4790
885.274	4911
885.399	4786
885.524	4752
885.65	4691
885.775	4725
885.9	4698
886.025	4930
886.15	4809
886.275	4752
886.4	4645
886.525	4706
886.65	4687
886.775	4664
886.9	4919
887.025	5060
887.149	4835
887.274	4641
887.399	4577
887.523	4596
887.648	4577
887.773	4558
887.897	4752
888.021	4847
888.146	4725
888.27	4793
888.395	4927
888.519	4717
888.643	4805
888.767	4839
888.891	4721
889.015	4622
889.139	4656
889.263	4637
889.387	4816
889.511	4843
889.635	4835
889.759	4653
889.883	4622
890.006	4744
890.13	4805
890.254	4656
890.377	4668
890.501	4561
890.624	4531
890.748	4687
890.871	4531
890.995	4462
891.118	4424
891.241	4535
891.364	4523
891.488	4603
891.611	4538
891.734	4569
891.857	4653
891.98	4558
892.103	4637
892.226	4554
892.349	4493
892.471	4421
892.594	4508
892.717	4558
892.839	4558
892.962	4607
893.085	4649
893.207	4588
893.33	4462
893.452	4527
893.575	4653
893.697	4569
893.819	4801
893.941	4866
894.064	4755
894.186	4558
894.308	4596
894.43	4729
894.552	4828
894.674	4767
894.796	4550
894.918	4615
895.04	4561
895.161	4706
895.283	4729
895.405	4565
895.526	4679
895.648	4656
895.769	4725
895.891	4755
896.012	4748
896.134	4736
896.255	4710
896.376	4615
896.498	4634
896.619	4694
896.74	4615
896.861	4649
896.982	4892
897.103	5048
897.224	4828
897.345	4706
897.466	4645
897.587	4733
897.708	4877
897.828	4790
897.949	4683
898.07	4592
898.19	4653
898.311	4839
898.431	4641
898.552	4755
898.672	4774
898.792	4850
898.913	4698
899.033	4637
899.153	4485
899.273	4424
899.393	4481
899.513	4546
899.633	4516
899.753	4504
899.873	4485
899.993	4542
900.113	4569
900.232	4558
900.352	4531
900.472	4497
900.591	4360
900.711	4489
900.83	4443
900.95	4599
901.069	4672
901.189	4588
901.308	4367
901.427	4322
901.546	4409
901.665	4508
901.784	4546
901.904	4405
902.023	4352
902.141	4249
902.26	4177
902.379	4318
902.498	4265
902.617	4238
902.735	4375
902.854	4447
902.973	4367
903.091	4207
903.21	4234
903.328	4314
903.446	4284
903.565	4246
903.683	4322
903.801	4268
903.919	4352
904.038	4424
904.156	4360
904.274	4451
904.392	4394
904.51	4462
904.627	4485
904.745	4519
904.863	4611
904.981	4386
905.098	4333
905.216	4390
905.334	4417
905.451	4428
905.569	4455
905.686	4599
905.803	4550
905.921	4360
906.038	4554
906.155	4512
906.272	4421
906.389	4500
906.506	4329
906.623	4341
906.74	4402
906.857	4352
906.974	4413
907.091	4569
907.208	4702
907.324	4599
907.441	4485
907.557	4287
907.674	4360
907.79	4322
907.907	4367
908.023	4470
908.139	4485
908.256	4451
908.372	4451
908.488	4481
908.604	4344
908.72	4333
908.836	4379
908.952	4428
909.068	4459
909.184	4573
909.3	4443
909.415	4573
909.531	4565
909.647	4333
909.762	4375
909.878	4314
909.993	4440
910.108	4398
910.224	4394
910.339	4466
910.454	4371
910.57	4352
910.685	4303
910.8	4660
910.915	4611
911.03	4508
911.145	4341
911.259	4356
911.374	4379
911.489	4337
911.604	4257
911.718	4124
911.833	4196
911.947	4086
912.062	4036
912.176	4215
912.291	4276
912.405	4223
912.519	4432
912.633	4535
912.748	4383
912.862	4303
912.976	4249
913.09	4116
913.204	4207
913.318	4219
913.431	4371
913.545	4386
913.659	4497
913.772	4341
913.886	4223
914	4246
914.113	4417
914.226	4424
914.34	4398
914.453	4223
914.566	4440
914.68	4268
914.793	4356
914.906	4158
915.019	4135
915.132	4071
915.245	4150
915.358	4177
915.47	4238
915.583	4291
915.696	4325
915.809	4409
915.921	4451
916.034	4322
916.146	4284
916.259	4253
916.371	4375
916.483	4348
916.595	4246
916.708	4325
916.82	4314
916.932	4348
917.044	4325
917.156	4379
917.268	4223
917.38	4268
917.491	4284
917.603	4325
917.715	4462
917.826	4481
917.938	4356
918.049	4234
918.161	4417
918.272	4546
918.384	4550
918.495	4481
918.606	4303
918.717	4246
918.828	4344
918.939	4348
919.05	4253
919.161	4344
919.272	4135
919.383	4227
919.494	4432
919.604	4675
919.715	4402
919.826	4367
919.936	4363
920.047	4561
920.157	4500
920.267	4717
920.378	4592
920.488	4558
920.598	4744
920.708	4889
920.818	4752
920.928	4767
921.038	4934
921.148	4934
921.258	4626
921.368	4538
921.477	4455
921.587	4443
921.697	4383
921.806	4569
921.916	4462
922.025	4268
922.134	4249
922.244	4261
922.353	4367
922.462	4154
922.571	4158
922.68	4032
922.789	3979
922.898	4006
923.007	3994
923.116	4112
923.224	4051
923.333	4093
923.442	3979
923.55	3975
923.659	4017
923.767	4131
923.876	4086
923.984	4166
924.092	3975
924.201	4090
924.309	4040
924.417	4181
924.525	4029
924.633	4112
924.741	5067
924.849	3888
924.956	4128
925.064	3975
925.172	3884
925.279	3945
925.387	4063
925.494	4017
925.602	4173
925.709	4177
925.816	4040
925.924	4105
926.031	4230
926.138	4181
926.245	4249
926.352	4071
926.459	4268
926.566	4306
926.673	4147
926.779	4131
926.886	4112
926.993	3991
927.099	3907
927.206	3956
927.312	3918
927.419	4029
927.525	4040
927.631	4147
927.737	3968
927.843	3922
927.95	3816
928.056	3949
928.162	3953
928.267	4063
928.373	4668
928.479	4082
928.585	3880
928.69	4082
928.796	4105
928.901	3964
929.007	3819
929.112	4040
929.218	4029
929.323	3949
929.428	3949
929.533	4116
929.638	3918
929.743	3953
929.848	4029
929.953	4002
930.058	3907
930.163	3816
930.267	3804
930.372	3972
930.477	3850
930.581	4105
930.685	3968
930.79	3823
930.894	3922
930.998	3892
931.103	4051
931.207	3694
931.311	3663
931.415	3656
931.519	3534
931.623	3561
