Data from test_V78500241_806.txt Node
Date: Fri Mar 25 16:54:36 CST 2022
User: usil
Spectrometer: V785-0024
Trigger mode: 0
Integration Time (sec): 4.000000E-1
Scans to average: 1
Nonlinearity correction enabled: false
Boxcar width: 0
Storing dark spectrum: false
XAxis mode: Wavelengths
Number of Pixels in Spectrum: 1024
>>>>>Begin Spectral Data<<<<<
801.071	8024
801.214	7993
801.356	7906
801.499	7864
801.641	7780
801.783	7852
801.926	7959
802.068	7978
802.211	8001
802.353	7936
802.496	7860
802.638	7906
802.78	7913
802.923	7940
803.065	7936
803.208	7906
803.35	7940
803.492	8054
803.635	8145
803.777	7970
803.919	8164
804.061	8434
804.204	8092
804.346	8050
804.488	8043
804.63	8073
804.773	8062
804.915	8062
805.057	8275
805.199	8202
805.341	8126
805.483	8240
805.626	8187
805.768	8145
805.91	8263
806.052	8195
806.194	8088
806.336	8271
806.478	8081
806.62	8077
806.762	8123
806.904	8248
807.046	8434
807.188	8343
807.33	8313
807.472	8347
807.614	8168
807.756	8157
807.898	7963
808.04	7875
808.182	7852
808.324	7814
808.465	7875
808.607	8119
808.749	8027
808.891	8134
809.033	8225
809.174	8195
809.316	8054
809.458	8054
809.6	8020
809.741	8020
809.883	7944
810.025	8134
810.166	8043
810.308	8058
810.45	8039
810.591	7837
810.733	7753
810.875	7651
811.016	7556
811.158	7457
811.299	7556
811.441	7677
811.582	7647
811.724	7563
811.865	7559
812.007	7537
812.148	7563
812.29	7601
812.431	7689
812.573	7871
812.714	8012
812.855	8058
812.997	8161
813.138	8305
813.279	8191
813.421	8058
813.562	8001
813.703	7898
813.845	7734
813.986	7480
814.127	7278
814.268	7285
814.41	7179
814.551	7168
814.692	7129
814.833	7019
814.974	7072
815.115	7050
815.256	6947
815.397	6924
815.539	6985
815.68	6787
815.821	6772
815.962	6871
816.103	6768
816.244	6639
816.385	6623
816.526	6616
816.666	6502
816.807	6300
816.948	6384
817.089	6407
817.23	6422
817.371	6323
817.512	6376
817.653	6384
817.793	6327
817.934	6448
818.075	6422
818.216	6376
818.356	6346
818.497	6186
818.638	6068
818.778	6114
818.919	6117
819.06	6133
819.2	6308
819.341	6289
819.481	6323
819.622	6483
819.762	6757
819.903	6738
820.043	6654
820.184	6563
820.324	6498
820.465	6673
820.605	6658
820.746	6601
820.886	6460
821.026	6703
821.167	6715
821.307	6753
821.447	6791
821.588	6620
821.728	6540
821.868	6483
822.008	6338
822.149	6350
822.289	6384
822.429	6129
822.569	6019
822.709	6083
822.849	5927
822.99	5904
823.13	5965
823.27	5904
823.41	5779
823.55	5779
823.69	5756
823.83	5756
823.97	5653
824.11	5520
824.25	5482
824.389	5581
824.529	5573
824.669	5505
824.809	5577
824.949	5608
825.089	5608
825.228	5558
825.368	5376
825.508	5330
825.648	5379
825.787	5406
825.927	5353
826.067	5292
826.206	5307
826.346	5372
826.485	5337
826.625	5368
826.765	5520
826.904	5433
827.044	5284
827.183	5174
827.323	5159
827.462	5235
827.601	5170
827.741	5170
827.88	5254
828.02	5090
828.159	5181
828.298	5246
828.437	5337
828.577	5299
828.716	5486
828.855	5254
828.994	5143
829.134	5132
829.273	5147
829.412	5212
829.551	5102
829.69	5151
829.829	5246
829.968	5322
830.107	5227
830.246	5292
830.385	5147
830.524	5094
830.663	5045
830.802	4953
830.941	4889
831.08	4908
831.219	4984
831.357	4965
831.496	5105
831.635	4866
831.774	4828
831.913	4873
832.051	4714
832.19	4702
832.329	4835
832.467	4706
832.606	4626
832.744	4736
832.883	4755
833.022	4740
833.16	4752
833.299	4786
833.437	4835
833.576	4824
833.714	4881
833.852	4801
833.991	4847
834.129	4946
834.267	4972
834.406	4908
834.544	4946
834.682	4991
834.821	4984
834.959	5151
835.097	5010
835.235	5105
835.373	5075
835.511	5071
835.65	5018
835.788	5025
835.926	4847
836.064	4934
836.202	4908
836.34	5136
836.478	5201
836.615	5067
836.753	5151
836.891	5330
837.029	5216
837.167	5140
837.305	5151
837.443	5162
837.58	5075
837.718	5242
837.856	5121
837.993	5151
838.131	5254
838.269	5201
838.406	5227
838.544	5170
838.681	5033
838.819	4991
838.956	4900
839.094	4896
839.231	4938
839.369	5098
839.506	5425
839.643	5280
839.781	5048
839.918	4968
840.055	5045
840.193	5121
840.33	5155
840.467	5132
840.604	5197
840.742	5383
840.879	5102
841.016	5098
841.153	5185
841.29	5360
841.427	5326
841.564	5334
841.701	5334
841.838	5265
841.975	5204
842.112	5239
842.249	5094
842.385	5090
842.522	5250
842.659	5174
842.796	5136
842.933	5159
843.069	5136
843.206	5117
843.343	5315
843.479	5231
843.616	5242
843.752	5022
843.889	5022
844.025	5227
844.162	5022
844.298	5220
844.435	5041
844.571	5048
844.708	5178
844.844	5311
844.98	5258
845.117	5277
845.253	5151
845.389	5037
845.525	5132
845.661	5147
845.798	5014
845.934	5113
846.07	5048
846.206	5170
846.342	5269
846.478	5132
846.614	5048
846.75	4949
846.886	4919
847.022	5170
847.158	5010
847.294	5029
847.429	5064
847.565	5045
847.701	5303
847.837	4790
847.972	4767
848.108	4957
848.244	4972
848.379	4771
848.515	4752
848.65	4759
848.786	4778
848.921	4812
849.057	4904
849.192	4915
849.328	4843
849.463	4858
849.598	4736
849.734	4752
849.869	4694
850.004	4641
850.14	4653
850.275	4615
850.41	4527
850.545	4573
850.68	4577
850.815	4596
850.95	4637
851.085	4854
851.22	4702
851.355	4660
851.49	4592
851.625	4664
851.76	4615
851.895	4516
852.03	4542
852.165	4641
852.299	4660
852.434	4740
852.569	4752
852.703	4790
852.838	4847
852.973	4938
853.107	4896
853.242	4736
853.376	4630
853.511	4527
853.645	4611
853.78	4755
853.914	4694
854.048	4656
854.183	4615
854.317	4717
854.451	4809
854.585	4672
854.72	4611
854.854	4752
854.988	4577
855.122	4656
855.256	4493
855.39	4683
855.524	4748
855.658	4740
855.792	4702
855.926	4733
856.06	4740
856.194	4774
856.327	4664
856.461	4580
856.595	4573
856.729	4618
856.862	4774
856.996	4687
857.13	4752
857.263	4725
857.397	4778
857.53	4637
857.664	4683
857.797	4698
857.931	4778
858.064	4675
858.197	4774
858.331	4668
858.464	4615
858.597	4512
858.731	4607
858.864	4649
858.997	4592
859.13	4660
859.263	4626
859.396	4691
859.529	4573
859.662	4523
859.795	4538
859.928	4611
860.061	4778
860.194	4824
860.327	4535
860.46	4542
860.592	4706
860.725	4702
860.858	4679
860.99	4561
861.123	4485
861.256	4493
861.388	4584
861.521	5265
861.653	4455
861.786	4459
861.918	4413
862.05	4531
862.183	4516
862.315	4618
862.447	4637
862.58	4542
862.712	4348
862.844	4341
862.976	4493
863.108	4432
863.24	4698
863.372	4284
863.504	4390
863.636	4386
863.768	4466
863.9	4440
864.032	4356
864.164	4421
864.296	4455
864.428	4542
864.559	4535
864.691	4512
864.823	4527
864.954	4523
865.086	4470
865.217	4497
865.349	4421
865.48	4462
865.612	4478
865.743	4622
865.875	4485
866.006	4402
866.137	4424
866.269	4413
866.4	4402
866.531	4436
866.662	4379
866.793	4383
866.924	4413
867.055	4470
867.186	4432
867.317	4443
867.448	4398
867.579	4402
867.71	4409
867.841	4360
867.972	4481
868.103	4462
868.233	4462
868.364	4443
868.495	4485
868.625	4656
868.756	4755
868.886	4554
869.017	4637
869.147	4771
869.278	4755
869.408	4687
869.539	4660
869.669	4645
869.799	4641
869.929	4790
870.06	4725
870.19	4961
870.32	4889
870.45	4889
870.58	5010
870.71	5083
870.84	5071
870.97	4919
871.1	4889
871.23	5140
871.36	5132
871.489	4968
871.619	5045
871.749	5128
871.879	5113
872.008	5117
872.138	5060
872.267	4938
872.397	4805
872.526	4812
872.656	4733
872.785	4790
872.915	4900
873.044	5048
873.173	4938
873.303	4976
873.432	4965
873.561	4923
873.69	4896
873.819	4858
873.948	4919
874.077	4877
874.206	4744
874.335	4850
874.464	4831
874.593	5113
874.722	4915
874.851	5117
874.979	4999
875.108	5006
875.237	4923
875.365	4919
875.494	4854
875.623	4961
875.751	4797
875.88	4854
876.008	4972
876.136	5041
876.265	5204
876.393	5368
876.521	5258
876.65	5223
876.778	5143
876.906	5056
877.034	5041
877.162	5003
877.29	4987
877.418	5060
877.546	5056
877.674	5014
877.802	5014
877.93	4999
878.058	4976
878.185	4923
878.313	4961
878.441	4976
878.568	4790
878.696	4828
878.824	4915
878.951	4995
879.079	5105
879.206	5223
879.333	5086
879.461	4942
879.588	5010
879.715	5060
879.842	5208
879.97	5022
880.097	4816
880.224	4748
880.351	4786
880.478	4793
880.605	4809
880.732	4801
880.859	5056
880.986	4915
881.112	4900
881.239	4790
881.366	4664
881.493	4573
881.619	4603
881.746	4573
881.872	4615
881.999	4626
882.125	4649
882.252	4774
882.378	4797
882.505	4915
882.631	4782
882.757	4649
882.883	4698
883.01	4710
883.136	4645
883.262	4569
883.388	4603
883.514	4809
883.64	4873
883.766	4763
883.892	4706
884.018	4694
884.143	4816
884.269	5003
884.395	4637
884.52	4580
884.646	4656
884.772	4615
884.897	4558
885.023	4653
885.148	4805
885.274	4843
885.399	4801
885.524	4710
885.65	4675
885.775	4691
885.9	4744
886.025	4839
886.15	4771
886.275	4683
886.4	4679
886.525	4679
886.65	4694
886.775	4683
886.9	4881
887.025	5029
887.149	4843
887.274	4645
887.399	4558
887.523	4565
887.648	4569
887.773	4550
887.897	4782
888.021	4759
888.146	4668
888.27	4816
888.395	4885
888.519	4839
888.643	4824
888.767	4801
888.891	4683
889.015	4626
889.139	4637
889.263	4588
889.387	4767
889.511	4858
889.635	4774
889.759	4637
889.883	4622
890.006	4733
890.13	4824
890.254	4592
890.377	4706
890.501	4531
890.624	4478
890.748	4618
890.871	4504
890.995	4447
891.118	4383
891.241	4489
891.364	4558
891.488	4611
891.611	4440
891.734	4512
891.857	4580
891.98	4569
892.103	4615
892.226	4573
892.349	4508
892.471	4436
892.594	4558
892.717	4615
892.839	4546
892.962	4599
893.085	4637
893.207	4558
893.33	4432
893.452	4538
893.575	4630
893.697	4584
893.819	4801
893.941	4812
894.064	4767
894.186	4607
894.308	4588
894.43	4683
894.552	4835
894.674	4763
894.796	4611
894.918	4634
895.04	4584
895.161	4672
895.283	4637
895.405	4584
895.526	4599
895.648	4672
895.769	4660
895.891	4702
896.012	4698
896.134	4675
896.255	4649
896.376	4607
896.498	4592
896.619	4675
896.74	4634
896.861	4664
896.982	4908
897.103	5143
897.224	4824
897.345	4736
897.466	4649
897.587	4736
897.708	4820
897.828	4839
897.949	4687
898.07	4577
898.19	4630
898.311	4797
898.431	4660
898.552	4790
898.672	4752
898.792	4801
898.913	4763
899.033	4653
899.153	4474
899.273	4379
899.393	4462
899.513	4497
899.633	4504
899.753	4516
899.873	4474
899.993	4615
900.113	4546
900.232	4584
900.352	4531
900.472	4508
900.591	4383
900.711	4436
900.83	4405
900.95	4577
901.069	4702
901.189	4550
901.308	4310
901.427	4314
901.546	4363
901.665	4436
901.784	4481
901.904	4398
902.023	4291
902.141	4192
902.26	4177
902.379	4318
902.498	4276
902.617	4291
902.735	4371
902.854	4383
902.973	4356
903.091	4162
903.21	4204
903.328	4295
903.446	4314
903.565	4253
903.683	4386
903.801	4261
903.919	4405
904.038	4493
904.156	4299
904.274	4424
904.392	4432
904.51	4443
904.627	4459
904.745	4554
904.863	4596
904.981	4424
905.098	4284
905.216	4383
905.334	4436
905.451	4428
905.569	4428
905.686	4584
905.803	4588
905.921	4402
906.038	4546
906.155	4489
906.272	4421
906.389	4443
906.506	4356
906.623	4367
906.74	4383
906.857	4291
906.974	4333
907.091	4561
907.208	4653
907.324	4615
907.441	4512
907.557	4329
907.674	4352
907.79	4314
907.907	4383
908.023	4455
908.139	4462
908.256	4432
908.372	4459
908.488	4470
908.604	4363
908.72	4287
908.836	4371
908.952	4432
909.068	4443
909.184	4538
909.3	4489
909.415	4615
909.531	4512
909.647	4352
909.762	4363
909.878	4329
909.993	4485
910.108	4405
910.224	4398
910.339	4474
910.454	4402
910.57	4360
910.685	4280
910.8	4588
910.915	4584
911.03	4512
911.145	4325
911.259	4333
911.374	4325
911.489	4287
911.604	4253
911.718	4139
911.833	4215
911.947	4059
912.062	4078
912.176	4200
912.291	4261
912.405	4234
912.519	4447
912.633	4500
912.748	4383
912.862	4306
912.976	4211
913.09	4150
913.204	4139
913.318	4265
913.431	4322
913.545	4405
913.659	4432
913.772	4367
913.886	4204
914	4238
914.113	4402
914.226	4409
914.34	4375
914.453	4246
914.566	4405
914.68	4325
914.793	4295
914.906	4173
915.019	4131
915.132	4139
915.245	4196
915.358	4211
915.47	4227
915.583	4234
915.696	4352
915.809	4421
915.921	4409
916.034	4230
916.146	4329
916.259	4242
916.371	4390
916.483	4306
916.595	4238
916.708	4306
916.82	4318
916.932	4337
917.044	4318
917.156	4322
917.268	4207
917.38	4253
917.491	4272
917.603	4352
917.715	4421
917.826	4383
917.938	4337
918.049	4242
918.161	4386
918.272	4550
918.384	4493
918.495	4497
918.606	4287
918.717	4253
918.828	4371
918.939	4341
919.05	4249
919.161	4265
919.272	4097
919.383	4249
919.494	4447
919.604	4588
919.715	4405
919.826	4348
919.936	4383
920.047	4478
920.157	4432
920.267	4694
920.378	4535
920.488	4493
920.598	4714
920.708	4873
920.818	4736
920.928	4729
921.038	4923
921.148	4904
921.258	4611
921.368	4531
921.477	4504
921.587	4459
921.697	4348
921.806	4561
921.916	4428
922.025	4234
922.134	4234
922.244	4227
922.353	4318
922.462	4162
922.571	4101
922.68	4040
922.789	3934
922.898	4010
923.007	3979
923.116	4097
923.224	4082
923.333	4074
923.442	3949
923.55	3972
923.659	4040
923.767	4086
923.876	4006
923.984	4116
924.092	3960
924.201	4048
924.309	4090
924.417	4105
924.525	4055
924.633	4105
924.741	4881
924.849	3918
924.956	4109
925.064	3956
925.172	3876
925.279	3949
925.387	4120
925.494	4040
925.602	4173
925.709	4166
925.816	4051
925.924	4097
926.031	4249
926.138	4211
926.245	4196
926.352	4051
926.459	4238
926.566	4261
926.673	4112
926.779	4090
926.886	4093
926.993	3979
927.099	3991
927.206	3930
927.312	3945
927.419	4063
927.525	4032
927.631	4090
927.737	3915
927.843	3964
927.95	3835
928.056	3945
928.162	3987
928.267	4051
928.373	4649
928.479	4093
928.585	3835
928.69	4021
928.796	4067
928.901	3979
929.007	3896
929.112	3964
929.218	3945
929.323	3918
929.428	3941
929.533	4139
929.638	3915
929.743	3994
929.848	4051
929.953	4029
930.058	3907
930.163	3812
930.267	3842
930.372	3975
930.477	3785
930.581	4086
930.685	3968
930.79	3789
930.894	3873
930.998	3880
931.103	4029
931.207	3709
931.311	3667
931.415	3686
931.519	3538
931.623	3538
