Data from test_V78500241_1951.txt Node
Date: Fri Mar 25 17:02:33 CST 2022
User: usil
Spectrometer: V785-0024
Trigger mode: 0
Integration Time (sec): 4.000000E-1
Scans to average: 1
Nonlinearity correction enabled: false
Boxcar width: 0
Storing dark spectrum: false
XAxis mode: Wavelengths
Number of Pixels in Spectrum: 1024
>>>>>Begin Spectral Data<<<<<
801.071	7986
801.214	7986
801.356	7852
801.499	7864
801.641	7830
801.783	7814
801.926	8020
802.068	7902
802.211	7993
802.353	7986
802.496	7833
802.638	7868
802.78	7925
802.923	7841
803.065	7864
803.208	7837
803.35	7944
803.492	8065
803.635	8199
803.777	8005
803.919	8153
804.061	8434
804.204	8111
804.346	8035
804.488	7947
804.63	8107
804.773	8065
804.915	8134
805.057	8343
805.199	8164
805.341	8233
805.483	8279
805.626	8210
805.768	8126
805.91	8202
806.052	8214
806.194	8096
806.336	8286
806.478	8043
806.62	8043
806.762	8142
806.904	8324
807.046	8503
807.188	8374
807.33	8343
807.472	8389
807.614	8142
807.756	8119
807.898	8012
808.04	7909
808.182	7879
808.324	7890
808.465	7902
808.607	8024
808.749	8119
808.891	8172
809.033	8294
809.174	8164
809.316	8046
809.458	8088
809.6	7955
809.741	8069
809.883	8088
810.025	8130
810.166	8103
810.308	7951
810.45	7955
810.591	7849
810.733	7826
810.875	7658
811.016	7567
811.158	7472
811.299	7556
811.441	7723
811.582	7624
811.724	7616
811.865	7499
812.007	7594
812.148	7590
812.29	7636
812.431	7776
812.573	7932
812.714	8016
812.855	8077
812.997	8259
813.138	8324
813.279	8145
813.421	8084
813.562	7970
813.703	7868
813.845	7719
813.986	7422
814.127	7202
814.268	7164
814.41	7213
814.551	7221
814.692	7232
814.833	7141
814.974	7110
815.115	7149
815.256	6966
815.397	6958
815.539	6890
815.68	6772
815.821	6757
815.962	6875
816.103	6859
816.244	6749
816.385	6627
816.526	6601
816.666	6521
816.807	6277
816.948	6460
817.089	6456
817.23	6452
817.371	6399
817.512	6369
817.653	6433
817.793	6391
817.934	6395
818.075	6429
818.216	6388
818.356	6391
818.497	6254
818.638	6182
818.778	6136
818.919	6098
819.06	6163
819.2	6304
819.341	6346
819.481	6357
819.622	6525
819.762	6673
819.903	6700
820.043	6578
820.184	6589
820.324	6559
820.465	6730
820.605	6669
820.746	6669
820.886	6486
821.026	6658
821.167	6681
821.307	6802
821.447	6757
821.588	6696
821.728	6566
821.868	6532
822.008	6350
822.149	6331
822.289	6289
822.429	6190
822.569	6083
822.709	6106
822.849	5897
822.99	5893
823.13	5923
823.27	5973
823.41	5794
823.55	5805
823.69	5729
823.83	5783
823.97	5665
824.11	5554
824.25	5562
824.389	5558
824.529	5623
824.669	5490
824.809	5630
824.949	5661
825.089	5573
825.228	5535
825.368	5383
825.508	5379
825.648	5372
825.787	5368
825.927	5372
826.067	5303
826.206	5330
826.346	5417
826.485	5341
826.625	5398
826.765	5554
826.904	5509
827.044	5258
827.183	5193
827.323	5132
827.462	5269
827.601	5189
827.741	5170
827.88	5193
828.02	5105
828.159	5242
828.298	5280
828.437	5349
828.577	5315
828.716	5478
828.855	5288
828.994	5162
829.134	5113
829.273	5193
829.412	5174
829.551	5128
829.69	5185
829.829	5216
829.968	5402
830.107	5311
830.246	5254
830.385	5201
830.524	5147
830.663	5052
830.802	5033
830.941	4938
831.08	4866
831.219	5010
831.357	4980
831.496	5204
831.635	4942
831.774	4847
831.913	4862
832.051	4736
832.19	4748
832.329	4839
832.467	4687
832.606	4634
832.744	4752
832.883	4683
833.022	4706
833.16	4797
833.299	4816
833.437	4801
833.576	4847
833.714	4850
833.852	4881
833.991	4904
834.129	4946
834.267	4968
834.406	4942
834.544	4965
834.682	5022
834.821	4965
834.959	5189
835.097	5003
835.235	5140
835.373	5094
835.511	5029
835.65	5022
835.788	4999
835.926	4927
836.064	4866
836.202	4930
836.34	5121
836.478	5288
836.615	5193
836.753	5170
836.891	5261
837.029	5227
837.167	5197
837.305	5159
837.443	5140
837.58	5056
837.718	5254
837.856	5216
837.993	5132
838.131	5273
838.269	5258
838.406	5201
838.544	5147
838.681	5033
838.819	5025
838.956	4854
839.094	4930
839.231	4957
839.369	5117
839.506	5444
839.643	5280
839.781	5071
839.918	4976
840.055	5147
840.193	5098
840.33	5075
840.467	5166
840.604	5128
840.742	5448
840.879	5151
841.016	5071
841.153	5132
841.29	5398
841.427	5368
841.564	5330
841.701	5334
841.838	5280
841.975	5273
842.112	5223
842.249	5147
842.385	5102
842.522	5326
842.659	5193
842.796	5124
842.933	5277
843.069	5098
843.206	5204
843.343	5269
843.479	5242
843.616	5277
843.752	5029
843.889	5006
844.025	5227
844.162	4972
844.298	5220
844.435	5060
844.571	5025
844.708	5239
844.844	5337
844.98	5326
845.117	5315
845.253	5128
845.389	5075
845.525	5170
845.661	5140
845.798	5048
845.934	5136
846.07	5048
846.206	5212
846.342	5261
846.478	5155
846.614	4980
846.75	4976
846.886	5010
847.022	5109
847.158	4987
847.294	5079
847.429	5109
847.565	5090
847.701	5273
847.837	4828
847.972	4824
848.108	4915
848.244	4976
848.379	4748
848.515	4767
848.65	4683
848.786	4721
848.921	4820
849.057	4850
849.192	4942
849.328	4809
849.463	4816
849.598	4778
849.734	4725
849.869	4744
850.004	4649
850.14	4698
850.275	4634
850.41	4519
850.545	4519
850.68	4622
850.815	4653
850.95	4664
851.085	4812
851.22	4733
851.355	4664
851.49	4645
851.625	4653
851.76	4664
851.895	4565
852.03	4550
852.165	4656
852.299	4710
852.434	4778
852.569	4736
852.703	4786
852.838	4839
852.973	4957
853.107	4919
853.242	4736
853.376	4630
853.511	4519
853.645	4637
853.78	4767
853.914	4672
854.048	4687
854.183	4725
854.317	4702
854.451	4843
854.585	4675
854.72	4603
854.854	4759
854.988	4569
855.122	4664
855.256	4500
855.39	4656
855.524	4740
855.658	4733
855.792	4714
855.926	4679
856.06	4733
856.194	4820
856.327	4679
856.461	4672
856.595	4634
856.729	4580
856.862	4736
856.996	4702
857.13	4679
857.263	4752
857.397	4759
857.53	4656
857.664	4748
857.797	4774
857.931	4809
858.064	4653
858.197	4710
858.331	4656
858.464	4592
858.597	4500
858.731	4580
858.864	4588
858.997	4622
859.13	4679
859.263	4641
859.396	4672
859.529	4577
859.662	4554
859.795	4531
859.928	4603
860.061	4748
860.194	4767
860.327	4599
860.46	4558
860.592	4698
860.725	4706
860.858	4664
860.99	4546
861.123	4508
861.256	4508
861.388	4554
861.521	5277
861.653	4481
861.786	4440
861.918	4447
862.05	4485
862.183	4565
862.315	4607
862.447	4577
862.58	4523
862.712	4383
862.844	4318
862.976	4493
863.108	4421
863.24	4767
863.372	4409
863.504	4390
863.636	4390
863.768	4459
863.9	4409
864.032	4398
864.164	4402
864.296	4440
864.428	4561
864.559	4558
864.691	4504
864.823	4508
864.954	4489
865.086	4462
865.217	4436
865.349	4417
865.48	4455
865.612	4447
865.743	4622
865.875	4474
866.006	4443
866.137	4417
866.269	4432
866.4	4390
866.531	4402
866.662	4443
866.793	4451
866.924	4421
867.055	4535
867.186	4417
867.317	4447
867.448	4383
867.579	4348
867.71	4398
867.841	4333
867.972	4455
868.103	4489
868.233	4478
868.364	4443
868.495	4485
868.625	4683
868.756	4733
868.886	4523
869.017	4599
869.147	4752
869.278	4786
869.408	4641
869.539	4660
869.669	4702
869.799	4630
869.929	4778
870.06	4706
870.19	4904
870.32	4965
870.45	4949
870.58	5003
870.71	5067
870.84	5113
870.97	4972
871.1	4957
871.23	5143
871.36	5113
871.489	5010
871.619	5079
871.749	5067
871.879	5132
872.008	5121
872.138	5045
872.267	4976
872.397	4904
872.526	4767
872.656	4702
872.785	4866
872.915	4938
873.044	5029
873.173	4919
873.303	4976
873.432	4965
873.561	4923
873.69	4900
873.819	4839
873.948	4866
874.077	4850
874.206	4736
874.335	4786
874.464	4938
874.593	5033
874.722	4972
874.851	5105
874.979	5045
875.108	5010
875.237	4904
875.365	4881
875.494	4877
875.623	4972
875.751	4847
875.88	4885
876.008	5006
876.136	5014
876.265	5151
876.393	5341
876.521	5254
876.65	5208
876.778	5166
876.906	5060
877.034	5056
877.162	5033
877.29	4934
877.418	5098
877.546	5025
877.674	5029
877.802	5018
877.93	4972
878.058	4934
878.185	4927
878.313	4984
878.441	4987
878.568	4805
878.696	4900
878.824	5010
878.951	4999
879.079	5121
879.206	5280
879.333	5083
879.461	5025
879.588	5003
879.715	5094
879.842	5212
879.97	4991
880.097	4740
880.224	4759
880.351	4828
880.478	4771
880.605	4771
880.732	4812
880.859	5071
880.986	4885
881.112	4900
881.239	4816
881.366	4622
881.493	4634
881.619	4592
881.746	4599
881.872	4656
881.999	4630
882.125	4691
882.252	4778
882.378	4824
882.505	4942
882.631	4755
882.757	4660
882.883	4717
883.01	4714
883.136	4615
883.262	4569
883.388	4611
883.514	4793
883.64	4847
883.766	4771
883.892	4721
884.018	4710
884.143	4881
884.269	4999
884.395	4687
884.52	4615
884.646	4615
884.772	4584
884.897	4565
885.023	4706
885.148	4786
885.274	4831
885.399	4729
885.524	4736
885.65	4729
885.775	4767
885.9	4668
886.025	4831
886.15	4740
886.275	4717
886.4	4645
886.525	4733
886.65	4687
886.775	4656
886.9	4889
887.025	5048
887.149	4812
887.274	4630
887.399	4565
887.523	4561
887.648	4596
887.773	4565
887.897	4725
888.021	4778
888.146	4634
888.27	4782
888.395	4919
888.519	4862
888.643	4797
888.767	4862
888.891	4733
889.015	4588
889.139	4626
889.263	4607
889.387	4816
889.511	4885
889.635	4816
889.759	4660
889.883	4645
890.006	4729
890.13	4805
890.254	4584
890.377	4649
890.501	4596
890.624	4512
890.748	4714
890.871	4504
890.995	4436
891.118	4360
891.241	4493
891.364	4527
891.488	4656
891.611	4523
891.734	4546
891.857	4603
891.98	4603
892.103	4664
892.226	4554
892.349	4538
892.471	4386
892.594	4546
892.717	4649
892.839	4558
892.962	4584
893.085	4660
893.207	4588
893.33	4447
893.452	4558
893.575	4679
893.697	4596
893.819	4778
893.941	4790
894.064	4729
894.186	4599
894.308	4569
894.43	4767
894.552	4847
894.674	4714
894.796	4573
894.918	4580
895.04	4584
895.161	4691
895.283	4618
895.405	4607
895.526	4588
895.648	4649
895.769	4664
895.891	4714
896.012	4736
896.134	4736
896.255	4679
896.376	4691
896.498	4622
896.619	4729
896.74	4611
896.861	4607
896.982	4930
897.103	5067
897.224	4824
897.345	4748
897.466	4645
897.587	4672
897.708	4885
897.828	4740
897.949	4656
898.07	4592
898.19	4634
898.311	4831
898.431	4668
898.552	4694
898.672	4812
898.792	4744
898.913	4755
899.033	4630
899.153	4470
899.273	4440
899.393	4512
899.513	4527
899.633	4531
899.753	4535
899.873	4497
899.993	4519
900.113	4588
900.232	4592
900.352	4542
900.472	4481
900.591	4398
900.711	4508
900.83	4375
900.95	4611
901.069	4664
901.189	4527
901.308	4432
901.427	4314
901.546	4371
901.665	4489
901.784	4523
901.904	4348
902.023	4333
902.141	4185
902.26	4158
902.379	4329
902.498	4215
902.617	4238
902.735	4348
902.854	4383
902.973	4325
903.091	4173
903.21	4215
903.328	4276
903.446	4295
903.565	4253
903.683	4363
903.801	4280
903.919	4383
904.038	4432
904.156	4306
904.274	4424
904.392	4386
904.51	4443
904.627	4447
904.745	4535
904.863	4611
904.981	4371
905.098	4306
905.216	4363
905.334	4421
905.451	4493
905.569	4405
905.686	4554
905.803	4565
905.921	4394
906.038	4542
906.155	4470
906.272	4428
906.389	4440
906.506	4352
906.623	4375
906.74	4413
906.857	4280
906.974	4405
907.091	4542
907.208	4660
907.324	4588
907.441	4485
907.557	4318
907.674	4360
907.79	4318
907.907	4424
908.023	4432
908.139	4466
908.256	4394
908.372	4462
908.488	4474
908.604	4375
908.72	4329
908.836	4386
908.952	4367
909.068	4440
909.184	4535
909.3	4481
909.415	4542
909.531	4500
909.647	4333
909.762	4383
909.878	4318
909.993	4466
910.108	4394
910.224	4386
910.339	4447
910.454	4405
910.57	4405
910.685	4337
910.8	4672
910.915	4588
911.03	4455
911.145	4341
911.259	4322
911.374	4386
911.489	4337
911.604	4303
911.718	4177
911.833	4177
911.947	4071
912.062	4032
912.176	4185
912.291	4230
912.405	4234
912.519	4421
912.633	4470
912.748	4333
912.862	4310
912.976	4204
913.09	4090
913.204	4246
913.318	4219
913.431	4356
913.545	4348
913.659	4462
913.772	4383
913.886	4219
914	4207
914.113	4329
914.226	4383
914.34	4405
914.453	4234
914.566	4436
914.68	4306
914.793	4314
914.906	4192
915.019	4112
915.132	4036
915.245	4143
915.358	4192
915.47	4230
915.583	4310
915.696	4306
915.809	4383
915.921	4417
916.034	4299
916.146	4223
916.259	4227
916.371	4390
916.483	4341
916.595	4249
916.708	4337
916.82	4310
916.932	4314
917.044	4310
917.156	4322
917.268	4230
917.38	4272
917.491	4291
917.603	4352
917.715	4447
917.826	4428
917.938	4356
918.049	4234
918.161	4375
918.272	4611
918.384	4508
918.495	4436
918.606	4265
918.717	4249
918.828	4352
918.939	4356
919.05	4246
919.161	4306
919.272	4101
919.383	4192
919.494	4459
919.604	4630
919.715	4440
919.826	4375
919.936	4417
920.047	4508
920.157	4455
920.267	4702
920.378	4561
920.488	4485
920.598	4660
920.708	4850
920.818	4729
920.928	4771
921.038	4877
921.148	4949
921.258	4618
921.368	4535
921.477	4500
921.587	4462
921.697	4375
921.806	4569
921.916	4455
922.025	4276
922.134	4268
922.244	4242
922.353	4333
922.462	4230
922.571	4131
922.68	3937
922.789	3964
922.898	4074
923.007	4010
923.116	4082
923.224	4048
923.333	4082
923.442	3994
923.55	3941
923.659	4090
923.767	4067
923.876	3975
923.984	4105
924.092	3994
924.201	4124
924.309	4093
924.417	4169
924.525	4025
924.633	4093
924.741	5060
924.849	3937
924.956	4166
925.064	3956
925.172	3884
925.279	3949
925.387	4032
925.494	4086
925.602	4227
925.709	4177
925.816	4063
925.924	4093
926.031	4223
926.138	4143
926.245	4192
926.352	4059
926.459	4299
926.566	4310
926.673	4143
926.779	4059
926.886	4093
926.993	3979
927.099	3964
927.206	3907
927.312	3926
927.419	4025
927.525	4025
927.631	4101
927.737	3991
927.843	3907
927.95	3819
928.056	3968
928.162	3968
928.267	4055
928.373	4599
928.479	4097
928.585	3892
928.69	3968
928.796	4078
928.901	3983
929.007	3876
929.112	3968
929.218	3983
929.323	3918
929.428	3956
929.533	4154
929.638	3892
929.743	3987
929.848	4048
929.953	3979
930.058	3930
930.163	3797
930.267	3823
930.372	3983
930.477	3789
930.581	4048
930.685	3941
930.79	3797
930.894	3918
930.998	3827
931.103	4010
931.207	3709
931.311	3740
931.415	3679
931.519	3504
931.623	3530
