Data from test_V78500241_706.txt Node
Date: Fri Mar 25 16:53:54 CST 2022
User: usil
Spectrometer: V785-0024
Trigger mode: 0
Integration Time (sec): 4.000000E-1
Scans to average: 1
Nonlinearity correction enabled: false
Boxcar width: 0
Storing dark spectrum: false
XAxis mode: Wavelengths
Number of Pixels in Spectrum: 1024
>>>>>Begin Spectral Data<<<<<
801.071	7986
801.214	7986
801.356	7887
801.499	7822
801.641	7776
801.783	7845
801.926	7928
802.068	7989
802.211	7936
802.353	7989
802.496	7845
802.638	7913
802.78	7906
802.923	7932
803.065	7852
803.208	7856
803.35	7989
803.492	8107
803.635	8107
803.777	7978
803.919	8100
804.061	8419
804.204	8081
804.346	8058
804.488	7978
804.63	8069
804.773	7982
804.915	8054
805.057	8263
805.199	8100
805.341	8210
805.483	8168
805.626	8195
805.768	8088
805.91	8134
806.052	8168
806.194	8058
806.336	8240
806.478	8065
806.62	7982
806.762	8126
806.904	8294
807.046	8423
807.188	8358
807.33	8290
807.472	8351
807.614	8218
807.756	8111
807.898	7921
808.04	7887
808.182	7856
808.324	7902
808.465	7883
808.607	8027
808.749	8065
808.891	8134
809.033	8221
809.174	8259
809.316	8054
809.458	8027
809.6	8005
809.741	8008
809.883	7997
810.025	8050
810.166	8100
810.308	7993
810.45	7978
810.591	7864
810.733	7651
810.875	7689
811.016	7521
811.158	7468
811.299	7556
811.441	7723
811.582	7674
811.724	7499
811.865	7529
812.007	7575
812.148	7518
812.29	7609
812.431	7723
812.573	7849
812.714	7913
812.855	8126
812.997	8172
813.138	8286
813.279	8195
813.421	8111
813.562	8008
813.703	7871
813.845	7814
813.986	7480
814.127	7247
814.268	7225
814.41	7194
814.551	7107
814.692	7110
814.833	7023
814.974	7103
815.115	7053
815.256	6951
815.397	7031
815.539	6958
815.68	6802
815.821	6783
815.962	6848
816.103	6852
816.244	6707
816.385	6635
816.526	6582
816.666	6483
816.807	6270
816.948	6361
817.089	6441
817.23	6426
817.371	6342
817.512	6422
817.653	6384
817.793	6346
817.934	6437
818.075	6448
818.216	6399
818.356	6372
818.497	6216
818.638	6129
818.778	6091
818.919	6171
819.06	6175
819.2	6296
819.341	6308
819.481	6327
819.622	6570
819.762	6696
819.903	6642
820.043	6563
820.184	6566
820.324	6547
820.465	6665
820.605	6665
820.746	6563
820.886	6448
821.026	6662
821.167	6639
821.307	6776
821.447	6734
821.588	6627
821.728	6528
821.868	6467
822.008	6311
822.149	6327
822.289	6315
822.429	6152
822.569	6079
822.709	6110
822.849	5897
822.99	5901
823.13	5912
823.27	5920
823.41	5798
823.55	5824
823.69	5748
823.83	5790
823.97	5710
824.11	5509
824.25	5478
824.389	5547
824.529	5585
824.669	5433
824.809	5585
824.949	5638
825.089	5493
825.228	5524
825.368	5398
825.508	5307
825.648	5341
825.787	5349
825.927	5345
826.067	5265
826.206	5315
826.346	5395
826.485	5360
826.625	5410
826.765	5524
826.904	5478
827.044	5258
827.183	5258
827.323	5094
827.462	5280
827.601	5124
827.741	5204
827.88	5208
828.02	5098
828.159	5189
828.298	5292
828.437	5318
828.577	5299
828.716	5467
828.855	5337
828.994	5193
829.134	5121
829.273	5147
829.412	5132
829.551	5124
829.69	5132
829.829	5223
829.968	5353
830.107	5250
830.246	5280
830.385	5155
830.524	5124
830.663	5086
830.802	4999
830.941	4828
831.08	4881
831.219	4968
831.357	4980
831.496	5147
831.635	4919
831.774	4862
831.913	4797
832.051	4771
832.19	4782
832.329	4824
832.467	4683
832.606	4622
832.744	4679
832.883	4721
833.022	4702
833.16	4786
833.299	4820
833.437	4839
833.576	4847
833.714	4835
833.852	4866
833.991	4866
834.129	4995
834.267	4908
834.406	4881
834.544	4961
834.682	4908
834.821	4972
834.959	5102
835.097	4968
835.235	5189
835.373	5071
835.511	5109
835.65	4995
835.788	5056
835.926	4885
836.064	4843
836.202	4892
836.34	5178
836.478	5193
836.615	5151
836.753	5212
836.891	5311
837.029	5185
837.167	5147
837.305	5128
837.443	5155
837.58	5086
837.718	5208
837.856	5204
837.993	5113
838.131	5250
838.269	5189
838.406	5143
838.544	5220
838.681	5041
838.819	4980
838.956	4919
839.094	4934
839.231	4980
839.369	5045
839.506	5436
839.643	5269
839.781	5052
839.918	5014
840.055	5098
840.193	5064
840.33	5060
840.467	5094
840.604	5151
840.742	5402
840.879	5140
841.016	5075
841.153	5140
841.29	5372
841.427	5334
841.564	5311
841.701	5277
841.838	5288
841.975	5223
842.112	5250
842.249	5147
842.385	5067
842.522	5307
842.659	5113
842.796	5102
842.933	5220
843.069	5185
843.206	5117
843.343	5299
843.479	5223
843.616	5235
843.752	5025
843.889	4987
844.025	5193
844.162	5052
844.298	5216
844.435	5090
844.571	5071
844.708	5212
844.844	5265
844.98	5337
845.117	5280
845.253	5143
845.389	5128
845.525	5155
845.661	5170
845.798	5018
845.934	5124
846.07	5010
846.206	5197
846.342	5242
846.478	5166
846.614	5048
846.75	4965
846.886	4938
847.022	5151
847.158	4984
847.294	5056
847.429	5048
847.565	5075
847.701	5318
847.837	4828
847.972	4782
848.108	4961
848.244	4953
848.379	4752
848.515	4752
848.65	4748
848.786	4790
848.921	4755
849.057	4850
849.192	4847
849.328	4767
849.463	4858
849.598	4793
849.734	4714
849.869	4717
850.004	4645
850.14	4637
850.275	4554
850.41	4489
850.545	4561
850.68	4626
850.815	4637
850.95	4668
851.085	4831
851.22	4744
851.355	4675
851.49	4611
851.625	4618
851.76	4607
851.895	4573
852.03	4489
852.165	4596
852.299	4679
852.434	4767
852.569	4725
852.703	4729
852.838	4839
852.973	4942
853.107	4896
853.242	4714
853.376	4683
853.511	4538
853.645	4618
853.78	4812
853.914	4683
854.048	4679
854.183	4637
854.317	4702
854.451	4828
854.585	4710
854.72	4649
854.854	4729
854.988	4573
855.122	4626
855.256	4519
855.39	4675
855.524	4763
855.658	4744
855.792	4714
855.926	4752
856.06	4752
856.194	4778
856.327	4622
856.461	4626
856.595	4588
856.729	4599
856.862	4736
856.996	4691
857.13	4797
857.263	4767
857.397	4759
857.53	4664
857.664	4721
857.797	4805
857.931	4763
858.064	4698
858.197	4725
858.331	4637
858.464	4607
858.597	4531
858.731	4607
858.864	4577
858.997	4580
859.13	4630
859.263	4691
859.396	4698
859.529	4603
859.662	4558
859.795	4546
859.928	4634
860.061	4820
860.194	4805
860.327	4615
860.46	4542
860.592	4725
860.725	4672
860.858	4744
860.99	4596
861.123	4508
861.256	4485
861.388	4615
861.521	5379
861.653	4478
861.786	4466
861.918	4462
862.05	4561
862.183	4527
862.315	4592
862.447	4664
862.58	4550
862.712	4440
862.844	4333
862.976	4466
863.108	4500
863.24	4873
863.372	4310
863.504	4409
863.636	4367
863.768	4459
863.9	4436
864.032	4344
864.164	4356
864.296	4451
864.428	4550
864.559	4573
864.691	4497
864.823	4516
864.954	4519
865.086	4504
865.217	4459
865.349	4413
865.48	4432
865.612	4428
865.743	4645
865.875	4443
866.006	4459
866.137	4474
866.269	4432
866.4	4440
866.531	4424
866.662	4356
866.793	4413
866.924	4383
867.055	4504
867.186	4421
867.317	4402
867.448	4371
867.579	4386
867.71	4390
867.841	4348
867.972	4428
868.103	4436
868.233	4455
868.364	4371
868.495	4455
868.625	4637
868.756	4725
868.886	4569
869.017	4637
869.147	4748
869.278	4767
869.408	4675
869.539	4615
869.669	4733
869.799	4660
869.929	4706
870.06	4755
870.19	4957
870.32	4927
870.45	4896
870.58	5003
870.71	5071
870.84	5105
870.97	4938
871.1	4930
871.23	5117
871.36	5124
871.489	4980
871.619	5052
871.749	5071
871.879	5105
872.008	5201
872.138	5041
872.267	5014
872.397	4797
872.526	4763
872.656	4717
872.785	4767
872.915	4930
873.044	5029
873.173	4911
873.303	4953
873.432	4908
873.561	4938
873.69	4915
873.819	4843
873.948	4900
874.077	4816
874.206	4763
874.335	4824
874.464	4923
874.593	5010
874.722	4942
874.851	5105
874.979	5048
875.108	5029
875.237	4942
875.365	4862
875.494	4942
875.623	4968
875.751	4782
875.88	4911
876.008	4968
876.136	5029
876.265	5174
876.393	5341
876.521	5239
876.65	5254
876.778	5105
876.906	5037
877.034	4976
877.162	5029
877.29	4972
877.418	5124
877.546	5033
877.674	5045
877.802	5060
877.93	4946
878.058	4923
878.185	4843
878.313	4949
878.441	4942
878.568	4831
878.696	4877
878.824	4946
878.951	4976
879.079	5121
879.206	5258
879.333	5117
879.461	5003
879.588	5010
879.715	5079
879.842	5235
879.97	4976
880.097	4744
880.224	4752
880.351	4790
880.478	4820
880.605	4809
880.732	4748
880.859	5079
880.986	4892
881.112	4889
881.239	4733
881.366	4649
881.493	4611
881.619	4603
881.746	4641
881.872	4672
881.999	4672
882.125	4717
882.252	4812
882.378	4782
882.505	4965
882.631	4763
882.757	4634
882.883	4729
883.01	4740
883.136	4653
883.262	4603
883.388	4698
883.514	4816
883.64	4896
883.766	4767
883.892	4706
884.018	4706
884.143	4866
884.269	4965
884.395	4645
884.52	4615
884.646	4656
884.772	4584
884.897	4519
885.023	4649
885.148	4793
885.274	4870
885.399	4774
885.524	4687
885.65	4717
885.775	4740
885.9	4698
886.025	4870
886.15	4854
886.275	4763
886.4	4664
886.525	4660
886.65	4694
886.775	4679
886.9	4904
887.025	5041
887.149	4782
887.274	4668
887.399	4618
887.523	4626
887.648	4611
887.773	4596
887.897	4729
888.021	4786
888.146	4660
888.27	4820
888.395	4866
888.519	4786
888.643	4809
888.767	4793
888.891	4683
889.015	4637
889.139	4653
889.263	4584
889.387	4755
889.511	4885
889.635	4809
889.759	4607
889.883	4653
890.006	4725
890.13	4805
890.254	4596
890.377	4668
890.501	4504
890.624	4538
890.748	4584
890.871	4481
890.995	4470
891.118	4363
891.241	4535
891.364	4523
891.488	4637
891.611	4478
891.734	4565
891.857	4596
891.98	4569
892.103	4694
892.226	4569
892.349	4561
892.471	4413
892.594	4535
892.717	4599
892.839	4577
892.962	4611
893.085	4660
893.207	4618
893.33	4451
893.452	4531
893.575	4622
893.697	4603
893.819	4771
893.941	4801
894.064	4801
894.186	4607
894.308	4535
894.43	4748
894.552	4831
894.674	4759
894.796	4527
894.918	4607
895.04	4599
895.161	4679
895.283	4694
895.405	4592
895.526	4687
895.648	4691
895.769	4706
895.891	4706
896.012	4721
896.134	4698
896.255	4645
896.376	4611
896.498	4607
896.619	4683
896.74	4656
896.861	4675
896.982	4885
897.103	5048
897.224	4835
897.345	4744
897.466	4645
897.587	4733
897.708	4816
897.828	4782
897.949	4630
898.07	4523
898.19	4580
898.311	4835
898.431	4698
898.552	4717
898.672	4801
898.792	4816
898.913	4729
899.033	4577
899.153	4493
899.273	4421
899.393	4470
899.513	4481
899.633	4497
899.753	4535
899.873	4538
899.993	4592
900.113	4531
900.232	4607
900.352	4561
900.472	4470
900.591	4409
900.711	4451
900.83	4462
900.95	4603
901.069	4698
901.189	4573
901.308	4379
901.427	4291
901.546	4398
901.665	4466
901.784	4538
901.904	4421
902.023	4299
902.141	4219
902.26	4196
902.379	4303
902.498	4223
902.617	4253
902.735	4310
902.854	4405
902.973	4337
903.091	4211
903.21	4215
903.328	4295
903.446	4265
903.565	4238
903.683	4356
903.801	4303
903.919	4367
904.038	4436
904.156	4348
904.274	4436
904.392	4356
904.51	4428
904.627	4519
904.745	4603
904.863	4641
904.981	4413
905.098	4356
905.216	4363
905.334	4402
905.451	4428
905.569	4474
905.686	4569
905.803	4542
905.921	4421
906.038	4554
906.155	4485
906.272	4405
906.389	4451
906.506	4360
906.623	4348
906.74	4394
906.857	4295
906.974	4333
907.091	4584
907.208	4668
907.324	4554
907.441	4474
907.557	4329
907.674	4379
907.79	4348
907.907	4383
908.023	4474
908.139	4493
908.256	4428
908.372	4413
908.488	4421
908.604	4333
908.72	4352
908.836	4379
908.952	4413
909.068	4394
909.184	4565
909.3	4497
909.415	4588
909.531	4542
909.647	4329
909.762	4341
909.878	4367
909.993	4459
910.108	4325
910.224	4421
910.339	4481
910.454	4363
910.57	4333
910.685	4291
910.8	4641
910.915	4577
911.03	4500
911.145	4337
911.259	4356
911.374	4356
911.489	4287
911.604	4280
911.718	4154
911.833	4196
911.947	4059
912.062	4010
912.176	4150
912.291	4215
912.405	4261
912.519	4538
912.633	4516
912.748	4360
912.862	4344
912.976	4169
913.09	4112
913.204	4158
913.318	4280
913.431	4375
913.545	4383
913.659	4409
913.772	4363
913.886	4272
914	4211
914.113	4402
914.226	4443
914.34	4360
914.453	4257
914.566	4436
914.68	4268
914.793	4325
914.906	4181
915.019	4139
915.132	4055
915.245	4158
915.358	4192
915.47	4227
915.583	4234
915.696	4310
915.809	4436
915.921	4432
916.034	4291
916.146	4272
916.259	4219
916.371	4375
916.483	4341
916.595	4253
916.708	4291
916.82	4363
916.932	4265
917.044	4284
917.156	4348
917.268	4211
917.38	4287
917.491	4337
917.603	4341
917.715	4405
917.826	4405
917.938	4325
918.049	4242
918.161	4386
918.272	4527
918.384	4546
918.495	4474
918.606	4287
918.717	4246
918.828	4341
918.939	4421
919.05	4291
919.161	4322
919.272	4124
919.383	4261
919.494	4413
919.604	4558
919.715	4462
919.826	4329
919.936	4398
920.047	4470
920.157	4481
920.267	4698
920.378	4565
920.488	4512
920.598	4687
920.708	4896
920.818	4782
920.928	4782
921.038	4991
921.148	4911
921.258	4622
921.368	4565
921.477	4478
921.587	4417
921.697	4360
921.806	4538
921.916	4443
922.025	4257
922.134	4268
922.244	4192
922.353	4356
922.462	4166
922.571	4105
922.68	3975
922.789	3968
922.898	3975
923.007	3983
923.116	4093
923.224	4032
923.333	4040
923.442	3983
923.55	3987
923.659	4044
923.767	4097
923.876	4002
923.984	4124
924.092	3953
924.201	4071
924.309	4086
924.417	4124
924.525	4063
924.633	4128
924.741	5037
924.849	3941
924.956	4120
925.064	4013
925.172	3896
925.279	3937
925.387	4036
925.494	4067
925.602	4234
925.709	4124
925.816	4044
925.924	4101
926.031	4204
926.138	4211
926.245	4211
926.352	4067
926.459	4238
926.566	4344
926.673	4147
926.779	4055
926.886	4067
926.993	3968
927.099	3915
927.206	3918
927.312	3926
927.419	4074
927.525	3960
927.631	4090
927.737	3964
927.843	3930
927.95	3876
928.056	3941
928.162	3998
928.267	4090
928.373	4664
928.479	4090
928.585	3857
928.69	4029
928.796	4086
928.901	3949
929.007	3789
929.112	3975
929.218	3949
929.323	3907
929.428	3915
929.533	4120
929.638	3926
929.743	3918
929.848	4097
929.953	3987
930.058	3903
930.163	3812
930.267	3831
930.372	3949
930.477	3838
930.581	4074
930.685	3964
930.79	3816
930.894	3934
930.998	3800
931.103	4032
931.207	3717
931.311	3701
931.415	3705
931.519	3549
931.623	3557
