Data from test_V78500241_1212.txt Node
Date: Fri Mar 25 16:57:25 CST 2022
User: usil
Spectrometer: V785-0024
Trigger mode: 0
Integration Time (sec): 4.000000E-1
Scans to average: 1
Nonlinearity correction enabled: false
Boxcar width: 0
Storing dark spectrum: false
XAxis mode: Wavelengths
Number of Pixels in Spectrum: 1024
>>>>>Begin Spectral Data<<<<<
801.071	8077
801.214	8039
801.356	7932
801.499	7921
801.641	7822
801.783	7811
801.926	7890
802.068	7909
802.211	7947
802.353	7978
802.496	7776
802.638	7822
802.78	7845
802.923	7894
803.065	7902
803.208	7868
803.35	8016
803.492	8024
803.635	8157
803.777	7940
803.919	8062
804.061	8412
804.204	8088
804.346	8054
804.488	7963
804.63	8084
804.773	8035
804.915	8153
805.057	8237
805.199	8164
805.341	8206
805.483	8244
805.626	8172
805.768	8130
805.91	8244
806.052	8267
806.194	8069
806.336	8294
806.478	8084
806.62	8016
806.762	8191
806.904	8301
807.046	8442
807.188	8332
807.33	8248
807.472	8362
807.614	8081
807.756	8107
807.898	7959
808.04	7917
808.182	7898
808.324	7932
808.465	7967
808.607	8077
808.749	8111
808.891	8210
809.033	8229
809.174	8176
809.316	8035
809.458	8027
809.6	7993
809.741	7986
809.883	8065
810.025	8126
810.166	8096
810.308	8050
810.45	7986
810.591	7894
810.733	7693
810.875	7700
811.016	7514
811.158	7464
811.299	7632
811.441	7693
811.582	7594
811.724	7609
811.865	7556
812.007	7632
812.148	7594
812.29	7670
812.431	7693
812.573	7875
812.714	7909
812.855	8077
812.997	8187
813.138	8244
813.279	8142
813.421	8088
813.562	7940
813.703	7917
813.845	7738
813.986	7499
814.127	7274
814.268	7183
814.41	7179
814.551	7168
814.692	7145
814.833	7069
814.974	7076
815.115	7069
815.256	6958
815.397	6924
815.539	7012
815.68	6882
815.821	6768
815.962	6894
816.103	6810
816.244	6749
816.385	6642
816.526	6616
816.666	6513
816.807	6289
816.948	6437
817.089	6498
817.23	6403
817.371	6403
817.512	6395
817.653	6414
817.793	6331
817.934	6460
818.075	6391
818.216	6452
818.356	6372
818.497	6205
818.638	6110
818.778	6205
818.919	6152
819.06	6136
819.2	6338
819.341	6331
819.481	6365
819.622	6513
819.762	6745
819.903	6703
820.043	6589
820.184	6498
820.324	6593
820.465	6677
820.605	6616
820.746	6627
820.886	6490
821.026	6665
821.167	6677
821.307	6821
821.447	6719
821.588	6665
821.728	6544
821.868	6521
822.008	6296
822.149	6357
822.289	6372
822.429	6102
822.569	6030
822.709	6083
822.849	5935
822.99	5939
823.13	5923
823.27	5866
823.41	5775
823.55	5786
823.69	5771
823.83	5779
823.97	5668
824.11	5524
824.25	5535
824.389	5562
824.529	5634
824.669	5509
824.809	5589
824.949	5634
825.089	5585
825.228	5520
825.368	5341
825.508	5368
825.648	5284
825.787	5398
825.927	5376
826.067	5334
826.206	5277
826.346	5353
826.485	5383
826.625	5417
826.765	5535
826.904	5512
827.044	5220
827.183	5174
827.323	5132
827.462	5246
827.601	5155
827.741	5193
827.88	5273
828.02	5098
828.159	5254
828.298	5258
828.437	5322
828.577	5280
828.716	5467
828.855	5277
828.994	5140
829.134	5185
829.273	5174
829.412	5113
829.551	5155
829.69	5102
829.829	5235
829.968	5315
830.107	5246
830.246	5261
830.385	5204
830.524	5109
830.663	5018
830.802	4923
830.941	4889
831.08	4847
831.219	4953
831.357	4911
831.496	5124
831.635	4877
831.774	4812
831.913	4854
832.051	4721
832.19	4721
832.329	4809
832.467	4698
832.606	4660
832.744	4755
832.883	4702
833.022	4672
833.16	4778
833.299	4850
833.437	4805
833.576	4820
833.714	4843
833.852	4885
833.991	4881
834.129	4976
834.267	4968
834.406	4930
834.544	4927
834.682	5003
834.821	4965
834.959	5136
835.097	5003
835.235	5105
835.373	5083
835.511	5071
835.65	5102
835.788	5090
835.926	4904
836.064	4889
836.202	4839
836.34	5121
836.478	5170
836.615	5121
836.753	5208
836.891	5299
837.029	5242
837.167	5204
837.305	5124
837.443	5117
837.58	5041
837.718	5208
837.856	5178
837.993	5124
838.131	5201
838.269	5128
838.406	5201
838.544	5083
838.681	5010
838.819	4991
838.956	4847
839.094	4904
839.231	4938
839.369	5052
839.506	5349
839.643	5258
839.781	5083
839.918	5025
840.055	5045
840.193	5052
840.33	5102
840.467	5067
840.604	5178
840.742	5410
840.879	5086
841.016	5079
841.153	5132
841.29	5417
841.427	5303
841.564	5288
841.701	5341
841.838	5277
841.975	5254
842.112	5208
842.249	5151
842.385	5102
842.522	5341
842.659	5083
842.796	5094
842.933	5197
843.069	5132
843.206	5128
843.343	5254
843.479	5212
843.616	5277
843.752	5033
843.889	5033
844.025	5189
844.162	4968
844.298	5159
844.435	5037
844.571	4968
844.708	5162
844.844	5254
844.98	5303
845.117	5292
845.253	5105
845.389	5041
845.525	5181
845.661	5136
845.798	5006
845.934	5170
846.07	5048
846.206	5189
846.342	5216
846.478	5124
846.614	5010
846.75	4946
846.886	4927
847.022	5136
847.158	5022
847.294	5025
847.429	5098
847.565	5003
847.701	5277
847.837	4850
847.972	4786
848.108	4968
848.244	4923
848.379	4771
848.515	4687
848.65	4736
848.786	4767
848.921	4763
849.057	4850
849.192	4831
849.328	4771
849.463	4835
849.598	4816
849.734	4752
849.869	4660
850.004	4634
850.14	4664
850.275	4611
850.41	4516
850.545	4573
850.68	4580
850.815	4588
850.95	4615
851.085	4828
851.22	4748
851.355	4634
851.49	4599
851.625	4588
851.76	4641
851.895	4558
852.03	4531
852.165	4672
852.299	4687
852.434	4759
852.569	4748
852.703	4763
852.838	4850
852.973	4938
853.107	4870
853.242	4691
853.376	4618
853.511	4573
853.645	4599
853.78	4809
853.914	4698
854.048	4649
854.183	4618
854.317	4706
854.451	4843
854.585	4630
854.72	4618
854.854	4748
854.988	4626
855.122	4630
855.256	4527
855.39	4656
855.524	4778
855.658	4679
855.792	4691
855.926	4714
856.06	4790
856.194	4820
856.327	4668
856.461	4630
856.595	4618
856.729	4630
856.862	4755
856.996	4653
857.13	4706
857.263	4774
857.397	4828
857.53	4641
857.664	4706
857.797	4729
857.931	4790
858.064	4679
858.197	4736
858.331	4679
858.464	4607
858.597	4508
858.731	4641
858.864	4637
858.997	4546
859.13	4634
859.263	4645
859.396	4714
859.529	4558
859.662	4588
859.795	4538
859.928	4592
860.061	4706
860.194	4752
860.327	4550
860.46	4550
860.592	4691
860.725	4660
860.858	4744
860.99	4588
861.123	4497
861.256	4504
861.388	4611
861.521	5212
861.653	4508
861.786	4417
861.918	4436
862.05	4470
862.183	4538
862.315	4626
862.447	4649
862.58	4508
862.712	4413
862.844	4303
862.976	4455
863.108	4462
863.24	4870
863.372	4303
863.504	4402
863.636	4356
863.768	4497
863.9	4409
864.032	4356
864.164	4371
864.296	4459
864.428	4561
864.559	4516
864.691	4538
864.823	4504
864.954	4516
865.086	4497
865.217	4478
865.349	4379
865.48	4424
865.612	4504
865.743	4630
865.875	4447
866.006	4417
866.137	4409
866.269	4489
866.4	4474
866.531	4432
866.662	4398
866.793	4402
866.924	4375
867.055	4485
867.186	4493
867.317	4398
867.448	4383
867.579	4390
867.71	4390
867.841	4329
867.972	4485
868.103	4455
868.233	4516
868.364	4398
868.495	4497
868.625	4634
868.756	4744
868.886	4565
869.017	4672
869.147	4710
869.278	4767
869.408	4645
869.539	4649
869.669	4710
869.799	4660
869.929	4740
870.06	4710
870.19	4965
870.32	4881
870.45	4923
870.58	5006
870.71	5086
870.84	5071
870.97	4930
871.1	4908
871.23	5105
871.36	5086
871.489	5018
871.619	5064
871.749	5094
871.879	5071
872.008	5128
872.138	5071
872.267	4949
872.397	4858
872.526	4790
872.656	4717
872.785	4748
872.915	4927
873.044	4984
873.173	4866
873.303	4968
873.432	4946
873.561	4946
873.69	4824
873.819	4847
873.948	4881
874.077	4850
874.206	4755
874.335	4790
874.464	4892
874.593	5003
874.722	4896
874.851	5136
874.979	5022
875.108	4972
875.237	4866
875.365	4831
875.494	4877
875.623	4961
875.751	4790
875.88	4850
876.008	4949
876.136	4995
876.265	5254
876.393	5330
876.521	5204
876.65	5231
876.778	5121
876.906	5033
877.034	5022
877.162	5022
877.29	4976
877.418	5052
877.546	5010
877.674	5083
877.802	4961
877.93	4968
878.058	4942
878.185	4885
878.313	4942
878.441	4915
878.568	4847
878.696	4854
878.824	4934
878.951	4976
879.079	5098
879.206	5280
879.333	5155
879.461	4934
879.588	5003
879.715	5098
879.842	5212
879.97	5003
880.097	4793
880.224	4721
880.351	4786
880.478	4824
880.605	4816
880.732	4763
880.859	5060
880.986	4942
881.112	4885
881.239	4729
881.366	4637
881.493	4634
881.619	4607
881.746	4634
881.872	4702
881.999	4634
882.125	4691
882.252	4778
882.378	4828
882.505	4942
882.631	4801
882.757	4656
882.883	4740
883.01	4774
883.136	4645
883.262	4637
883.388	4599
883.514	4809
883.64	4850
883.766	4778
883.892	4683
884.018	4683
884.143	4877
884.269	4999
884.395	4664
884.52	4573
884.646	4634
884.772	4573
884.897	4596
885.023	4698
885.148	4782
885.274	4889
885.399	4778
885.524	4702
885.65	4694
885.775	4702
885.9	4649
886.025	4854
886.15	4812
886.275	4714
886.4	4626
886.525	4729
886.65	4706
886.775	4656
886.9	4915
887.025	5060
887.149	4774
887.274	4653
887.399	4580
887.523	4584
887.648	4546
887.773	4546
887.897	4755
888.021	4725
888.146	4668
888.27	4801
888.395	4908
888.519	4816
888.643	4816
888.767	4854
888.891	4672
889.015	4607
889.139	4615
889.263	4603
889.387	4778
889.511	4862
889.635	4805
889.759	4634
889.883	4607
890.006	4679
890.13	4820
890.254	4603
890.377	4691
890.501	4523
890.624	4527
890.748	4577
890.871	4527
890.995	4459
891.118	4413
891.241	4504
891.364	4569
891.488	4664
891.611	4466
891.734	4531
891.857	4596
891.98	4542
892.103	4649
892.226	4573
892.349	4588
892.471	4436
892.594	4527
892.717	4599
892.839	4599
892.962	4592
893.085	4630
893.207	4645
893.33	4413
893.452	4546
893.575	4679
893.697	4542
893.819	4797
893.941	4866
894.064	4694
894.186	4516
894.308	4580
894.43	4759
894.552	4824
894.674	4759
894.796	4550
894.918	4546
895.04	4565
895.161	4679
895.283	4649
895.405	4607
895.526	4580
895.648	4694
895.769	4740
895.891	4698
896.012	4763
896.134	4717
896.255	4641
896.376	4588
896.498	4622
896.619	4706
896.74	4592
896.861	4641
896.982	4915
897.103	5067
897.224	4820
897.345	4774
897.466	4691
897.587	4740
897.708	4870
897.828	4744
897.949	4637
898.07	4561
898.19	4588
898.311	4816
898.431	4687
898.552	4721
898.672	4797
898.792	4793
898.913	4736
899.033	4672
899.153	4504
899.273	4455
899.393	4527
899.513	4588
899.633	4500
899.753	4542
899.873	4504
899.993	4577
900.113	4542
900.232	4630
900.352	4554
900.472	4489
900.591	4405
900.711	4459
900.83	4436
900.95	4596
901.069	4672
901.189	4523
901.308	4367
901.427	4352
901.546	4424
901.665	4455
901.784	4516
901.904	4348
902.023	4333
902.141	4162
902.26	4147
902.379	4265
902.498	4219
902.617	4196
902.735	4386
902.854	4383
902.973	4333
903.091	4188
903.21	4227
903.328	4261
903.446	4234
903.565	4230
903.683	4352
903.801	4253
903.919	4421
904.038	4386
904.156	4325
904.274	4440
904.392	4390
904.51	4405
904.627	4485
904.745	4584
904.863	4596
904.981	4390
905.098	4322
905.216	4348
905.334	4413
905.451	4405
905.569	4466
905.686	4584
905.803	4523
905.921	4405
906.038	4500
906.155	4466
906.272	4390
906.389	4455
906.506	4341
906.623	4398
906.74	4405
906.857	4287
906.974	4341
907.091	4554
907.208	4675
907.324	4561
907.441	4489
907.557	4394
907.674	4348
907.79	4303
907.907	4356
908.023	4474
908.139	4508
908.256	4402
908.372	4478
908.488	4451
908.604	4329
908.72	4344
908.836	4356
908.952	4363
909.068	4363
909.184	4535
909.3	4455
909.415	4615
909.531	4558
909.647	4371
909.762	4379
909.878	4310
909.993	4394
910.108	4390
910.224	4436
910.339	4481
910.454	4363
910.57	4360
910.685	4333
910.8	4660
910.915	4569
911.03	4466
911.145	4360
911.259	4310
911.374	4310
911.489	4295
911.604	4249
911.718	4169
911.833	4173
911.947	4067
912.062	4036
912.176	4223
912.291	4162
912.405	4219
912.519	4459
912.633	4478
912.748	4356
912.862	4299
912.976	4192
913.09	4048
913.204	4150
913.318	4196
913.431	4337
913.545	4402
913.659	4409
913.772	4329
913.886	4211
914	4207
914.113	4352
914.226	4394
914.34	4417
914.453	4227
914.566	4436
914.68	4230
914.793	4306
914.906	4112
915.019	4143
915.132	4063
915.245	4166
915.358	4166
915.47	4185
915.583	4299
915.696	4261
915.809	4428
915.921	4424
916.034	4238
916.146	4257
916.259	4192
916.371	4360
916.483	4356
916.595	4272
916.708	4341
916.82	4322
916.932	4325
917.044	4303
917.156	4356
917.268	4238
917.38	4314
917.491	4268
917.603	4325
917.715	4432
917.826	4443
917.938	4333
918.049	4291
918.161	4443
918.272	4519
918.384	4508
918.495	4447
918.606	4280
918.717	4200
918.828	4356
918.939	4363
919.05	4242
919.161	4337
919.272	4101
919.383	4253
919.494	4390
919.604	4611
919.715	4409
919.826	4398
919.936	4360
920.047	4538
920.157	4481
920.267	4660
920.378	4508
920.488	4546
920.598	4649
920.708	4889
920.818	4767
920.928	4778
921.038	4949
921.148	4831
921.258	4630
921.368	4558
921.477	4512
921.587	4447
921.697	4363
921.806	4531
921.916	4428
922.025	4299
922.134	4280
922.244	4196
922.353	4325
922.462	4128
922.571	4124
922.68	4040
922.789	3926
922.898	4032
923.007	3991
923.116	4067
923.224	4078
923.333	4036
923.442	3979
923.55	3991
923.659	4048
923.767	4097
923.876	4021
923.984	4082
924.092	3991
924.201	4071
924.309	4078
924.417	4154
924.525	4051
924.633	4059
924.741	5022
924.849	3934
924.956	4112
925.064	3941
925.172	3888
925.279	3956
925.387	4002
925.494	4013
925.602	4204
925.709	4177
925.816	4021
925.924	4093
926.031	4238
926.138	4177
926.245	4196
926.352	4036
926.459	4227
926.566	4314
926.673	4166
926.779	4139
926.886	4051
926.993	3964
927.099	3956
927.206	3956
927.312	3937
927.419	4040
927.525	4017
927.631	4090
927.737	3956
927.843	3903
927.95	3816
928.056	3918
928.162	4010
928.267	4063
928.373	4694
928.479	4097
928.585	3884
928.69	3964
928.796	4059
928.901	3975
929.007	3831
929.112	4006
929.218	3983
929.323	3934
929.428	3926
929.533	4090
929.638	3888
929.743	3968
929.848	3998
929.953	3987
930.058	3964
930.163	3743
930.267	3816
930.372	3983
930.477	3778
930.581	4090
930.685	3934
930.79	3854
930.894	3869
930.998	3842
931.103	4044
931.207	3698
931.311	3698
931.415	3671
931.519	3511
931.623	3557
