Data from test_V78500241_1945.txt Node
Date: Fri Mar 25 17:02:31 CST 2022
User: usil
Spectrometer: V785-0024
Trigger mode: 0
Integration Time (sec): 4.000000E-1
Scans to average: 1
Nonlinearity correction enabled: false
Boxcar width: 0
Storing dark spectrum: false
XAxis mode: Wavelengths
Number of Pixels in Spectrum: 1024
>>>>>Begin Spectral Data<<<<<
801.071	8005
801.214	7947
801.356	7849
801.499	7811
801.641	7776
801.783	7772
801.926	7936
802.068	7932
802.211	7894
802.353	8012
802.496	7784
802.638	7803
802.78	7890
802.923	7902
803.065	7890
803.208	7818
803.35	7963
803.492	8119
803.635	8073
803.777	8024
803.919	8062
804.061	8385
804.204	8218
804.346	8115
804.488	7947
804.63	8035
804.773	8001
804.915	8153
805.057	8282
805.199	8119
805.341	8183
805.483	8240
805.626	8157
805.768	8107
805.91	8145
806.052	8183
806.194	8077
806.336	8313
806.478	8107
806.62	7974
806.762	8168
806.904	8256
807.046	8495
807.188	8286
807.33	8313
807.472	8355
807.614	8115
807.756	8130
807.898	7932
808.04	7898
808.182	7837
808.324	7860
808.465	7902
808.607	8035
808.749	8073
808.891	8195
809.033	8282
809.174	8134
809.316	8008
809.458	8103
809.6	7986
809.741	8031
809.883	7944
810.025	8153
810.166	7978
810.308	7982
810.45	8005
810.591	7807
810.733	7700
810.875	7620
811.016	7590
811.158	7407
811.299	7506
811.441	7655
811.582	7700
811.724	7540
811.865	7552
812.007	7567
812.148	7575
812.29	7605
812.431	7731
812.573	7818
812.714	7928
812.855	8065
812.997	8206
813.138	8267
813.279	8111
813.421	8020
813.562	7936
813.703	7776
813.845	7643
813.986	7419
814.127	7232
814.268	7259
814.41	7179
814.551	7232
814.692	7190
814.833	7080
814.974	7149
815.115	7107
815.256	6947
815.397	6859
815.539	6909
815.68	6783
815.821	6738
815.962	6787
816.103	6776
816.244	6646
816.385	6627
816.526	6620
816.666	6471
816.807	6258
816.948	6433
817.089	6475
817.23	6353
817.371	6334
817.512	6304
817.653	6388
817.793	6357
817.934	6308
818.075	6460
818.216	6433
818.356	6388
818.497	6232
818.638	6076
818.778	6133
818.919	6106
819.06	6144
819.2	6289
819.341	6327
819.481	6369
819.622	6471
819.762	6692
819.903	6662
820.043	6528
820.184	6578
820.324	6551
820.465	6669
820.605	6703
820.746	6608
820.886	6483
821.026	6654
821.167	6688
821.307	6844
821.447	6722
821.588	6589
821.728	6555
821.868	6521
822.008	6266
822.149	6304
822.289	6311
822.429	6091
822.569	6102
822.709	6079
822.849	5901
822.99	5893
823.13	5893
823.27	5901
823.41	5771
823.55	5733
823.69	5726
823.83	5752
823.97	5634
824.11	5524
824.25	5493
824.389	5562
824.529	5558
824.669	5528
824.809	5634
824.949	5665
825.089	5627
825.228	5532
825.368	5383
825.508	5349
825.648	5417
825.787	5440
825.927	5425
826.067	5330
826.206	5292
826.346	5357
826.485	5421
826.625	5364
826.765	5528
826.904	5509
827.044	5280
827.183	5216
827.323	5140
827.462	5296
827.601	5170
827.741	5193
827.88	5223
828.02	5128
828.159	5258
828.298	5341
828.437	5395
828.577	5273
828.716	5467
828.855	5349
828.994	5204
829.134	5201
829.273	5239
829.412	5159
829.551	5162
829.69	5193
829.829	5242
829.968	5486
830.107	5265
830.246	5334
830.385	5227
830.524	5212
830.663	5086
830.802	5022
830.941	4881
831.08	4885
831.219	4968
831.357	5006
831.496	5155
831.635	4934
831.774	4870
831.913	4889
832.051	4774
832.19	4763
832.329	4862
832.467	4706
832.606	4710
832.744	4786
832.883	4763
833.022	4744
833.16	4839
833.299	4862
833.437	4843
833.576	4824
833.714	4889
833.852	4900
833.991	4885
834.129	4946
834.267	4991
834.406	4915
834.544	5025
834.682	4987
834.821	5010
834.959	5223
835.097	4995
835.235	5117
835.373	5128
835.511	5143
835.65	5041
835.788	5071
835.926	4972
836.064	4881
836.202	4949
836.34	5162
836.478	5227
836.615	5181
836.753	5246
836.891	5322
837.029	5265
837.167	5220
837.305	5220
837.443	5166
837.58	5178
837.718	5284
837.856	5258
837.993	5159
838.131	5265
838.269	5250
838.406	5223
838.544	5197
838.681	5075
838.819	5052
838.956	4843
839.094	4949
839.231	4991
839.369	5083
839.506	5440
839.643	5265
839.781	5079
839.918	5029
840.055	5094
840.193	5151
840.33	5143
840.467	5166
840.604	5185
840.742	5436
840.879	5136
841.016	5151
841.153	5204
841.29	5383
841.427	5334
841.564	5360
841.701	5387
841.838	5280
841.975	5296
842.112	5296
842.249	5197
842.385	5121
842.522	5406
842.659	5193
842.796	5174
842.933	5197
843.069	5178
843.206	5220
843.343	5315
843.479	5261
843.616	5315
843.752	5090
843.889	5075
844.025	5265
844.162	5037
844.298	5277
844.435	5060
844.571	5029
844.708	5212
844.844	5307
844.98	5357
845.117	5318
845.253	5151
845.389	5178
845.525	5204
845.661	5151
845.798	5094
845.934	5143
846.07	5143
846.206	5250
846.342	5273
846.478	5239
846.614	5067
846.75	4976
846.886	4991
847.022	5147
847.158	5048
847.294	5025
847.429	5105
847.565	5094
847.701	5364
847.837	4877
847.972	4843
848.108	4938
848.244	4968
848.379	4752
848.515	4744
848.65	4774
848.786	4767
848.921	4850
849.057	4896
849.192	4923
849.328	4831
849.463	4858
849.598	4873
849.734	4763
849.869	4740
850.004	4637
850.14	4725
850.275	4626
850.41	4561
850.545	4656
850.68	4649
850.815	4653
850.95	4675
851.085	4866
851.22	4786
851.355	4687
851.49	4656
851.625	4675
851.76	4634
851.895	4615
852.03	4504
852.165	4683
852.299	4725
852.434	4854
852.569	4782
852.703	4797
852.838	4915
852.973	4976
853.107	4923
853.242	4790
853.376	4694
853.511	4550
853.645	4637
853.78	4816
853.914	4748
854.048	4748
854.183	4694
854.317	4740
854.451	4858
854.585	4702
854.72	4687
854.854	4767
854.988	4630
855.122	4660
855.256	4519
855.39	4645
855.524	4835
855.658	4721
855.792	4717
855.926	4740
856.06	4782
856.194	4847
856.327	4710
856.461	4664
856.595	4679
856.729	4687
856.862	4816
856.996	4717
857.13	4767
857.263	4801
857.397	4805
857.53	4668
857.664	4755
857.797	4740
857.931	4828
858.064	4683
858.197	4740
858.331	4694
858.464	4637
858.597	4607
858.731	4645
858.864	4645
858.997	4626
859.13	4679
859.263	4664
859.396	4714
859.529	4611
859.662	4573
859.795	4561
859.928	4637
860.061	4831
860.194	4748
860.327	4649
860.46	4630
860.592	4759
860.725	4717
860.858	4801
860.99	4622
861.123	4542
861.256	4516
861.388	4630
861.521	5318
861.653	4512
861.786	4485
861.918	4512
862.05	4561
862.183	4569
862.315	4584
862.447	4679
862.58	4577
862.712	4405
862.844	4337
862.976	4466
863.108	4519
863.24	4778
863.372	4405
863.504	4436
863.636	4462
863.768	4474
863.9	4470
864.032	4383
864.164	4470
864.296	4485
864.428	4622
864.559	4573
864.691	4565
864.823	4516
864.954	4550
865.086	4558
865.217	4455
865.349	4451
865.48	4443
865.612	4493
865.743	4592
865.875	4481
866.006	4436
866.137	4447
866.269	4508
866.4	4459
866.531	4470
866.662	4474
866.793	4462
866.924	4428
867.055	4516
867.186	4455
867.317	4462
867.448	4390
867.579	4459
867.71	4379
867.841	4402
867.972	4493
868.103	4512
868.233	4504
868.364	4500
868.495	4478
868.625	4675
868.756	4744
868.886	4645
869.017	4672
869.147	4801
869.278	4820
869.408	4706
869.539	4679
869.669	4675
869.799	4664
869.929	4820
870.06	4740
870.19	4965
870.32	4976
870.45	5033
870.58	5029
870.71	5162
870.84	5162
870.97	4930
871.1	4900
871.23	5162
871.36	5166
871.489	5022
871.619	5067
871.749	5075
871.879	5143
872.008	5216
872.138	5056
872.267	5010
872.397	4877
872.526	4816
872.656	4771
872.785	4820
872.915	4968
873.044	5052
873.173	4934
873.303	4999
873.432	5022
873.561	4972
873.69	4919
873.819	4873
873.948	4946
874.077	4866
874.206	4812
874.335	4839
874.464	4995
874.593	5105
874.722	4934
874.851	5079
874.979	5079
875.108	5102
875.237	4942
875.365	4847
875.494	4919
875.623	4995
875.751	4824
875.88	4938
876.008	5014
876.136	5048
876.265	5178
876.393	5383
876.521	5254
876.65	5258
876.778	5185
876.906	5136
877.034	5056
877.162	5052
877.29	5022
877.418	5105
877.546	5056
877.674	5067
877.802	5003
877.93	5086
878.058	4923
878.185	4904
878.313	4999
878.441	4923
878.568	4828
878.696	4873
878.824	5029
878.951	4961
879.079	5193
879.206	5261
879.333	5128
879.461	4999
879.588	4987
879.715	5098
879.842	5220
879.97	5041
880.097	4820
880.224	4740
880.351	4816
880.478	4847
880.605	4790
880.732	4809
880.859	5079
880.986	4949
881.112	4946
881.239	4790
881.366	4694
881.493	4607
881.619	4611
881.746	4656
881.872	4668
881.999	4679
882.125	4714
882.252	4835
882.378	4862
882.505	4999
882.631	4771
882.757	4694
882.883	4721
883.01	4763
883.136	4694
883.262	4577
883.388	4641
883.514	4824
883.64	4862
883.766	4843
883.892	4679
884.018	4706
884.143	4923
884.269	5006
884.395	4687
884.52	4672
884.646	4687
884.772	4622
884.897	4546
885.023	4649
885.148	4805
885.274	4877
885.399	4820
885.524	4729
885.65	4664
885.775	4694
885.9	4710
886.025	4885
886.15	4790
886.275	4717
886.4	4706
886.525	4763
886.65	4683
886.775	4702
886.9	4946
887.025	5056
887.149	4839
887.274	4664
887.399	4596
887.523	4626
887.648	4588
887.773	4592
887.897	4790
888.021	4763
888.146	4698
888.27	4835
888.395	4835
888.519	4782
888.643	4820
888.767	4831
888.891	4698
889.015	4626
889.139	4679
889.263	4615
889.387	4748
889.511	4889
889.635	4820
889.759	4656
889.883	4694
890.006	4771
890.13	4858
890.254	4618
890.377	4702
890.501	4550
890.624	4538
890.748	4622
890.871	4500
890.995	4440
891.118	4424
891.241	4546
891.364	4527
891.488	4622
891.611	4516
891.734	4542
891.857	4577
891.98	4599
892.103	4645
892.226	4603
892.349	4535
892.471	4459
892.594	4561
892.717	4622
892.839	4584
892.962	4580
893.085	4710
893.207	4607
893.33	4508
893.452	4542
893.575	4668
893.697	4634
893.819	4755
893.941	4816
894.064	4801
894.186	4596
894.308	4596
894.43	4710
894.552	4843
894.674	4782
894.796	4565
894.918	4626
895.04	4580
895.161	4717
895.283	4694
895.405	4569
895.526	4694
895.648	4675
895.769	4645
895.891	4702
896.012	4740
896.134	4729
896.255	4698
896.376	4611
896.498	4637
896.619	4675
896.74	4664
896.861	4626
896.982	4881
897.103	5079
897.224	4839
897.345	4820
897.466	4649
897.587	4698
897.708	4850
897.828	4729
897.949	4653
898.07	4615
898.19	4656
898.311	4778
898.431	4717
898.552	4755
898.672	4778
898.792	4790
898.913	4702
899.033	4611
899.153	4493
899.273	4390
899.393	4497
899.513	4481
899.633	4538
899.753	4580
899.873	4497
899.993	4527
900.113	4497
900.232	4637
900.352	4573
900.472	4527
900.591	4413
900.711	4508
900.83	4417
900.95	4611
901.069	4679
901.189	4546
901.308	4341
901.427	4318
901.546	4379
901.665	4459
901.784	4493
901.904	4409
902.023	4325
902.141	4192
902.26	4154
902.379	4329
902.498	4234
902.617	4246
902.735	4398
902.854	4428
902.973	4322
903.091	4211
903.21	4268
903.328	4348
903.446	4272
903.565	4306
903.683	4344
903.801	4284
903.919	4402
904.038	4508
904.156	4375
904.274	4500
904.392	4413
904.51	4474
904.627	4493
904.745	4622
904.863	4687
904.981	4447
905.098	4356
905.216	4363
905.334	4462
905.451	4466
905.569	4447
905.686	4656
905.803	4596
905.921	4470
906.038	4550
906.155	4508
906.272	4440
906.389	4535
906.506	4413
906.623	4405
906.74	4443
906.857	4383
906.974	4436
907.091	4550
907.208	4714
907.324	4611
907.441	4546
907.557	4383
907.674	4398
907.79	4413
907.907	4402
908.023	4561
908.139	4523
908.256	4485
908.372	4519
908.488	4451
908.604	4383
908.72	4363
908.836	4428
908.952	4421
909.068	4481
909.184	4603
909.3	4508
909.415	4622
909.531	4577
909.647	4432
909.762	4398
909.878	4360
909.993	4523
910.108	4466
910.224	4440
910.339	4527
910.454	4413
910.57	4421
910.685	4379
910.8	4714
910.915	4649
911.03	4546
911.145	4390
911.259	4386
911.374	4455
911.489	4322
911.604	4310
911.718	4234
911.833	4223
911.947	4116
912.062	4071
912.176	4265
912.291	4325
912.405	4280
912.519	4481
912.633	4561
912.748	4424
912.862	4375
912.976	4253
913.09	4154
913.204	4227
913.318	4253
913.431	4405
913.545	4402
913.659	4462
913.772	4398
913.886	4257
914	4295
914.113	4398
914.226	4455
914.34	4455
914.453	4284
914.566	4455
914.68	4367
914.793	4341
914.906	4185
915.019	4116
915.132	4131
915.245	4227
915.358	4257
915.47	4287
915.583	4287
915.696	4303
915.809	4451
915.921	4462
916.034	4272
916.146	4276
916.259	4299
916.371	4405
916.483	4383
916.595	4295
916.708	4371
916.82	4394
916.932	4329
917.044	4333
917.156	4409
917.268	4230
917.38	4265
917.491	4276
917.603	4398
917.715	4500
917.826	4436
917.938	4386
918.049	4287
918.161	4481
918.272	4565
918.384	4561
918.495	4550
918.606	4367
918.717	4261
918.828	4363
918.939	4409
919.05	4337
919.161	4333
919.272	4169
919.383	4238
919.494	4455
919.604	4630
919.715	4481
919.826	4379
919.936	4455
920.047	4561
920.157	4519
920.267	4721
920.378	4561
920.488	4538
920.598	4763
920.708	4911
920.818	4820
920.928	4771
921.038	4991
921.148	4965
921.258	4664
921.368	4565
921.477	4535
921.587	4500
921.697	4405
921.806	4588
921.916	4424
922.025	4299
922.134	4310
922.244	4261
922.353	4306
922.462	4211
922.571	4177
922.68	4040
922.789	3994
922.898	4063
923.007	4013
923.116	4112
923.224	4074
923.333	4112
923.442	4036
923.55	4002
923.659	4067
923.767	4150
923.876	4025
923.984	4139
924.092	4040
924.201	4074
924.309	4116
924.417	4162
924.525	4143
924.633	4135
924.741	5086
924.849	3930
924.956	4147
925.064	4025
925.172	3972
925.279	4013
925.387	4067
925.494	4071
925.602	4230
925.709	4200
925.816	4055
925.924	4116
926.031	4268
926.138	4230
926.245	4253
926.352	4154
926.459	4272
926.566	4310
926.673	4166
926.779	4158
926.886	4109
926.993	3972
927.099	4017
927.206	3987
927.312	3998
927.419	4090
927.525	4063
927.631	4116
927.737	4021
927.843	3949
927.95	3896
928.056	3930
928.162	4021
928.267	4109
928.373	4592
928.479	4124
928.585	3930
928.69	4032
928.796	4051
928.901	4006
929.007	3865
929.112	4029
929.218	4021
929.323	3960
929.428	3960
929.533	4120
929.638	3934
929.743	3956
929.848	4059
929.953	4025
930.058	3979
930.163	3842
930.267	3892
930.372	3991
930.477	3804
930.581	4135
930.685	3983
930.79	3873
930.894	3926
930.998	3926
931.103	4063
931.207	3717
931.311	3709
931.415	3720
931.519	3538
931.623	3595
