Data from test_V78500241_213.txt Node
Date: Fri Mar 25 16:50:29 CST 2022
User: usil
Spectrometer: V785-0024
Trigger mode: 0
Integration Time (sec): 4.000000E-1
Scans to average: 1
Nonlinearity correction enabled: false
Boxcar width: 0
Storing dark spectrum: false
XAxis mode: Wavelengths
Number of Pixels in Spectrum: 1024
>>>>>Begin Spectral Data<<<<<
801.071	8031
801.214	7986
801.356	7913
801.499	7833
801.641	7799
801.783	7864
801.926	8027
802.068	8016
802.211	7967
802.353	7993
802.496	7906
802.638	7917
802.78	7959
802.923	7925
803.065	7898
803.208	7837
803.35	8001
803.492	8103
803.635	8149
803.777	8039
803.919	8073
804.061	8389
804.204	8138
804.346	8050
804.488	7913
804.63	8065
804.773	8024
804.915	8103
805.057	8275
805.199	8134
805.341	8161
805.483	8248
805.626	8263
805.768	8111
805.91	8187
806.052	8199
806.194	8081
806.336	8294
806.478	8024
806.62	8065
806.762	8130
806.904	8183
807.046	8434
807.188	8267
807.33	8328
807.472	8259
807.614	8123
807.756	8164
807.898	7940
808.04	7917
808.182	7970
808.324	7890
808.465	7978
808.607	8012
808.749	8103
808.891	8252
809.033	8313
809.174	8206
809.316	8092
809.458	8126
809.6	7944
809.741	7986
809.883	8062
810.025	8115
810.166	8115
810.308	8043
810.45	7974
810.591	7955
810.733	7780
810.875	7685
811.016	7567
811.158	7518
811.299	7639
811.441	7723
811.582	7655
811.724	7575
811.865	7582
812.007	7651
812.148	7620
812.29	7658
812.431	7746
812.573	7944
812.714	8020
812.855	8199
812.997	8279
813.138	8267
813.279	8180
813.421	8168
813.562	8020
813.703	7826
813.845	7792
813.986	7495
814.127	7289
814.268	7221
814.41	7293
814.551	7209
814.692	7217
814.833	7145
814.974	7122
815.115	7164
815.256	6962
815.397	6996
815.539	7000
815.68	6848
815.821	6779
815.962	6814
816.103	6753
816.244	6722
816.385	6669
816.526	6646
816.666	6521
816.807	6289
816.948	6471
817.089	6483
817.23	6460
817.371	6350
817.512	6353
817.653	6437
817.793	6323
817.934	6437
818.075	6467
818.216	6467
818.356	6445
818.497	6270
818.638	6041
818.778	6091
818.919	6091
819.06	6136
819.2	6311
819.341	6273
819.481	6365
819.622	6532
819.762	6741
819.903	6722
820.043	6525
820.184	6502
820.324	6601
820.465	6665
820.605	6585
820.746	6601
820.886	6452
821.026	6669
821.167	6700
821.307	6757
821.447	6757
821.588	6639
821.728	6616
821.868	6532
822.008	6319
822.149	6361
822.289	6376
822.429	6163
822.569	6079
822.709	6171
822.849	5961
822.99	5912
823.13	5912
823.27	5885
823.41	5798
823.55	5802
823.69	5813
823.83	5771
823.97	5661
824.11	5524
824.25	5562
824.389	5566
824.529	5562
824.669	5509
824.809	5657
824.949	5703
825.089	5661
825.228	5535
825.368	5414
825.508	5353
825.648	5318
825.787	5395
825.927	5364
826.067	5368
826.206	5326
826.346	5345
826.485	5417
826.625	5471
826.765	5524
826.904	5497
827.044	5235
827.183	5296
827.323	5124
827.462	5292
827.601	5193
827.741	5223
827.88	5235
828.02	5132
828.159	5265
828.298	5299
828.437	5433
828.577	5311
828.716	5516
828.855	5307
828.994	5159
829.134	5189
829.273	5231
829.412	5162
829.551	5094
829.69	5193
829.829	5212
829.968	5326
830.107	5254
830.246	5201
830.385	5170
830.524	5170
830.663	5052
830.802	4942
830.941	4908
831.08	4889
831.219	4946
831.357	4957
831.496	5159
831.635	4946
831.774	4877
831.913	4820
832.051	4733
832.19	4714
832.329	4896
832.467	4660
832.606	4675
832.744	4725
832.883	4790
833.022	4778
833.16	4812
833.299	4828
833.437	4866
833.576	4805
833.714	4858
833.852	4885
833.991	4858
834.129	4972
834.267	4961
834.406	4953
834.544	5014
834.682	5014
834.821	4968
834.959	5181
835.097	5018
835.235	5117
835.373	5052
835.511	5037
835.65	5045
835.788	4984
835.926	4938
836.064	4919
836.202	4919
836.34	5162
836.478	5197
836.615	5128
836.753	5220
836.891	5303
837.029	5235
837.167	5189
837.305	5246
837.443	5136
837.58	5086
837.718	5227
837.856	5174
837.993	5216
838.131	5292
838.269	5258
838.406	5250
838.544	5147
838.681	5018
838.819	5010
838.956	4904
839.094	4904
839.231	4976
839.369	5117
839.506	5410
839.643	5220
839.781	5048
839.918	4976
840.055	5109
840.193	5109
840.33	5086
840.467	5166
840.604	5235
840.742	5421
840.879	5102
841.016	5075
841.153	5170
841.29	5410
841.427	5349
841.564	5330
841.701	5353
841.838	5277
841.975	5269
842.112	5265
842.249	5193
842.385	5090
842.522	5345
842.659	5151
842.796	5201
842.933	5258
843.069	5193
843.206	5212
843.343	5315
843.479	5261
843.616	5261
843.752	5029
843.889	5025
844.025	5250
844.162	5098
844.298	5201
844.435	5094
844.571	5067
844.708	5189
844.844	5349
844.98	5318
845.117	5280
845.253	5136
845.389	5121
845.525	5147
845.661	5136
845.798	5064
845.934	5178
846.07	5064
846.206	5223
846.342	5311
846.478	5166
846.614	5045
846.75	5048
846.886	4965
847.022	5136
847.158	5041
847.294	5075
847.429	5064
847.565	5045
847.701	5360
847.837	4820
847.972	4801
848.108	4965
848.244	5006
848.379	4843
848.515	4786
848.65	4660
848.786	4755
848.921	4763
849.057	4900
849.192	4930
849.328	4793
849.463	4896
849.598	4866
849.734	4816
849.869	4733
850.004	4649
850.14	4683
850.275	4637
850.41	4531
850.545	4637
850.68	4618
850.815	4656
850.95	4634
851.085	4831
851.22	4782
851.355	4683
851.49	4622
851.625	4653
851.76	4710
851.895	4580
852.03	4542
852.165	4672
852.299	4733
852.434	4782
852.569	4755
852.703	4752
852.838	4839
852.973	4942
853.107	4892
853.242	4755
853.376	4694
853.511	4584
853.645	4668
853.78	4809
853.914	4717
854.048	4683
854.183	4710
854.317	4672
854.451	4866
854.585	4698
854.72	4687
854.854	4774
854.988	4634
855.122	4679
855.256	4478
855.39	4687
855.524	4816
855.658	4702
855.792	4698
855.926	4717
856.06	4793
856.194	4824
856.327	4763
856.461	4626
856.595	4656
856.729	4611
856.862	4736
856.996	4717
857.13	4725
857.263	4786
857.397	4755
857.53	4607
857.664	4755
857.797	4801
857.931	4793
858.064	4691
858.197	4740
858.331	4675
858.464	4622
858.597	4538
858.731	4641
858.864	4660
858.997	4577
859.13	4687
859.263	4675
859.396	4679
859.529	4611
859.662	4653
859.795	4580
859.928	4656
860.061	4755
860.194	4759
860.327	4596
860.46	4599
860.592	4694
860.725	4721
860.858	4721
860.99	4596
861.123	4508
861.256	4523
861.388	4622
861.521	5322
861.653	4512
861.786	4398
861.918	4462
862.05	4500
862.183	4550
862.315	4580
862.447	4649
862.58	4596
862.712	4383
862.844	4344
862.976	4478
863.108	4481
863.24	4892
863.372	4329
863.504	4459
863.636	4413
863.768	4519
863.9	4478
864.032	4367
864.164	4405
864.296	4470
864.428	4599
864.559	4538
864.691	4561
864.823	4542
864.954	4500
865.086	4542
865.217	4489
865.349	4417
865.48	4451
865.612	4493
865.743	4645
865.875	4447
866.006	4455
866.137	4523
866.269	4424
866.4	4421
866.531	4421
866.662	4394
866.793	4447
866.924	4424
867.055	4523
867.186	4485
867.317	4447
867.448	4424
867.579	4409
867.71	4413
867.841	4383
867.972	4527
868.103	4466
868.233	4451
868.364	4462
868.495	4489
868.625	4694
868.756	4771
868.886	4573
869.017	4596
869.147	4790
869.278	4755
869.408	4675
869.539	4698
869.669	4706
869.799	4675
869.929	4816
870.06	4687
870.19	4942
870.32	4892
870.45	4968
870.58	4965
870.71	5151
870.84	5071
870.97	4953
871.1	4934
871.23	5178
871.36	5212
871.489	5029
871.619	5090
871.749	5121
871.879	5132
872.008	5212
872.138	5041
872.267	4968
872.397	4919
872.526	4820
872.656	4706
872.785	4835
872.915	4957
873.044	5056
873.173	4980
873.303	4999
873.432	5003
873.561	4949
873.69	4889
873.819	4896
873.948	4877
874.077	4809
874.206	4774
874.335	4843
874.464	4942
874.593	5045
874.722	4938
874.851	5083
874.979	5033
875.108	5060
875.237	4911
875.365	4873
875.494	4908
875.623	5025
875.751	4835
875.88	4866
876.008	5006
876.136	4999
876.265	5212
876.393	5353
876.521	5299
876.65	5223
876.778	5117
876.906	5064
877.034	5003
877.162	5048
877.29	5052
877.418	5052
877.546	5025
877.674	5041
877.802	5071
877.93	5045
878.058	4976
878.185	4900
878.313	4957
878.441	4991
878.568	4850
878.696	4854
878.824	4987
878.951	5014
879.079	5094
879.206	5261
879.333	5109
879.461	4972
879.588	4976
879.715	5143
879.842	5235
879.97	4976
880.097	4801
880.224	4717
880.351	4767
880.478	4812
880.605	4824
880.732	4816
880.859	5124
880.986	4900
881.112	4934
881.239	4771
881.366	4702
881.493	4656
881.619	4615
881.746	4672
881.872	4691
881.999	4630
882.125	4717
882.252	4801
882.378	4820
882.505	4987
882.631	4748
882.757	4664
882.883	4790
883.01	4698
883.136	4687
883.262	4618
883.388	4588
883.514	4889
883.64	4862
883.766	4835
883.892	4691
884.018	4740
884.143	4915
884.269	5018
884.395	4668
884.52	4611
884.646	4649
884.772	4607
884.897	4512
885.023	4634
885.148	4805
885.274	4885
885.399	4809
885.524	4706
885.65	4706
885.775	4763
885.9	4675
886.025	4892
886.15	4793
886.275	4721
886.4	4653
886.525	4721
886.65	4645
886.775	4702
886.9	4881
887.025	5022
887.149	4820
887.274	4653
887.399	4584
887.523	4630
887.648	4592
887.773	4603
887.897	4793
888.021	4801
888.146	4698
888.27	4831
888.395	4915
888.519	4828
888.643	4816
888.767	4850
888.891	4675
889.015	4660
889.139	4641
889.263	4618
889.387	4793
889.511	4877
889.635	4801
889.759	4679
889.883	4653
890.006	4698
890.13	4835
890.254	4626
890.377	4672
890.501	4508
890.624	4512
890.748	4603
890.871	4531
890.995	4447
891.118	4409
891.241	4561
891.364	4542
891.488	4645
891.611	4485
891.734	4527
891.857	4618
891.98	4554
892.103	4611
892.226	4603
892.349	4523
892.471	4432
892.594	4596
892.717	4656
892.839	4558
892.962	4611
893.085	4702
893.207	4569
893.33	4481
893.452	4500
893.575	4672
893.697	4569
893.819	4801
893.941	4839
894.064	4778
894.186	4542
894.308	4561
894.43	4752
894.552	4858
894.674	4759
894.796	4561
894.918	4611
895.04	4622
895.161	4694
895.283	4649
895.405	4603
895.526	4615
895.648	4653
895.769	4687
895.891	4729
896.012	4729
896.134	4767
896.255	4656
896.376	4660
896.498	4630
896.619	4687
896.74	4645
896.861	4698
896.982	4927
897.103	5117
897.224	4847
897.345	4740
897.466	4672
897.587	4778
897.708	4831
897.828	4790
897.949	4687
898.07	4550
898.19	4660
898.311	4831
898.431	4664
898.552	4717
898.672	4805
898.792	4805
898.913	4782
899.033	4634
899.153	4508
899.273	4447
899.393	4500
899.513	4550
899.633	4538
899.753	4561
899.873	4523
899.993	4611
900.113	4519
900.232	4588
900.352	4580
900.472	4527
900.591	4405
900.711	4538
900.83	4421
900.95	4580
901.069	4698
901.189	4565
901.308	4409
901.427	4348
901.546	4367
901.665	4504
901.784	4500
901.904	4394
902.023	4356
902.141	4192
902.26	4173
902.379	4299
902.498	4257
902.617	4207
902.735	4417
902.854	4413
902.973	4363
903.091	4230
903.21	4215
903.328	4329
903.446	4272
903.565	4284
903.683	4341
903.801	4303
903.919	4375
904.038	4436
904.156	4287
904.274	4474
904.392	4383
904.51	4424
904.627	4474
904.745	4615
904.863	4694
904.981	4451
905.098	4287
905.216	4367
905.334	4390
905.451	4428
905.569	4421
905.686	4519
905.803	4565
905.921	4432
906.038	4538
906.155	4466
906.272	4402
906.389	4455
906.506	4360
906.623	4417
906.74	4402
906.857	4295
906.974	4363
907.091	4569
907.208	4698
907.324	4584
907.441	4519
907.557	4306
907.674	4367
907.79	4303
907.907	4413
908.023	4474
908.139	4478
908.256	4489
908.372	4459
908.488	4436
908.604	4375
908.72	4314
908.836	4436
908.952	4379
909.068	4432
909.184	4596
909.3	4470
909.415	4588
909.531	4607
909.647	4363
909.762	4352
909.878	4325
909.993	4470
910.108	4386
910.224	4405
910.339	4489
910.454	4394
910.57	4333
910.685	4299
910.8	4641
910.915	4596
911.03	4485
911.145	4341
911.259	4329
911.374	4405
911.489	4306
911.604	4306
911.718	4196
911.833	4223
911.947	4082
912.062	4025
912.176	4207
912.291	4185
912.405	4287
912.519	4470
912.633	4531
912.748	4333
912.862	4284
912.976	4200
913.09	4128
913.204	4169
913.318	4207
913.431	4398
913.545	4402
913.659	4478
913.772	4390
913.886	4227
914	4234
914.113	4394
914.226	4417
914.34	4409
914.453	4249
914.566	4443
914.68	4360
914.793	4356
914.906	4139
915.019	4116
915.132	4093
915.245	4185
915.358	4211
915.47	4223
915.583	4280
915.696	4295
915.809	4424
915.921	4466
916.034	4223
916.146	4295
916.259	4185
916.371	4367
916.483	4356
916.595	4268
916.708	4299
916.82	4337
916.932	4303
917.044	4341
917.156	4268
917.268	4280
917.38	4272
917.491	4280
917.603	4375
917.715	4466
917.826	4481
917.938	4402
918.049	4253
918.161	4436
918.272	4561
918.384	4592
918.495	4451
918.606	4291
918.717	4238
918.828	4337
918.939	4360
919.05	4230
919.161	4329
919.272	4181
919.383	4257
919.494	4462
919.604	4641
919.715	4409
919.826	4329
919.936	4383
920.047	4592
920.157	4523
920.267	4714
920.378	4542
920.488	4489
920.598	4706
920.708	4908
920.818	4797
920.928	4755
921.038	4949
921.148	4927
921.258	4615
921.368	4588
921.477	4538
921.587	4497
921.697	4424
921.806	4542
921.916	4474
922.025	4284
922.134	4284
922.244	4261
922.353	4367
922.462	4158
922.571	4158
922.68	4036
922.789	3987
922.898	4055
923.007	4025
923.116	4078
923.224	4032
923.333	4128
923.442	4021
923.55	3998
923.659	3991
923.767	4128
923.876	4010
923.984	4097
924.092	4025
924.201	4078
924.309	4131
924.417	4120
924.525	4097
924.633	4131
924.741	5025
924.849	3949
924.956	4101
925.064	3964
925.172	3888
925.279	3979
925.387	4055
925.494	4013
925.602	4219
925.709	4169
925.816	3998
925.924	4128
926.031	4280
926.138	4124
926.245	4253
926.352	4086
926.459	4310
926.566	4341
926.673	4128
926.779	4124
926.886	4059
926.993	3964
927.099	3972
927.206	3964
927.312	3949
927.419	4101
927.525	4086
927.631	4131
927.737	4006
927.843	3953
927.95	3800
928.056	3975
928.162	3983
928.267	4067
928.373	4675
928.479	4131
928.585	3880
928.69	4021
928.796	4090
928.901	4006
929.007	3876
929.112	4010
929.218	4036
929.323	3937
929.428	3937
929.533	4112
929.638	3903
929.743	3983
929.848	4067
929.953	3998
930.058	3926
930.163	3743
930.267	3884
930.372	4013
930.477	3800
930.581	4101
930.685	3949
930.79	3808
930.894	3915
930.998	3846
931.103	4013
931.207	3732
931.311	3690
931.415	3686
931.519	3515
931.623	3561
