Data from test_V78500241_41.txt Node
Date: Fri Mar 25 16:49:17 CST 2022
User: usil
Spectrometer: V785-0024
Trigger mode: 0
Integration Time (sec): 4.000000E-1
Scans to average: 1
Nonlinearity correction enabled: false
Boxcar width: 0
Storing dark spectrum: false
XAxis mode: Wavelengths
Number of Pixels in Spectrum: 1024
>>>>>Begin Spectral Data<<<<<
801.071	8005
801.214	8142
801.356	8069
801.499	7951
801.641	7917
801.783	7875
801.926	8050
802.068	8008
802.211	8103
802.353	8073
802.496	7974
802.638	7967
802.78	8031
802.923	8020
803.065	7928
803.208	7871
803.35	8069
803.492	8145
803.635	8191
803.777	8027
803.919	8134
804.061	8469
804.204	8191
804.346	8119
804.488	7986
804.63	8126
804.773	8035
804.915	8092
805.057	8320
805.199	8225
805.341	8301
805.483	8328
805.626	8271
805.768	8237
805.91	8275
806.052	8355
806.194	8214
806.336	8328
806.478	8183
806.62	8164
806.762	8206
806.904	8339
807.046	8438
807.188	8473
807.33	8317
807.472	8381
807.614	8267
807.756	8221
807.898	8069
808.04	8001
808.182	7959
808.324	7932
808.465	7936
808.607	8142
808.749	8111
808.891	8221
809.033	8259
809.174	8187
809.316	8134
809.458	8077
809.6	7982
809.741	8024
809.883	8058
810.025	8069
810.166	8077
810.308	8065
810.45	8077
810.591	7868
810.733	7769
810.875	7712
811.016	7632
811.158	7495
811.299	7677
811.441	7818
811.582	7742
811.724	7620
811.865	7483
812.007	7632
812.148	7620
812.29	7658
812.431	7822
812.573	7917
812.714	7982
812.855	8221
812.997	8301
813.138	8355
813.279	8176
813.421	8073
813.562	8092
813.703	7902
813.845	7788
813.986	7460
814.127	7331
814.268	7293
814.41	7236
814.551	7228
814.692	7274
814.833	7164
814.974	7141
815.115	7133
815.256	7015
815.397	6981
815.539	6977
815.68	6859
815.821	6791
815.962	6863
816.103	6825
816.244	6734
816.385	6646
816.526	6719
816.666	6513
816.807	6372
816.948	6566
817.089	6521
817.23	6460
817.371	6429
817.512	6388
817.653	6407
817.793	6388
817.934	6429
818.075	6551
818.216	6528
818.356	6460
818.497	6285
818.638	6133
818.778	6201
818.919	6254
819.06	6201
819.2	6433
819.341	6414
819.481	6426
819.622	6604
819.762	6859
819.903	6772
820.043	6677
820.184	6604
820.324	6646
820.465	6753
820.605	6677
820.746	6688
820.886	6578
821.026	6825
821.167	6719
821.307	6871
821.447	6844
821.588	6673
821.728	6681
821.868	6578
822.008	6426
822.149	6429
822.289	6433
822.429	6281
822.569	6152
822.709	6163
822.849	6038
822.99	5965
823.13	5992
823.27	6003
823.41	5840
823.55	5863
823.69	5824
823.83	5870
823.97	5729
824.11	5638
824.25	5600
824.389	5672
824.529	5608
824.669	5592
824.809	5745
824.949	5703
825.089	5668
825.228	5665
825.368	5524
825.508	5406
825.648	5398
825.787	5452
825.927	5425
826.067	5376
826.206	5372
826.346	5493
826.485	5505
826.625	5452
826.765	5627
826.904	5551
827.044	5307
827.183	5349
827.323	5197
827.462	5288
827.601	5223
827.741	5345
827.88	5315
828.02	5193
828.159	5311
828.298	5353
828.437	5528
828.577	5391
828.716	5512
828.855	5410
828.994	5280
829.134	5235
829.273	5288
829.412	5216
829.551	5235
829.69	5242
829.829	5334
829.968	5455
830.107	5353
830.246	5360
830.385	5280
830.524	5239
830.663	5181
830.802	5071
830.941	5029
831.08	4968
831.219	5098
831.357	4999
831.496	5212
831.635	5010
831.774	4923
831.913	4896
832.051	4809
832.19	4824
832.329	4919
832.467	4786
832.606	4725
832.744	4790
832.883	4786
833.022	4850
833.16	4881
833.299	4889
833.437	4896
833.576	4896
833.714	4911
833.852	4930
833.991	4976
834.129	5048
834.267	5029
834.406	5041
834.544	5098
834.682	5037
834.821	5086
834.959	5216
835.097	5067
835.235	5227
835.373	5128
835.511	5189
835.65	5128
835.788	5109
835.926	4968
836.064	4957
836.202	5010
836.34	5265
836.478	5292
836.615	5223
836.753	5303
836.891	5398
837.029	5296
837.167	5254
837.305	5227
837.443	5242
837.58	5143
837.718	5330
837.856	5265
837.993	5212
838.131	5311
838.269	5284
838.406	5231
838.544	5231
838.681	5136
838.819	5056
838.956	4923
839.094	4976
839.231	5025
839.369	5128
839.506	5440
839.643	5322
839.781	5159
839.918	5083
840.055	5197
840.193	5136
840.33	5193
840.467	5265
840.604	5250
840.742	5524
840.879	5170
841.016	5178
841.153	5201
841.29	5459
841.427	5402
841.564	5383
841.701	5376
841.838	5364
841.975	5318
842.112	5357
842.249	5204
842.385	5098
842.522	5398
842.659	5193
842.796	5208
842.933	5265
843.069	5201
843.206	5189
843.343	5318
843.479	5330
843.616	5364
843.752	5056
843.889	5037
844.025	5277
844.162	5086
844.298	5246
844.435	5155
844.571	5117
844.708	5292
844.844	5345
844.98	5433
845.117	5364
845.253	5197
845.389	5193
845.525	5174
845.661	5239
845.798	5098
845.934	5193
846.07	5128
846.206	5250
846.342	5349
846.478	5261
846.614	5060
846.75	5098
846.886	5041
847.022	5216
847.158	5113
847.294	5117
847.429	5136
847.565	5140
847.701	5383
847.837	4900
847.972	4839
848.108	5010
848.244	5003
848.379	4850
848.515	4755
848.65	4790
848.786	4782
848.921	4862
849.057	5018
849.192	4984
849.328	4847
849.463	4892
849.598	4828
849.734	4786
849.869	4744
850.004	4698
850.14	4752
850.275	4698
850.41	4546
850.545	4626
850.68	4687
850.815	4710
850.95	4675
851.085	4873
851.22	4824
851.355	4752
851.49	4664
851.625	4702
851.76	4744
851.895	4630
852.03	4573
852.165	4729
852.299	4759
852.434	4854
852.569	4828
852.703	4892
852.838	4915
852.973	4999
853.107	4984
853.242	4767
853.376	4771
853.511	4546
853.645	4691
853.78	4835
853.914	4771
854.048	4736
854.183	4744
854.317	4786
854.451	4938
854.585	4740
854.72	4649
854.854	4824
854.988	4645
855.122	4660
855.256	4603
855.39	4717
855.524	4915
855.658	4767
855.792	4759
855.926	4774
856.06	4835
856.194	4877
856.327	4767
856.461	4691
856.595	4714
856.729	4744
856.862	4812
856.996	4759
857.13	4793
857.263	4835
857.397	4919
857.53	4736
857.664	4740
857.797	4831
857.931	4824
858.064	4820
858.197	4812
858.331	4752
858.464	4733
858.597	4615
858.731	4694
858.864	4710
858.997	4649
859.13	4733
859.263	4778
859.396	4793
859.529	4634
859.662	4611
859.795	4588
859.928	4672
860.061	4824
860.194	4850
860.327	4694
860.46	4637
860.592	4748
860.725	4812
860.858	4828
860.99	4584
861.123	4580
861.256	4569
861.388	4694
861.521	5315
861.653	4527
861.786	4538
861.918	4565
862.05	4641
862.183	4607
862.315	4660
862.447	4672
862.58	4611
862.712	4459
862.844	4375
862.976	4569
863.108	4481
863.24	4904
863.372	4344
863.504	4466
863.636	4428
863.768	4500
863.9	4504
864.032	4443
864.164	4478
864.296	4538
864.428	4679
864.559	4653
864.691	4592
864.823	4561
864.954	4508
865.086	4538
865.217	4554
865.349	4455
865.48	4535
865.612	4535
865.743	4744
865.875	4523
866.006	4523
866.137	4554
866.269	4504
866.4	4485
866.531	4466
866.662	4504
866.793	4451
866.924	4497
867.055	4569
867.186	4500
867.317	4428
867.448	4481
867.579	4413
867.71	4443
867.841	4428
867.972	4538
868.103	4542
868.233	4478
868.364	4538
868.495	4561
868.625	4683
868.756	4847
868.886	4649
869.017	4706
869.147	4854
869.278	4793
869.408	4736
869.539	4679
869.669	4740
869.799	4740
869.929	4774
870.06	4744
870.19	5022
870.32	4987
870.45	5014
870.58	5067
870.71	5132
870.84	5185
870.97	5041
871.1	4953
871.23	5189
871.36	5212
871.489	5033
871.619	5143
871.749	5174
871.879	5212
872.008	5223
872.138	5140
872.267	5075
872.397	4892
872.526	4850
872.656	4809
872.785	4911
872.915	4976
873.044	5060
873.173	5052
873.303	5037
873.432	5014
873.561	4991
873.69	4953
873.819	4953
873.948	4946
874.077	4873
874.206	4850
874.335	4854
874.464	5014
874.593	5102
874.722	5025
874.851	5185
874.979	5166
875.108	5105
875.237	4999
875.365	4980
875.494	4949
875.623	5060
875.751	4862
875.88	4968
876.008	5006
876.136	5075
876.265	5322
876.393	5414
876.521	5318
876.65	5277
876.778	5208
876.906	5140
877.034	5056
877.162	5102
877.29	5022
877.418	5083
877.546	5045
877.674	5086
877.802	5067
877.93	5045
878.058	5003
878.185	4946
878.313	5018
878.441	4976
878.568	4847
878.696	4949
878.824	5025
878.951	5052
879.079	5204
879.206	5383
879.333	5143
879.461	5060
879.588	5075
879.715	5162
879.842	5288
879.97	5067
880.097	4828
880.224	4877
880.351	4843
880.478	4892
880.605	4870
880.732	4896
880.859	5143
880.986	4942
881.112	4949
881.239	4839
881.366	4748
881.493	4683
881.619	4634
881.746	4710
881.872	4698
881.999	4721
882.125	4714
882.252	4820
882.378	4911
882.505	5060
882.631	4877
882.757	4721
882.883	4782
883.01	4782
883.136	4755
883.262	4645
883.388	4691
883.514	4866
883.64	4904
883.766	4835
883.892	4755
884.018	4782
884.143	4949
884.269	5079
884.395	4797
884.52	4683
884.646	4725
884.772	4626
884.897	4630
885.023	4672
885.148	4870
885.274	4881
885.399	4911
885.524	4790
885.65	4752
885.775	4828
885.9	4809
886.025	4915
886.15	4873
886.275	4767
886.4	4748
886.525	4782
886.65	4752
886.775	4759
886.9	4923
887.025	5128
887.149	4858
887.274	4744
887.399	4656
887.523	4626
887.648	4656
887.773	4649
887.897	4843
888.021	4831
888.146	4733
888.27	4896
888.395	4980
888.519	4900
888.643	4904
888.767	4835
888.891	4767
889.015	4668
889.139	4706
889.263	4694
889.387	4797
889.511	4934
889.635	4892
889.759	4714
889.883	4683
890.006	4771
890.13	4881
890.254	4675
890.377	4748
890.501	4588
890.624	4599
890.748	4660
890.871	4588
890.995	4466
891.118	4421
891.241	4546
891.364	4607
891.488	4687
891.611	4577
891.734	4561
891.857	4649
891.98	4615
892.103	4679
892.226	4664
892.349	4603
892.471	4481
892.594	4584
892.717	4634
892.839	4630
892.962	4649
893.085	4717
893.207	4672
893.33	4531
893.452	4588
893.575	4717
893.697	4645
893.819	4839
893.941	4824
894.064	4820
894.186	4641
894.308	4649
894.43	4763
894.552	4885
894.674	4782
894.796	4615
894.918	4645
895.04	4656
895.161	4736
895.283	4687
895.405	4645
895.526	4679
895.648	4752
895.769	4725
895.891	4797
896.012	4793
896.134	4812
896.255	4687
896.376	4641
896.498	4668
896.619	4717
896.74	4664
896.861	4733
896.982	4968
897.103	5162
897.224	4881
897.345	4824
897.466	4683
897.587	4740
897.708	4968
897.828	4824
897.949	4759
898.07	4626
898.19	4694
898.311	4873
898.431	4691
898.552	4805
898.672	4919
898.792	4812
898.913	4801
899.033	4702
899.153	4535
899.273	4527
899.393	4531
899.513	4550
899.633	4577
899.753	4592
899.873	4573
899.993	4634
900.113	4588
900.232	4668
900.352	4558
900.472	4542
900.591	4493
900.711	4478
900.83	4489
900.95	4626
901.069	4714
901.189	4527
901.308	4398
901.427	4371
901.546	4466
901.665	4561
901.784	4558
901.904	4428
902.023	4405
902.141	4223
902.26	4268
902.379	4402
902.498	4230
902.617	4280
902.735	4447
902.854	4413
902.973	4405
903.091	4287
903.21	4249
903.328	4291
903.446	4295
903.565	4268
903.683	4428
903.801	4299
903.919	4470
904.038	4500
904.156	4386
904.274	4493
904.392	4424
904.51	4470
904.627	4481
904.745	4672
904.863	4698
904.981	4478
905.098	4371
905.216	4402
905.334	4500
905.451	4459
905.569	4485
905.686	4611
905.803	4630
905.921	4424
906.038	4626
906.155	4523
906.272	4428
906.389	4512
906.506	4421
906.623	4440
906.74	4489
906.857	4348
906.974	4417
907.091	4622
907.208	4706
907.324	4637
907.441	4588
907.557	4360
907.674	4390
907.79	4383
907.907	4432
908.023	4508
908.139	4478
908.256	4504
908.372	4558
908.488	4527
908.604	4413
908.72	4386
908.836	4413
908.952	4386
909.068	4428
909.184	4603
909.3	4550
909.415	4641
909.531	4630
909.647	4413
909.762	4443
909.878	4344
909.993	4478
910.108	4466
910.224	4558
910.339	4508
910.454	4421
910.57	4428
910.685	4318
910.8	4725
910.915	4702
911.03	4546
911.145	4417
911.259	4360
911.374	4405
911.489	4344
911.604	4306
911.718	4215
911.833	4265
911.947	4112
912.062	4090
912.176	4276
912.291	4284
912.405	4268
912.519	4535
912.633	4550
912.748	4405
912.862	4371
912.976	4234
913.09	4143
913.204	4230
913.318	4272
913.431	4417
913.545	4440
913.659	4493
913.772	4402
913.886	4337
914	4310
914.113	4440
914.226	4485
914.34	4402
914.453	4322
914.566	4485
914.68	4348
914.793	4383
914.906	4230
915.019	4219
915.132	4120
915.245	4242
915.358	4287
915.47	4352
915.583	4314
915.696	4318
915.809	4459
915.921	4451
916.034	4268
916.146	4265
916.259	4276
916.371	4436
916.483	4417
916.595	4295
916.708	4367
916.82	4356
916.932	4322
917.044	4367
917.156	4413
917.268	4234
917.38	4322
917.491	4325
917.603	4371
917.715	4436
917.826	4497
917.938	4413
918.049	4337
918.161	4459
918.272	4584
918.384	4596
918.495	4489
918.606	4363
918.717	4261
918.828	4375
918.939	4405
919.05	4322
919.161	4341
919.272	4177
919.383	4253
919.494	4535
919.604	4645
919.715	4497
919.826	4443
919.936	4383
920.047	4599
920.157	4550
920.267	4763
920.378	4641
920.488	4542
920.598	4755
920.708	4911
920.818	4771
920.928	4824
921.038	5010
921.148	4946
921.258	4645
921.368	4573
921.477	4504
921.587	4519
921.697	4443
921.806	4618
921.916	4535
922.025	4333
922.134	4333
922.244	4246
922.353	4394
922.462	4242
922.571	4215
922.68	4025
922.789	4010
922.898	4055
923.007	4040
923.116	4143
923.224	4074
923.333	4078
923.442	4029
923.55	4002
923.659	4078
923.767	4131
923.876	4059
923.984	4185
924.092	4048
924.201	4154
924.309	4109
924.417	4135
924.525	4055
924.633	4173
924.741	5075
924.849	3953
924.956	4150
925.064	4021
925.172	3949
925.279	4036
925.387	4097
925.494	4097
925.602	4242
925.709	4242
925.816	4090
925.924	4162
926.031	4230
926.138	4272
926.245	4230
926.352	4166
926.459	4276
926.566	4386
926.673	4181
926.779	4116
926.886	4150
926.993	4029
927.099	4006
927.206	3956
927.312	3941
927.419	4086
927.525	4040
927.631	4166
927.737	4029
927.843	3991
927.95	3896
928.056	3987
928.162	4059
928.267	4116
928.373	4649
928.479	4147
928.585	3930
928.69	4040
928.796	4166
928.901	3979
929.007	3888
929.112	4074
929.218	4051
929.323	3968
929.428	3979
929.533	4143
929.638	3956
929.743	4029
929.848	4082
929.953	4025
930.058	4010
930.163	3846
930.267	3903
930.372	4036
930.477	3884
930.581	4139
930.685	4017
930.79	3857
930.894	3949
930.998	3930
931.103	4067
931.207	3736
931.311	3720
931.415	3705
931.519	3553
931.623	3625
