Data from test_V78500241_1467.txt Node
Date: Fri Mar 25 16:59:12 CST 2022
User: usil
Spectrometer: V785-0024
Trigger mode: 0
Integration Time (sec): 4.000000E-1
Scans to average: 1
Nonlinearity correction enabled: false
Boxcar width: 0
Storing dark spectrum: false
XAxis mode: Wavelengths
Number of Pixels in Spectrum: 1024
>>>>>Begin Spectral Data<<<<<
801.071	8001
801.214	7982
801.356	7864
801.499	7898
801.641	7769
801.783	7883
801.926	7940
802.068	7921
802.211	7940
802.353	7989
802.496	7849
802.638	7925
802.78	7875
802.923	7974
803.065	7883
803.208	7879
803.35	7959
803.492	8039
803.635	8202
803.777	8020
803.919	8157
804.061	8427
804.204	8130
804.346	8031
804.488	7978
804.63	8149
804.773	8031
804.915	8126
805.057	8286
805.199	8157
805.341	8218
805.483	8290
805.626	8153
805.768	8123
805.91	8183
806.052	8244
806.194	8096
806.336	8313
806.478	8084
806.62	8039
806.762	8176
806.904	8237
807.046	8423
807.188	8366
807.33	8332
807.472	8256
807.614	8183
807.756	8100
807.898	8020
808.04	7890
808.182	7963
808.324	7837
808.465	7925
808.607	8103
808.749	8126
808.891	8187
809.033	8290
809.174	8252
809.316	8043
809.458	8046
809.6	8005
809.741	7993
809.883	7963
810.025	8092
810.166	8069
810.308	7989
810.45	8027
810.591	7890
810.733	7693
810.875	7693
811.016	7529
811.158	7476
811.299	7651
811.441	7639
811.582	7689
811.724	7582
811.865	7491
812.007	7597
812.148	7655
812.29	7590
812.431	7723
812.573	7864
812.714	7974
812.855	8111
812.997	8199
813.138	8271
813.279	8172
813.421	8096
813.562	7989
813.703	7830
813.845	7712
813.986	7400
814.127	7293
814.268	7274
814.41	7202
814.551	7202
814.692	7225
814.833	7114
814.974	7091
815.115	7129
815.256	6989
815.397	6913
815.539	6916
815.68	6810
815.821	6795
815.962	6852
816.103	6825
816.244	6730
816.385	6623
816.526	6589
816.666	6513
816.807	6319
816.948	6422
817.089	6422
817.23	6433
817.371	6357
817.512	6361
817.653	6380
817.793	6304
817.934	6407
818.075	6445
818.216	6357
818.356	6437
818.497	6235
818.638	6144
818.778	6136
818.919	6114
819.06	6155
819.2	6323
819.341	6338
819.481	6319
819.622	6494
819.762	6734
819.903	6715
820.043	6612
820.184	6589
820.324	6578
820.465	6669
820.605	6658
820.746	6635
820.886	6471
821.026	6620
821.167	6646
821.307	6795
821.447	6749
821.588	6658
821.728	6574
821.868	6479
822.008	6338
822.149	6338
822.289	6357
822.429	6117
822.569	6053
822.709	6102
822.849	5939
822.99	5908
823.13	5901
823.27	5901
823.41	5813
823.55	5805
823.69	5726
823.83	5745
823.97	5615
824.11	5558
824.25	5478
824.389	5581
824.529	5516
824.669	5509
824.809	5623
824.949	5657
825.089	5627
825.228	5585
825.368	5364
825.508	5379
825.648	5322
825.787	5334
825.927	5368
826.067	5277
826.206	5258
826.346	5360
826.485	5387
826.625	5414
826.765	5551
826.904	5497
827.044	5223
827.183	5193
827.323	5094
827.462	5258
827.601	5124
827.741	5170
827.88	5201
828.02	5140
828.159	5231
828.298	5307
828.437	5326
828.577	5277
828.716	5493
828.855	5318
828.994	5197
829.134	5140
829.273	5178
829.412	5090
829.551	5132
829.69	5136
829.829	5258
829.968	5357
830.107	5216
830.246	5277
830.385	5140
830.524	5121
830.663	5060
830.802	4953
830.941	4889
831.08	4854
831.219	4968
831.357	4987
831.496	5162
831.635	4953
831.774	4839
831.913	4816
832.051	4698
832.19	4733
832.329	4858
832.467	4691
832.606	4626
832.744	4714
832.883	4763
833.022	4717
833.16	4839
833.299	4790
833.437	4835
833.576	4824
833.714	4862
833.852	4843
833.991	4877
834.129	4923
834.267	4934
834.406	4847
834.544	4938
834.682	4987
834.821	4995
834.959	5204
835.097	4999
835.235	5102
835.373	5041
835.511	5083
835.65	5037
835.788	5037
835.926	4858
836.064	4843
836.202	4968
836.34	5151
836.478	5201
836.615	5136
836.753	5223
836.891	5212
837.029	5242
837.167	5166
837.305	5113
837.443	5174
837.58	5083
837.718	5299
837.856	5151
837.993	5109
838.131	5288
838.269	5197
838.406	5185
838.544	5193
838.681	4953
838.819	4984
838.956	4927
839.094	4885
839.231	4984
839.369	5079
839.506	5459
839.643	5185
839.781	5094
839.918	4995
840.055	5041
840.193	5083
840.33	5094
840.467	5117
840.604	5220
840.742	5383
840.879	5048
841.016	5056
841.153	5208
841.29	5357
841.427	5284
841.564	5261
841.701	5341
841.838	5277
841.975	5223
842.112	5280
842.249	5117
842.385	5162
842.522	5311
842.659	5189
842.796	5143
842.933	5185
843.069	5140
843.206	5109
843.343	5261
843.479	5216
843.616	5242
843.752	5041
843.889	5018
844.025	5250
844.162	4984
844.298	5193
844.435	5117
844.571	5060
844.708	5170
844.844	5258
844.98	5360
845.117	5307
845.253	5136
845.389	5033
845.525	5162
845.661	5170
845.798	5048
845.934	5143
846.07	4965
846.206	5181
846.342	5277
846.478	5136
846.614	4957
846.75	4930
846.886	4957
847.022	5121
847.158	5052
847.294	5094
847.429	5094
847.565	5048
847.701	5265
847.837	4866
847.972	4778
848.108	4991
848.244	4961
848.379	4771
848.515	4736
848.65	4706
848.786	4759
848.921	4767
849.057	4839
849.192	4873
849.328	4828
849.463	4877
849.598	4778
849.734	4717
849.869	4683
850.004	4630
850.14	4645
850.275	4599
850.41	4500
850.545	4542
850.68	4622
850.815	4569
850.95	4603
851.085	4824
851.22	4736
851.355	4615
851.49	4599
851.625	4626
851.76	4683
851.895	4527
852.03	4512
852.165	4637
852.299	4725
852.434	4816
852.569	4752
852.703	4786
852.838	4809
852.973	4930
853.107	4934
853.242	4755
853.376	4649
853.511	4535
853.645	4615
853.78	4748
853.914	4683
854.048	4706
854.183	4653
854.317	4706
854.451	4767
854.585	4687
854.72	4634
854.854	4736
854.988	4599
855.122	4611
855.256	4493
855.39	4592
855.524	4839
855.658	4714
855.792	4717
855.926	4679
856.06	4771
856.194	4774
856.327	4672
856.461	4622
856.595	4634
856.729	4596
856.862	4740
856.996	4706
857.13	4729
857.263	4698
857.397	4786
857.53	4668
857.664	4714
857.797	4748
857.931	4771
858.064	4672
858.197	4733
858.331	4618
858.464	4622
858.597	4554
858.731	4607
858.864	4649
858.997	4596
859.13	4599
859.263	4668
859.396	4736
859.529	4584
859.662	4554
859.795	4512
859.928	4649
860.061	4786
860.194	4790
860.327	4626
860.46	4584
860.592	4721
860.725	4679
860.858	4679
860.99	4599
861.123	4485
861.256	4550
861.388	4592
861.521	5440
861.653	4432
861.786	4409
861.918	4455
862.05	4493
862.183	4527
862.315	4546
862.447	4611
862.58	4531
862.712	4421
862.844	4341
862.976	4436
863.108	4489
863.24	4778
863.372	4322
863.504	4432
863.636	4424
863.768	4462
863.9	4440
864.032	4348
864.164	4379
864.296	4478
864.428	4565
864.559	4538
864.691	4485
864.823	4538
864.954	4466
865.086	4546
865.217	4440
865.349	4402
865.48	4432
865.612	4497
865.743	4630
865.875	4432
866.006	4447
866.137	4432
866.269	4462
866.4	4428
866.531	4386
866.662	4394
866.793	4371
866.924	4383
867.055	4504
867.186	4523
867.317	4443
867.448	4383
867.579	4390
867.71	4405
867.841	4341
867.972	4455
868.103	4398
868.233	4398
868.364	4432
868.495	4485
868.625	4603
868.756	4733
868.886	4577
869.017	4653
869.147	4729
869.278	4744
869.408	4634
869.539	4630
869.669	4721
869.799	4645
869.929	4706
870.06	4675
870.19	4949
870.32	4904
870.45	4923
870.58	5003
870.71	5033
870.84	5079
870.97	4984
871.1	4908
871.23	5162
871.36	5124
871.489	5048
871.619	5060
871.749	5037
871.879	5117
872.008	5155
872.138	5041
872.267	4984
872.397	4862
872.526	4820
872.656	4729
872.785	4786
872.915	4930
873.044	5052
873.173	4949
873.303	5014
873.432	4953
873.561	4919
873.69	4854
873.819	4847
873.948	4919
874.077	4755
874.206	4771
874.335	4759
874.464	4934
874.593	5006
874.722	4961
874.851	5113
874.979	5064
875.108	4999
875.237	4938
875.365	4923
875.494	4877
875.623	4923
875.751	4793
875.88	4896
876.008	4957
876.136	5033
876.265	5178
876.393	5284
876.521	5254
876.65	5242
876.778	5102
876.906	5067
877.034	5010
877.162	5060
877.29	4968
877.418	5033
877.546	5003
877.674	5018
877.802	5014
877.93	4968
878.058	4908
878.185	4908
878.313	4911
878.441	4908
878.568	4816
878.696	4824
878.824	4938
878.951	5003
879.079	5128
879.206	5223
879.333	5041
879.461	4953
879.588	4961
879.715	5094
879.842	5204
879.97	5003
880.097	4801
880.224	4733
880.351	4786
880.478	4782
880.605	4809
880.732	4778
880.859	5041
880.986	4862
881.112	4934
881.239	4740
881.366	4645
881.493	4615
881.619	4584
881.746	4611
881.872	4641
881.999	4603
882.125	4706
882.252	4786
882.378	4816
882.505	4949
882.631	4771
882.757	4645
882.883	4725
883.01	4752
883.136	4672
883.262	4580
883.388	4599
883.514	4828
883.64	4809
883.766	4786
883.892	4672
884.018	4687
884.143	4850
884.269	5045
884.395	4645
884.52	4630
884.646	4630
884.772	4588
884.897	4573
885.023	4618
885.148	4797
885.274	4866
885.399	4809
885.524	4714
885.65	4698
885.775	4725
885.9	4729
886.025	4850
886.15	4782
886.275	4675
886.4	4660
886.525	4691
886.65	4683
886.775	4668
886.9	4919
887.025	5029
887.149	4816
887.274	4637
887.399	4554
887.523	4615
887.648	4561
887.773	4626
887.897	4740
888.021	4778
888.146	4653
888.27	4828
888.395	4911
888.519	4793
888.643	4809
888.767	4805
888.891	4664
889.015	4622
889.139	4687
889.263	4561
889.387	4729
889.511	4816
889.635	4809
889.759	4645
889.883	4626
890.006	4740
890.13	4790
890.254	4542
890.377	4660
890.501	4531
890.624	4542
890.748	4668
890.871	4512
890.995	4447
891.118	4360
891.241	4497
891.364	4527
891.488	4634
891.611	4512
891.734	4527
891.857	4618
891.98	4527
892.103	4656
892.226	4569
892.349	4478
892.471	4443
892.594	4550
892.717	4535
892.839	4561
892.962	4558
893.085	4702
893.207	4649
893.33	4451
893.452	4504
893.575	4584
893.697	4603
893.819	4831
893.941	4824
894.064	4782
894.186	4573
894.308	4519
894.43	4691
894.552	4820
894.674	4774
894.796	4561
894.918	4588
895.04	4546
895.161	4664
895.283	4679
895.405	4596
895.526	4637
895.648	4675
895.769	4656
895.891	4698
896.012	4736
896.134	4691
896.255	4668
896.376	4596
896.498	4622
896.619	4683
896.74	4599
896.861	4653
896.982	4968
897.103	5113
897.224	4797
897.345	4714
897.466	4664
897.587	4702
897.708	4896
897.828	4748
897.949	4672
898.07	4546
898.19	4607
898.311	4850
898.431	4698
898.552	4736
898.672	4786
898.792	4816
898.913	4702
899.033	4596
899.153	4481
899.273	4405
899.393	4478
899.513	4500
899.633	4508
899.753	4584
899.873	4451
899.993	4584
900.113	4523
900.232	4603
900.352	4542
900.472	4481
900.591	4413
900.711	4470
900.83	4405
900.95	4603
901.069	4660
901.189	4542
901.308	4348
901.427	4322
901.546	4394
901.665	4474
901.784	4519
901.904	4379
902.023	4325
902.141	4154
902.26	4154
902.379	4325
902.498	4215
902.617	4234
902.735	4352
902.854	4405
902.973	4356
903.091	4200
903.21	4211
903.328	4265
903.446	4303
903.565	4238
903.683	4367
903.801	4306
903.919	4436
904.038	4459
904.156	4303
904.274	4436
904.392	4424
904.51	4440
904.627	4451
904.745	4512
904.863	4664
904.981	4424
905.098	4310
905.216	4333
905.334	4424
905.451	4470
905.569	4447
905.686	4535
905.803	4554
905.921	4421
906.038	4565
906.155	4432
906.272	4363
906.389	4455
906.506	4325
906.623	4402
906.74	4398
906.857	4272
906.974	4394
907.091	4504
907.208	4634
907.324	4607
907.441	4493
907.557	4337
907.674	4341
907.79	4314
907.907	4371
908.023	4485
908.139	4497
908.256	4432
908.372	4474
908.488	4451
908.604	4318
908.72	4310
908.836	4348
908.952	4356
909.068	4394
909.184	4535
909.3	4470
909.415	4577
909.531	4565
909.647	4337
909.762	4344
909.878	4337
909.993	4436
910.108	4428
910.224	4394
910.339	4527
910.454	4424
910.57	4318
910.685	4306
910.8	4675
910.915	4592
911.03	4462
911.145	4318
911.259	4341
911.374	4390
911.489	4280
911.604	4284
911.718	4128
911.833	4196
911.947	4044
912.062	4059
912.176	4204
912.291	4265
912.405	4257
912.519	4455
912.633	4455
912.748	4360
912.862	4306
912.976	4246
913.09	4090
913.204	4204
913.318	4196
913.431	4363
913.545	4341
913.659	4421
913.772	4344
913.886	4249
914	4223
914.113	4356
914.226	4421
914.34	4363
914.453	4246
914.566	4409
914.68	4268
914.793	4322
914.906	4135
915.019	4097
915.132	4048
915.245	4139
915.358	4147
915.47	4185
915.583	4299
915.696	4299
915.809	4402
915.921	4398
916.034	4299
916.146	4246
916.259	4188
916.371	4325
916.483	4352
916.595	4215
916.708	4299
916.82	4318
916.932	4337
917.044	4341
917.156	4325
917.268	4246
917.38	4303
917.491	4261
917.603	4306
917.715	4371
917.826	4470
917.938	4287
918.049	4227
918.161	4367
918.272	4489
918.384	4573
918.495	4428
918.606	4344
918.717	4188
918.828	4344
918.939	4348
919.05	4242
919.161	4310
919.272	4116
919.383	4188
919.494	4424
919.604	4584
919.715	4383
919.826	4341
919.936	4348
920.047	4523
920.157	4485
920.267	4675
920.378	4527
920.488	4508
920.598	4729
920.708	4847
920.818	4740
920.928	4778
921.038	4946
921.148	4896
921.258	4656
921.368	4527
921.477	4466
921.587	4474
921.697	4398
921.806	4538
921.916	4432
922.025	4299
922.134	4261
922.244	4169
922.353	4352
922.462	4116
922.571	4109
922.68	4025
922.789	3915
922.898	4013
923.007	3975
923.116	4101
923.224	4032
923.333	4086
923.442	3983
923.55	3934
923.659	3987
923.767	4143
923.876	4010
923.984	4097
924.092	4010
924.201	4063
924.309	4078
924.417	4124
924.525	4044
924.633	4101
924.741	5029
924.849	3934
924.956	4109
925.064	3994
925.172	3896
925.279	3994
925.387	4086
925.494	4044
925.602	4234
925.709	4166
925.816	4025
925.924	4154
926.031	4185
926.138	4177
926.245	4188
926.352	4097
926.459	4192
926.566	4363
926.673	4128
926.779	4025
926.886	4116
926.993	3945
927.099	3941
927.206	3899
927.312	3926
927.419	4036
927.525	4017
927.631	4090
927.737	3956
927.843	3953
927.95	3804
928.056	3903
928.162	4013
928.267	4036
928.373	4588
928.479	4109
928.585	3873
928.69	4017
928.796	4048
928.901	3945
929.007	3838
929.112	3945
929.218	3956
929.323	3926
929.428	3911
929.533	4063
929.638	3922
929.743	3899
929.848	4036
929.953	4010
930.058	3903
930.163	3778
930.267	3808
930.372	3975
930.477	3774
930.581	4093
930.685	3926
930.79	3835
930.894	3884
930.998	3835
931.103	3953
931.207	3701
931.311	3690
931.415	3633
931.519	3538
931.623	3542
