Data from test_V78500241_1785.txt Node
Date: Fri Mar 25 17:01:24 CST 2022
User: usil
Spectrometer: V785-0024
Trigger mode: 0
Integration Time (sec): 4.000000E-1
Scans to average: 1
Nonlinearity correction enabled: false
Boxcar width: 0
Storing dark spectrum: false
XAxis mode: Wavelengths
Number of Pixels in Spectrum: 1024
>>>>>Begin Spectral Data<<<<<
801.071	8016
801.214	7936
801.356	7925
801.499	7890
801.641	7822
801.783	7841
801.926	7974
802.068	7967
802.211	7944
802.353	8039
802.496	7845
802.638	7818
802.78	7932
802.923	7887
803.065	7875
803.208	7856
803.35	8005
803.492	8100
803.635	8126
803.777	8020
803.919	8138
804.061	8434
804.204	8195
804.346	8054
804.488	7944
804.63	8073
804.773	8035
804.915	8206
805.057	8332
805.199	8191
805.341	8221
805.483	8252
805.626	8221
805.768	8161
805.91	8259
806.052	8221
806.194	8145
806.336	8279
806.478	8065
806.62	8058
806.762	8164
806.904	8309
807.046	8480
807.188	8415
807.33	8347
807.472	8279
807.614	8153
807.756	8248
807.898	8008
808.04	7917
808.182	7944
808.324	7936
808.465	7951
808.607	8073
808.749	8119
808.891	8252
809.033	8313
809.174	8202
809.316	8065
809.458	8149
809.6	8039
809.741	8024
809.883	8050
810.025	8214
810.166	8123
810.308	8035
810.45	8035
810.591	7925
810.733	7719
810.875	7681
811.016	7548
811.158	7548
811.299	7567
811.441	7772
811.582	7670
811.724	7575
811.865	7514
812.007	7616
812.148	7590
812.29	7647
812.431	7776
812.573	7947
812.714	8046
812.855	8233
812.997	8214
813.138	8317
813.279	8233
813.421	8092
813.562	7970
813.703	7830
813.845	7708
813.986	7411
814.127	7312
814.268	7175
814.41	7183
814.551	7156
814.692	7255
814.833	7160
814.974	7152
815.115	7122
815.256	7050
815.397	6947
815.539	7004
815.68	6821
815.821	6802
815.962	6871
816.103	6829
816.244	6711
816.385	6616
816.526	6627
816.666	6479
816.807	6350
816.948	6437
817.089	6494
817.23	6437
817.371	6399
817.512	6410
817.653	6445
817.793	6372
817.934	6418
818.075	6441
818.216	6475
818.356	6467
818.497	6258
818.638	6175
818.778	6190
818.919	6148
819.06	6167
819.2	6353
819.341	6331
819.481	6376
819.622	6608
819.762	6730
819.903	6688
820.043	6593
820.184	6483
820.324	6585
820.465	6764
820.605	6684
820.746	6662
820.886	6528
821.026	6654
821.167	6692
821.307	6821
821.447	6776
821.588	6635
821.728	6639
821.868	6486
822.008	6327
822.149	6372
822.289	6361
822.429	6117
822.569	6072
822.709	6087
822.849	5939
822.99	5954
823.13	5973
823.27	5927
823.41	5775
823.55	5798
823.69	5798
823.83	5767
823.97	5630
824.11	5524
824.25	5570
824.389	5604
824.529	5615
824.669	5528
824.809	5668
824.949	5695
825.089	5604
825.228	5551
825.368	5440
825.508	5357
825.648	5311
825.787	5398
825.927	5353
826.067	5277
826.206	5330
826.346	5383
826.485	5417
826.625	5406
826.765	5570
826.904	5471
827.044	5273
827.183	5181
827.323	5159
827.462	5258
827.601	5193
827.741	5216
827.88	5223
828.02	5143
828.159	5258
828.298	5280
828.437	5349
828.577	5277
828.716	5474
828.855	5284
828.994	5136
829.134	5136
829.273	5212
829.412	5208
829.551	5212
829.69	5189
829.829	5273
829.968	5376
830.107	5326
830.246	5277
830.385	5204
830.524	5166
830.663	5052
830.802	5033
830.941	4923
831.08	4873
831.219	4987
831.357	4949
831.496	5132
831.635	4908
831.774	4843
831.913	4854
832.051	4759
832.19	4729
832.329	4854
832.467	4702
832.606	4687
832.744	4706
832.883	4714
833.022	4744
833.16	4790
833.299	4793
833.437	4858
833.576	4797
833.714	4816
833.852	4877
833.991	4866
834.129	4980
834.267	5029
834.406	4892
834.544	4968
834.682	4987
834.821	5003
834.959	5162
835.097	4953
835.235	5143
835.373	5083
835.511	5136
835.65	5029
835.788	5022
835.926	4904
836.064	4881
836.202	4938
836.34	5189
836.478	5288
836.615	5124
836.753	5181
836.891	5337
837.029	5280
837.167	5231
837.305	5140
837.443	5155
837.58	5151
837.718	5261
837.856	5197
837.993	5162
838.131	5284
838.269	5178
838.406	5170
838.544	5128
838.681	5052
838.819	5010
838.956	4889
839.094	4881
839.231	4934
839.369	5075
839.506	5436
839.643	5254
839.781	5056
839.918	5064
840.055	5048
840.193	5064
840.33	5067
840.467	5109
840.604	5216
840.742	5395
840.879	5086
841.016	5113
841.153	5174
841.29	5410
841.427	5311
841.564	5265
841.701	5307
841.838	5261
841.975	5231
842.112	5273
842.249	5105
842.385	5071
842.522	5345
842.659	5159
842.796	5140
842.933	5174
843.069	5147
843.206	5170
843.343	5372
843.479	5337
843.616	5220
843.752	5090
843.889	5045
844.025	5121
844.162	4984
844.298	5204
844.435	5083
844.571	5025
844.708	5181
844.844	5258
844.98	5349
845.117	5303
845.253	5128
845.389	5060
845.525	5181
845.661	5140
845.798	5033
845.934	5159
846.07	5098
846.206	5201
846.342	5322
846.478	5151
846.614	5064
846.75	4984
846.886	4957
847.022	5185
847.158	5014
847.294	5064
847.429	5064
847.565	5075
847.701	5345
847.837	4900
847.972	4809
848.108	4965
848.244	4961
848.379	4763
848.515	4767
848.65	4687
848.786	4752
848.921	4744
849.057	4900
849.192	4892
849.328	4820
849.463	4854
849.598	4793
849.734	4782
849.869	4691
850.004	4660
850.14	4645
850.275	4626
850.41	4546
850.545	4584
850.68	4607
850.815	4656
850.95	4607
851.085	4896
851.22	4744
851.355	4653
851.49	4653
851.625	4664
851.76	4615
851.895	4542
852.03	4550
852.165	4683
852.299	4736
852.434	4782
852.569	4774
852.703	4820
852.838	4885
852.973	4915
853.107	4896
853.242	4736
853.376	4675
853.511	4531
853.645	4615
853.78	4782
853.914	4691
854.048	4634
854.183	4649
854.317	4702
854.451	4850
854.585	4672
854.72	4645
854.854	4733
854.988	4656
855.122	4649
855.256	4508
855.39	4645
855.524	4755
855.658	4698
855.792	4733
855.926	4714
856.06	4721
856.194	4816
856.327	4672
856.461	4607
856.595	4618
856.729	4637
856.862	4729
856.996	4702
857.13	4706
857.263	4767
857.397	4866
857.53	4637
857.664	4714
857.797	4763
857.931	4824
858.064	4717
858.197	4748
858.331	4603
858.464	4634
858.597	4519
858.731	4588
858.864	4622
858.997	4611
859.13	4656
859.263	4675
859.396	4717
859.529	4622
859.662	4577
859.795	4558
859.928	4618
860.061	4786
860.194	4774
860.327	4603
860.46	4565
860.592	4698
860.725	4759
860.858	4717
860.99	4611
861.123	4535
861.256	4508
861.388	4599
861.521	5296
861.653	4519
861.786	4417
861.918	4493
862.05	4550
862.183	4546
862.315	4569
862.447	4641
862.58	4535
862.712	4417
862.844	4352
862.976	4527
863.108	4489
863.24	4850
863.372	4337
863.504	4428
863.636	4428
863.768	4462
863.9	4436
864.032	4352
864.164	4394
864.296	4512
864.428	4554
864.559	4592
864.691	4512
864.823	4500
864.954	4504
865.086	4527
865.217	4405
865.349	4432
865.48	4470
865.612	4489
865.743	4622
865.875	4500
866.006	4443
866.137	4466
866.269	4462
866.4	4409
866.531	4394
866.662	4367
866.793	4390
866.924	4432
867.055	4516
867.186	4428
867.317	4432
867.448	4390
867.579	4424
867.71	4394
867.841	4383
867.972	4455
868.103	4462
868.233	4443
868.364	4478
868.495	4478
868.625	4664
868.756	4755
868.886	4611
869.017	4592
869.147	4790
869.278	4755
869.408	4683
869.539	4645
869.669	4702
869.799	4694
869.929	4683
870.06	4733
870.19	4949
870.32	4919
870.45	4889
870.58	5037
870.71	5109
870.84	5121
870.97	4965
871.1	4904
871.23	5143
871.36	5094
871.489	5006
871.619	5109
871.749	5060
871.879	5105
872.008	5128
872.138	5010
872.267	4972
872.397	4870
872.526	4809
872.656	4725
872.785	4771
872.915	4881
873.044	5018
873.173	4923
873.303	4949
873.432	4957
873.561	4953
873.69	4881
873.819	4835
873.948	4896
874.077	4805
874.206	4740
874.335	4725
874.464	4904
874.593	5045
874.722	4980
874.851	5109
874.979	5045
875.108	5090
875.237	4927
875.365	4816
875.494	4877
875.623	4976
875.751	4835
875.88	4900
876.008	4953
876.136	5025
876.265	5235
876.393	5322
876.521	5277
876.65	5204
876.778	5185
876.906	5045
877.034	4984
877.162	5064
877.29	4957
877.418	5045
877.546	5025
877.674	5033
877.802	5048
877.93	5006
878.058	4938
878.185	4900
878.313	4961
878.441	4965
878.568	4816
878.696	4854
878.824	4984
878.951	5029
879.079	5102
879.206	5280
879.333	5143
879.461	5010
879.588	5018
879.715	5128
879.842	5254
879.97	5022
880.097	4752
880.224	4767
880.351	4782
880.478	4767
880.605	4786
880.732	4816
880.859	5113
880.986	4877
881.112	4949
881.239	4714
881.366	4691
881.493	4611
881.619	4603
881.746	4630
881.872	4645
881.999	4599
882.125	4679
882.252	4809
882.378	4873
882.505	4949
882.631	4801
882.757	4672
882.883	4729
883.01	4748
883.136	4649
883.262	4653
883.388	4634
883.514	4812
883.64	4873
883.766	4812
883.892	4668
884.018	4759
884.143	4889
884.269	4999
884.395	4683
884.52	4637
884.646	4649
884.772	4607
884.897	4519
885.023	4664
885.148	4774
885.274	4915
885.399	4782
885.524	4717
885.65	4702
885.775	4744
885.9	4710
886.025	4839
886.15	4805
886.275	4748
886.4	4656
886.525	4725
886.65	4691
886.775	4637
886.9	4889
887.025	5045
887.149	4786
887.274	4702
887.399	4630
887.523	4584
887.648	4580
887.773	4558
887.897	4809
888.021	4744
888.146	4733
888.27	4812
888.395	4889
888.519	4805
888.643	4793
888.767	4809
888.891	4725
889.015	4630
889.139	4634
889.263	4558
889.387	4759
889.511	4885
889.635	4805
889.759	4599
889.883	4592
890.006	4706
890.13	4824
890.254	4599
890.377	4668
890.501	4577
890.624	4546
890.748	4637
890.871	4519
890.995	4443
891.118	4421
891.241	4519
891.364	4508
891.488	4668
891.611	4478
891.734	4527
891.857	4588
891.98	4531
892.103	4656
892.226	4558
892.349	4527
892.471	4409
892.594	4550
892.717	4592
892.839	4615
892.962	4611
893.085	4664
893.207	4550
893.33	4500
893.452	4519
893.575	4649
893.697	4588
893.819	4710
893.941	4797
894.064	4771
894.186	4584
894.308	4558
894.43	4694
894.552	4824
894.674	4706
894.796	4565
894.918	4607
895.04	4615
895.161	4687
895.283	4596
895.405	4584
895.526	4649
895.648	4668
895.769	4672
895.891	4691
896.012	4755
896.134	4733
896.255	4649
896.376	4618
896.498	4649
896.619	4675
896.74	4645
896.861	4626
896.982	4946
897.103	5071
897.224	4774
897.345	4714
897.466	4660
897.587	4717
897.708	4805
897.828	4759
897.949	4603
898.07	4527
898.19	4577
898.311	4847
898.431	4656
898.552	4721
898.672	4763
898.792	4793
898.913	4740
899.033	4607
899.153	4504
899.273	4474
899.393	4512
899.513	4500
899.633	4546
899.753	4569
899.873	4535
899.993	4546
900.113	4538
900.232	4637
900.352	4535
900.472	4508
900.591	4432
900.711	4516
900.83	4440
900.95	4599
901.069	4615
901.189	4508
901.308	4352
901.427	4284
901.546	4413
901.665	4436
901.784	4504
901.904	4386
902.023	4333
902.141	4158
902.26	4192
902.379	4261
902.498	4181
902.617	4242
902.735	4367
902.854	4360
902.973	4329
903.091	4207
903.21	4196
903.328	4284
903.446	4287
903.565	4265
903.683	4344
903.801	4287
903.919	4405
904.038	4409
904.156	4329
904.274	4428
904.392	4405
904.51	4417
904.627	4440
904.745	4592
904.863	4599
904.981	4432
905.098	4325
905.216	4371
905.334	4421
905.451	4390
905.569	4436
905.686	4584
905.803	4527
905.921	4447
906.038	4538
906.155	4455
906.272	4424
906.389	4417
906.506	4367
906.623	4356
906.74	4421
906.857	4287
906.974	4367
907.091	4569
907.208	4691
907.324	4558
907.441	4462
907.557	4333
907.674	4333
907.79	4333
907.907	4352
908.023	4455
908.139	4455
908.256	4447
908.372	4459
908.488	4394
908.604	4322
908.72	4329
908.836	4413
908.952	4360
909.068	4424
909.184	4554
909.3	4493
909.415	4607
909.531	4531
909.647	4360
909.762	4322
909.878	4379
909.993	4432
910.108	4409
910.224	4424
910.339	4493
910.454	4405
910.57	4360
910.685	4333
910.8	4645
910.915	4599
911.03	4523
911.145	4276
911.259	4299
911.374	4344
911.489	4287
911.604	4268
911.718	4139
911.833	4188
911.947	4101
912.062	4048
912.176	4207
912.291	4181
912.405	4219
912.519	4489
912.633	4512
912.748	4329
912.862	4303
912.976	4219
913.09	4093
913.204	4200
913.318	4242
913.431	4333
913.545	4383
913.659	4455
913.772	4363
913.886	4249
914	4211
914.113	4394
914.226	4440
914.34	4421
914.453	4234
914.566	4405
914.68	4314
914.793	4341
914.906	4166
915.019	4154
915.132	4109
915.245	4188
915.358	4204
915.47	4188
915.583	4265
915.696	4261
915.809	4363
915.921	4440
916.034	4265
916.146	4276
916.259	4272
916.371	4390
916.483	4375
916.595	4287
916.708	4322
916.82	4322
916.932	4333
917.044	4344
917.156	4318
917.268	4230
917.38	4284
917.491	4257
917.603	4318
917.715	4405
917.826	4405
917.938	4341
918.049	4246
918.161	4432
918.272	4538
918.384	4516
918.495	4478
918.606	4280
918.717	4211
918.828	4329
918.939	4360
919.05	4284
919.161	4310
919.272	4097
919.383	4242
919.494	4447
919.604	4622
919.715	4424
919.826	4379
919.936	4383
920.047	4489
920.157	4519
920.267	4714
920.378	4573
920.488	4535
920.598	4717
920.708	4820
920.818	4744
920.928	4797
921.038	4927
921.148	4911
921.258	4599
921.368	4569
921.477	4485
921.587	4493
921.697	4371
921.806	4542
921.916	4455
922.025	4284
922.134	4234
922.244	4253
922.353	4303
922.462	4196
922.571	4112
922.68	4002
922.789	3960
922.898	4051
923.007	4025
923.116	4093
923.224	4059
923.333	4097
923.442	3998
923.55	3975
923.659	4029
923.767	4078
923.876	4010
923.984	4135
924.092	3987
924.201	4071
924.309	4116
924.417	4116
924.525	4067
924.633	4120
924.741	5056
924.849	3930
924.956	4116
925.064	3991
925.172	3896
925.279	3915
925.387	4051
925.494	4040
925.602	4207
925.709	4185
925.816	4067
925.924	4101
926.031	4177
926.138	4158
926.245	4200
926.352	4090
926.459	4249
926.566	4276
926.673	4169
926.779	4048
926.886	4074
926.993	3956
927.099	3934
927.206	3979
927.312	3937
927.419	4063
927.525	4067
927.631	4112
927.737	3937
927.843	3907
927.95	3819
928.056	3892
928.162	4017
928.267	4048
928.373	4592
928.479	4120
928.585	3873
928.69	4025
928.796	4029
928.901	3964
929.007	3816
929.112	4006
929.218	3987
929.323	3934
929.428	3987
929.533	4105
929.638	3915
929.743	3934
929.848	4074
929.953	3941
930.058	3896
930.163	3755
930.267	3797
930.372	3979
930.477	3831
930.581	4067
930.685	3926
930.79	3812
930.894	3873
930.998	3850
931.103	4032
931.207	3701
931.311	3698
931.415	3656
931.519	3515
931.623	3545
