Data from test_V78500241_694.txt Node
Date: Fri Mar 25 16:53:49 CST 2022
User: usil
Spectrometer: V785-0024
Trigger mode: 0
Integration Time (sec): 4.000000E-1
Scans to average: 1
Nonlinearity correction enabled: false
Boxcar width: 0
Storing dark spectrum: false
XAxis mode: Wavelengths
Number of Pixels in Spectrum: 1024
>>>>>Begin Spectral Data<<<<<
801.071	8031
801.214	7982
801.356	7871
801.499	7814
801.641	7753
801.783	7715
801.926	7944
802.068	7963
802.211	7940
802.353	8046
802.496	7826
802.638	7921
802.78	7879
802.923	7868
803.065	7738
803.208	7856
803.35	7963
803.492	8130
803.635	8111
803.777	7936
803.919	8062
804.061	8431
804.204	8100
804.346	7947
804.488	7913
804.63	8073
804.773	8031
804.915	8069
805.057	8199
805.199	8134
805.341	8134
805.483	8279
805.626	8149
805.768	8153
805.91	8115
806.052	8202
806.194	8126
806.336	8252
806.478	8088
806.62	8077
806.762	8130
806.904	8271
807.046	8454
807.188	8332
807.33	8267
807.472	8351
807.614	8142
807.756	8100
807.898	7986
808.04	7830
808.182	7868
808.324	7887
808.465	7906
808.607	7989
808.749	8107
808.891	8183
809.033	8210
809.174	8210
809.316	8012
809.458	8031
809.6	7974
809.741	8103
809.883	8027
810.025	8084
810.166	8115
810.308	7978
810.45	7997
810.591	7951
810.733	7670
810.875	7689
811.016	7563
811.158	7483
811.299	7586
811.441	7769
811.582	7723
811.724	7529
811.865	7499
812.007	7537
812.148	7647
812.29	7670
812.431	7632
812.573	7822
812.714	7970
812.855	8073
812.997	8187
813.138	8290
813.279	8119
813.421	8149
813.562	8020
813.703	7917
813.845	7784
813.986	7430
814.127	7266
814.268	7266
814.41	7206
814.551	7103
814.692	7145
814.833	7023
814.974	7122
815.115	7072
815.256	6962
815.397	6920
815.539	6924
815.68	6802
815.821	6760
815.962	6871
816.103	6779
816.244	6776
816.385	6601
816.526	6597
816.666	6528
816.807	6323
816.948	6407
817.089	6437
817.23	6399
817.371	6429
817.512	6353
817.653	6384
817.793	6372
817.934	6418
818.075	6441
818.216	6410
818.356	6376
818.497	6216
818.638	6117
818.778	6121
818.919	6114
819.06	6163
819.2	6266
819.341	6289
819.481	6342
819.622	6582
819.762	6658
819.903	6677
820.043	6551
820.184	6612
820.324	6544
820.465	6650
820.605	6658
820.746	6570
820.886	6509
821.026	6707
821.167	6665
821.307	6787
821.447	6779
821.588	6681
821.728	6536
821.868	6414
822.008	6285
822.149	6399
822.289	6308
822.429	6053
822.569	6034
822.709	6117
822.849	5931
822.99	5878
823.13	5916
823.27	5870
823.41	5817
823.55	5786
823.69	5748
823.83	5813
823.97	5665
824.11	5497
824.25	5516
824.389	5585
824.529	5505
824.669	5528
824.809	5642
824.949	5703
825.089	5608
825.228	5562
825.368	5406
825.508	5349
825.648	5322
825.787	5387
825.927	5330
826.067	5280
826.206	5334
826.346	5326
826.485	5368
826.625	5459
826.765	5524
826.904	5452
827.044	5220
827.183	5227
827.323	5117
827.462	5212
827.601	5189
827.741	5239
827.88	5178
828.02	5064
828.159	5220
828.298	5311
828.437	5326
828.577	5250
828.716	5398
828.855	5284
828.994	5121
829.134	5193
829.273	5189
829.412	5121
829.551	5159
829.69	5128
829.829	5208
829.968	5353
830.107	5258
830.246	5273
830.385	5151
830.524	5124
830.663	5083
830.802	4942
830.941	4881
831.08	4873
831.219	4919
831.357	4953
831.496	5124
831.635	4915
831.774	4854
831.913	4850
832.051	4736
832.19	4740
832.329	4850
832.467	4721
832.606	4668
832.744	4717
832.883	4698
833.022	4748
833.16	4782
833.299	4786
833.437	4816
833.576	4862
833.714	4858
833.852	4877
833.991	4885
834.129	4968
834.267	4930
834.406	4946
834.544	5006
834.682	4987
834.821	4968
834.959	5166
835.097	4965
835.235	5155
835.373	5071
835.511	5090
835.65	5029
835.788	5056
835.926	4911
836.064	4915
836.202	4892
836.34	5181
836.478	5189
836.615	5140
836.753	5208
836.891	5288
837.029	5254
837.167	5227
837.305	5159
837.443	5124
837.58	5109
837.718	5208
837.856	5136
837.993	5128
838.131	5269
838.269	5162
838.406	5204
838.544	5140
838.681	5014
838.819	5014
838.956	4889
839.094	4923
839.231	5003
839.369	5086
839.506	5459
839.643	5296
839.781	5071
839.918	4999
840.055	5090
840.193	5041
840.33	5140
840.467	5102
840.604	5201
840.742	5353
840.879	5064
841.016	5071
841.153	5117
841.29	5387
841.427	5303
841.564	5318
841.701	5357
841.838	5258
841.975	5258
842.112	5254
842.249	5155
842.385	5094
842.522	5269
842.659	5128
842.796	5105
842.933	5212
843.069	5136
843.206	5162
843.343	5307
843.479	5212
843.616	5261
843.752	5018
843.889	5037
844.025	5239
844.162	5025
844.298	5162
844.435	5071
844.571	5041
844.708	5216
844.844	5258
844.98	5337
845.117	5315
845.253	5102
845.389	5071
845.525	5140
845.661	5174
845.798	4934
845.934	5155
846.07	5041
846.206	5208
846.342	5269
846.478	5124
846.614	5018
846.75	5022
846.886	4889
847.022	5143
847.158	5037
847.294	5064
847.429	5075
847.565	5037
847.701	5315
847.837	4831
847.972	4801
848.108	4972
848.244	4949
848.379	4771
848.515	4771
848.65	4691
848.786	4714
848.921	4782
849.057	4866
849.192	4934
849.328	4801
849.463	4831
849.598	4782
849.734	4759
849.869	4664
850.004	4599
850.14	4691
850.275	4607
850.41	4531
850.545	4577
850.68	4584
850.815	4611
850.95	4649
851.085	4854
851.22	4736
851.355	4740
851.49	4649
851.625	4641
851.76	4588
851.895	4561
852.03	4527
852.165	4599
852.299	4717
852.434	4786
852.569	4748
852.703	4771
852.838	4812
852.973	4968
853.107	4889
853.242	4725
853.376	4653
853.511	4523
853.645	4561
853.78	4831
853.914	4702
854.048	4664
854.183	4653
854.317	4675
854.451	4850
854.585	4637
854.72	4653
854.854	4740
854.988	4588
855.122	4672
855.256	4523
855.39	4672
855.524	4733
855.658	4729
855.792	4729
855.926	4691
856.06	4721
856.194	4797
856.327	4714
856.461	4584
856.595	4626
856.729	4626
856.862	4736
856.996	4702
857.13	4748
857.263	4729
857.397	4820
857.53	4618
857.664	4714
857.797	4752
857.931	4793
858.064	4672
858.197	4714
858.331	4664
858.464	4580
858.597	4485
858.731	4577
858.864	4615
858.997	4542
859.13	4664
859.263	4717
859.396	4675
859.529	4573
859.662	4516
859.795	4500
859.928	4580
860.061	4767
860.194	4710
860.327	4584
860.46	4588
860.592	4653
860.725	4752
860.858	4702
860.99	4554
861.123	4519
861.256	4546
861.388	4607
861.521	5341
861.653	4470
861.786	4489
861.918	4436
862.05	4478
862.183	4527
862.315	4569
862.447	4607
862.58	4603
862.712	4375
862.844	4314
862.976	4447
863.108	4478
863.24	4858
863.372	4337
863.504	4405
863.636	4405
863.768	4443
863.9	4462
864.032	4337
864.164	4383
864.296	4462
864.428	4546
864.559	4554
864.691	4569
864.823	4565
864.954	4489
865.086	4508
865.217	4436
865.349	4421
865.48	4470
865.612	4519
865.743	4603
865.875	4436
866.006	4417
866.137	4447
866.269	4432
866.4	4478
866.531	4409
866.662	4348
866.793	4421
866.924	4398
867.055	4508
867.186	4493
867.317	4421
867.448	4383
867.579	4367
867.71	4394
867.841	4325
867.972	4466
868.103	4417
868.233	4402
868.364	4413
868.495	4474
868.625	4630
868.756	4748
868.886	4542
869.017	4603
869.147	4774
869.278	4763
869.408	4630
869.539	4622
869.669	4694
869.799	4630
869.929	4767
870.06	4759
870.19	4980
870.32	4908
870.45	4911
870.58	4987
870.71	5090
870.84	5056
870.97	4961
871.1	4892
871.23	5075
871.36	5098
871.489	5018
871.619	5052
871.749	5083
871.879	5098
872.008	5181
872.138	5102
872.267	4972
872.397	4843
872.526	4793
872.656	4717
872.785	4763
872.915	4972
873.044	5064
873.173	4889
873.303	4930
873.432	4976
873.561	4908
873.69	4858
873.819	4870
873.948	4873
874.077	4763
874.206	4733
874.335	4748
874.464	4896
874.593	5029
874.722	4965
874.851	5113
874.979	5098
875.108	5010
875.237	4908
875.365	4866
875.494	4885
875.623	4923
875.751	4805
875.88	4873
876.008	4946
876.136	5037
876.265	5204
876.393	5334
876.521	5235
876.65	5181
876.778	5083
876.906	5045
877.034	4999
877.162	5071
877.29	5003
877.418	5071
877.546	5006
877.674	5018
877.802	5056
877.93	5033
878.058	4961
878.185	4850
878.313	4942
878.441	4991
878.568	4771
878.696	4850
878.824	4968
878.951	5025
879.079	5117
879.206	5326
879.333	5128
879.461	4984
879.588	4976
879.715	5094
879.842	5227
879.97	5083
880.097	4778
880.224	4759
880.351	4752
880.478	4812
880.605	4805
880.732	4831
880.859	5064
880.986	4889
881.112	4915
881.239	4763
881.366	4656
881.493	4615
881.619	4577
881.746	4653
881.872	4649
881.999	4653
882.125	4706
882.252	4767
882.378	4809
882.505	4923
882.631	4820
882.757	4656
882.883	4691
883.01	4725
883.136	4656
883.262	4577
883.388	4649
883.514	4809
883.64	4885
883.766	4809
883.892	4653
884.018	4675
884.143	4911
884.269	5010
884.395	4630
884.52	4626
884.646	4630
884.772	4542
884.897	4584
885.023	4645
885.148	4782
885.274	4892
885.399	4793
885.524	4714
885.65	4717
885.775	4710
885.9	4675
886.025	4866
886.15	4793
886.275	4714
886.4	4637
886.525	4740
886.65	4687
886.775	4675
886.9	4896
887.025	5056
887.149	4854
887.274	4618
887.399	4569
887.523	4584
887.648	4592
887.773	4584
887.897	4759
888.021	4778
888.146	4645
888.27	4797
888.395	4885
888.519	4771
888.643	4767
888.767	4793
888.891	4706
889.015	4649
889.139	4630
889.263	4592
889.387	4717
889.511	4858
889.635	4828
889.759	4626
889.883	4668
890.006	4683
890.13	4839
890.254	4622
890.377	4675
890.501	4523
890.624	4523
890.748	4668
890.871	4519
890.995	4417
891.118	4344
891.241	4535
891.364	4558
891.488	4626
891.611	4443
891.734	4527
891.857	4561
891.98	4550
892.103	4649
892.226	4592
892.349	4538
892.471	4417
892.594	4550
892.717	4565
892.839	4622
892.962	4599
893.085	4645
893.207	4615
893.33	4481
893.452	4527
893.575	4683
893.697	4577
893.819	4759
893.941	4839
894.064	4805
894.186	4538
894.308	4565
894.43	4733
894.552	4809
894.674	4793
894.796	4561
894.918	4535
895.04	4538
895.161	4691
895.283	4637
895.405	4550
895.526	4637
895.648	4683
895.769	4744
895.891	4702
896.012	4755
896.134	4702
896.255	4717
896.376	4691
896.498	4592
896.619	4683
896.74	4584
896.861	4626
896.982	4934
897.103	5090
897.224	4835
897.345	4759
897.466	4702
897.587	4698
897.708	4866
897.828	4782
897.949	4615
898.07	4592
898.19	4599
898.311	4862
898.431	4660
898.552	4706
898.672	4812
898.792	4828
898.913	4729
899.033	4603
899.153	4550
899.273	4402
899.393	4466
899.513	4546
899.633	4470
899.753	4565
899.873	4497
899.993	4603
900.113	4478
900.232	4599
900.352	4512
900.472	4523
900.591	4394
900.711	4481
900.83	4394
900.95	4599
901.069	4656
901.189	4527
901.308	4371
901.427	4314
901.546	4390
901.665	4459
901.784	4497
901.904	4417
902.023	4322
902.141	4196
902.26	4177
902.379	4310
902.498	4196
902.617	4246
902.735	4371
902.854	4409
902.973	4341
903.091	4192
903.21	4249
903.328	4314
903.446	4276
903.565	4230
903.683	4398
903.801	4280
903.919	4383
904.038	4428
904.156	4272
904.274	4405
904.392	4398
904.51	4409
904.627	4443
904.745	4538
904.863	4615
904.981	4360
905.098	4280
905.216	4329
905.334	4432
905.451	4455
905.569	4462
905.686	4531
905.803	4573
905.921	4428
906.038	4542
906.155	4504
906.272	4341
906.389	4417
906.506	4371
906.623	4356
906.74	4421
906.857	4295
906.974	4322
907.091	4558
907.208	4645
907.324	4603
907.441	4504
907.557	4348
907.674	4310
907.79	4329
907.907	4344
908.023	4478
908.139	4470
908.256	4432
908.372	4478
908.488	4424
908.604	4375
908.72	4287
908.836	4341
908.952	4379
909.068	4451
909.184	4573
909.3	4508
909.415	4542
909.531	4558
909.647	4367
909.762	4428
909.878	4322
909.993	4424
910.108	4390
910.224	4428
910.339	4462
910.454	4367
910.57	4367
910.685	4280
910.8	4626
910.915	4558
911.03	4546
911.145	4329
911.259	4291
911.374	4371
911.489	4337
911.604	4268
911.718	4169
911.833	4196
911.947	4109
912.062	4040
912.176	4242
912.291	4253
912.405	4261
912.519	4432
912.633	4519
912.748	4375
912.862	4295
912.976	4173
913.09	4086
913.204	4196
913.318	4257
913.431	4352
913.545	4383
913.659	4417
913.772	4318
913.886	4215
914	4207
914.113	4386
914.226	4451
914.34	4417
914.453	4234
914.566	4436
914.68	4284
914.793	4261
914.906	4185
915.019	4109
915.132	4086
915.245	4169
915.358	4196
915.47	4230
915.583	4238
915.696	4299
915.809	4390
915.921	4466
916.034	4306
916.146	4299
916.259	4234
916.371	4303
916.483	4371
916.595	4299
916.708	4314
916.82	4367
916.932	4325
917.044	4348
917.156	4325
917.268	4215
917.38	4295
917.491	4253
917.603	4379
917.715	4424
917.826	4462
917.938	4367
918.049	4242
918.161	4394
918.272	4561
918.384	4516
918.495	4386
918.606	4299
918.717	4249
918.828	4219
918.939	4379
919.05	4238
919.161	4352
919.272	4105
919.383	4272
919.494	4459
919.604	4622
919.715	4485
919.826	4375
919.936	4363
920.047	4527
920.157	4462
920.267	4679
920.378	4535
920.488	4500
920.598	4717
920.708	4862
920.818	4793
920.928	4714
921.038	4961
921.148	4961
921.258	4618
921.368	4516
921.477	4478
921.587	4451
921.697	4337
921.806	4577
921.916	4455
922.025	4200
922.134	4280
922.244	4253
922.353	4337
922.462	4200
922.571	4147
922.68	4017
922.789	3994
922.898	4048
923.007	3956
923.116	4090
923.224	4048
923.333	4097
923.442	4013
923.55	3987
923.659	3972
923.767	4116
923.876	3979
923.984	4116
924.092	4017
924.201	4135
924.309	4067
924.417	4124
924.525	4048
924.633	4116
924.741	5052
924.849	3915
924.956	4147
925.064	4006
925.172	3941
925.279	3949
925.387	4074
925.494	3994
925.602	4238
925.709	4185
925.816	4013
925.924	4150
926.031	4238
926.138	4173
926.245	4234
926.352	4078
926.459	4227
926.566	4322
926.673	4158
926.779	4112
926.886	4090
926.993	3987
927.099	3922
927.206	3922
927.312	3979
927.419	4063
927.525	4006
927.631	4101
927.737	3991
927.843	3922
927.95	3854
928.056	3987
928.162	3994
928.267	4116
928.373	4675
928.479	4131
928.585	3850
928.69	4029
928.796	4051
928.901	3991
929.007	3827
929.112	3998
929.218	4025
929.323	3896
929.428	3945
929.533	4124
929.638	3930
929.743	3930
929.848	4025
929.953	3975
930.058	3949
930.163	3778
930.267	3800
930.372	3991
930.477	3827
930.581	4120
930.685	3956
930.79	3854
930.894	3865
930.998	3865
931.103	4036
931.207	3713
931.311	3705
931.415	3686
931.519	3549
931.623	3595
