Data from test_V78500241_460.txt Node
Date: Fri Mar 25 16:52:12 CST 2022
User: usil
Spectrometer: V785-0024
Trigger mode: 0
Integration Time (sec): 4.000000E-1
Scans to average: 1
Nonlinearity correction enabled: false
Boxcar width: 0
Storing dark spectrum: false
XAxis mode: Wavelengths
Number of Pixels in Spectrum: 1024
>>>>>Begin Spectral Data<<<<<
801.071	8031
801.214	7978
801.356	7883
801.499	7883
801.641	7814
801.783	7856
801.926	8058
802.068	7982
802.211	8020
802.353	8012
802.496	7883
802.638	7833
802.78	7947
802.923	7967
803.065	7780
803.208	7826
803.35	7917
803.492	8016
803.635	8142
803.777	8016
803.919	8126
804.061	8381
804.204	8107
804.346	8001
804.488	7947
804.63	8020
804.773	7967
804.915	8073
805.057	8313
805.199	8153
805.341	8320
805.483	8290
805.626	8164
805.768	8039
805.91	8096
806.052	8210
806.194	8096
806.336	8320
806.478	8084
806.62	8062
806.762	8187
806.904	8244
807.046	8438
807.188	8339
807.33	8267
807.472	8229
807.614	8107
807.756	8172
807.898	8043
808.04	7913
808.182	7883
808.324	7970
808.465	7818
808.607	8043
808.749	8039
808.891	8214
809.033	8290
809.174	8168
809.316	8081
809.458	8115
809.6	7997
809.741	8115
809.883	8031
810.025	8092
810.166	8092
810.308	8062
810.45	8005
810.591	7887
810.733	7772
810.875	7677
811.016	7537
811.158	7521
811.299	7620
811.441	7761
811.582	7620
811.724	7620
811.865	7594
812.007	7647
812.148	7624
812.29	7639
812.431	7776
812.573	7932
812.714	8081
812.855	8191
812.997	8267
813.138	8393
813.279	8298
813.421	8214
813.562	8062
813.703	7833
813.845	7818
813.986	7556
814.127	7407
814.268	7358
814.41	7194
814.551	7232
814.692	7217
814.833	7091
814.974	7103
815.115	7053
815.256	7019
815.397	6913
815.539	6916
815.68	6760
815.821	6810
815.962	6867
816.103	6829
816.244	6738
816.385	6642
816.526	6627
816.666	6544
816.807	6281
816.948	6464
817.089	6471
817.23	6403
817.371	6445
817.512	6372
817.653	6380
817.793	6350
817.934	6437
818.075	6452
818.216	6445
818.356	6388
818.497	6232
818.638	6205
818.778	6155
818.919	6140
819.06	6144
819.2	6353
819.341	6262
819.481	6300
819.622	6559
819.762	6703
819.903	6734
820.043	6604
820.184	6578
820.324	6559
820.465	6692
820.605	6696
820.746	6578
820.886	6494
821.026	6692
821.167	6669
821.307	6825
821.447	6852
821.588	6677
821.728	6627
821.868	6494
822.008	6365
822.149	6365
822.289	6327
822.429	6163
822.569	6064
822.709	6095
822.849	5942
822.99	5927
823.13	5958
823.27	5980
823.41	5802
823.55	5775
823.69	5817
823.83	5836
823.97	5676
824.11	5547
824.25	5497
824.389	5535
824.529	5581
824.669	5581
824.809	5630
824.949	5638
825.089	5581
825.228	5638
825.368	5357
825.508	5364
825.648	5322
825.787	5440
825.927	5353
826.067	5277
826.206	5299
826.346	5406
826.485	5425
826.625	5440
826.765	5505
826.904	5482
827.044	5208
827.183	5174
827.323	5121
827.462	5212
827.601	5147
827.741	5250
827.88	5189
828.02	5132
828.159	5239
828.298	5349
828.437	5345
828.577	5242
828.716	5532
828.855	5345
828.994	5162
829.134	5162
829.273	5162
829.412	5166
829.551	5132
829.69	5174
829.829	5212
829.968	5315
830.107	5284
830.246	5223
830.385	5159
830.524	5178
830.663	5071
830.802	5006
830.941	4839
831.08	4801
831.219	4976
831.357	4980
831.496	5128
831.635	4946
831.774	4828
831.913	4805
832.051	4725
832.19	4740
832.329	4866
832.467	4744
832.606	4653
832.744	4721
832.883	4767
833.022	4729
833.16	4729
833.299	4820
833.437	4816
833.576	4820
833.714	4862
833.852	4835
833.991	4930
834.129	4957
834.267	4972
834.406	4927
834.544	4987
834.682	4976
834.821	4961
834.959	5201
835.097	4999
835.235	5151
835.373	5098
835.511	5170
835.65	5067
835.788	5067
835.926	4885
836.064	4873
836.202	4889
836.34	5166
836.478	5227
836.615	5170
836.753	5254
836.891	5299
837.029	5254
837.167	5246
837.305	5204
837.443	5136
837.58	5105
837.718	5269
837.856	5189
837.993	5117
838.131	5204
838.269	5193
838.406	5216
838.544	5178
838.681	5006
838.819	5006
838.956	4889
839.094	4820
839.231	4987
839.369	5071
839.506	5387
839.643	5277
839.781	5060
839.918	5022
840.055	5098
840.193	5041
840.33	5083
840.467	5162
840.604	5193
840.742	5379
840.879	5048
841.016	5132
841.153	5223
841.29	5387
841.427	5360
841.564	5315
841.701	5368
841.838	5254
841.975	5246
842.112	5254
842.249	5147
842.385	5140
842.522	5345
842.659	5181
842.796	5166
842.933	5223
843.069	5109
843.206	5155
843.343	5299
843.479	5277
843.616	5273
843.752	5045
843.889	5033
844.025	5227
844.162	5033
844.298	5178
844.435	5094
844.571	5132
844.708	5254
844.844	5311
844.98	5296
845.117	5341
845.253	5113
845.389	5094
845.525	5174
845.661	5132
845.798	5045
845.934	5166
846.07	5083
846.206	5162
846.342	5315
846.478	5174
846.614	5025
846.75	4980
846.886	4927
847.022	5132
847.158	5022
847.294	5075
847.429	5105
847.565	5052
847.701	5318
847.837	4877
847.972	4778
848.108	4984
848.244	4949
848.379	4805
848.515	4702
848.65	4725
848.786	4736
848.921	4759
849.057	4847
849.192	4911
849.328	4812
849.463	4843
849.598	4774
849.734	4736
849.869	4679
850.004	4615
850.14	4702
850.275	4618
850.41	4550
850.545	4546
850.68	4596
850.815	4618
850.95	4687
851.085	4805
851.22	4733
851.355	4714
851.49	4611
851.625	4622
851.76	4618
851.895	4592
852.03	4542
852.165	4645
852.299	4717
852.434	4748
852.569	4820
852.703	4820
852.838	4839
852.973	4915
853.107	4930
853.242	4698
853.376	4691
853.511	4554
853.645	4599
853.78	4820
853.914	4683
854.048	4698
854.183	4637
854.317	4717
854.451	4885
854.585	4714
854.72	4679
854.854	4755
854.988	4607
855.122	4626
855.256	4523
855.39	4656
855.524	4767
855.658	4691
855.792	4714
855.926	4698
856.06	4759
856.194	4797
856.327	4660
856.461	4592
856.595	4626
856.729	4675
856.862	4691
856.996	4714
857.13	4733
857.263	4809
857.397	4812
857.53	4649
857.664	4736
857.797	4752
857.931	4736
858.064	4656
858.197	4755
858.331	4683
858.464	4588
858.597	4531
858.731	4588
858.864	4630
858.997	4607
859.13	4679
859.263	4694
859.396	4687
859.529	4596
859.662	4569
859.795	4565
859.928	4664
860.061	4748
860.194	4736
860.327	4641
860.46	4550
860.592	4725
860.725	4706
860.858	4717
860.99	4603
861.123	4577
861.256	4497
861.388	4675
861.521	5299
861.653	4474
861.786	4459
861.918	4443
862.05	4519
862.183	4577
862.315	4645
862.447	4664
862.58	4615
862.712	4428
862.844	4303
862.976	4478
863.108	4470
863.24	4740
863.372	4386
863.504	4405
863.636	4405
863.768	4535
863.9	4470
864.032	4356
864.164	4413
864.296	4478
864.428	4599
864.559	4580
864.691	4565
864.823	4531
864.954	4478
865.086	4546
865.217	4398
865.349	4428
865.48	4481
865.612	4474
865.743	4588
865.875	4497
866.006	4474
866.137	4466
866.269	4493
866.4	4447
866.531	4413
866.662	4424
866.793	4413
866.924	4413
867.055	4531
867.186	4481
867.317	4398
867.448	4363
867.579	4409
867.71	4383
867.841	4363
867.972	4478
868.103	4485
868.233	4443
868.364	4504
868.495	4489
868.625	4656
868.756	4771
868.886	4542
869.017	4649
869.147	4778
869.278	4733
869.408	4637
869.539	4660
869.669	4710
869.799	4584
869.929	4733
870.06	4733
870.19	4911
870.32	4942
870.45	4942
870.58	4991
870.71	5102
870.84	5124
870.97	4961
871.1	4896
871.23	5109
871.36	5128
871.489	5022
871.619	5121
871.749	5124
871.879	5124
872.008	5162
872.138	5025
872.267	4976
872.397	4908
872.526	4801
872.656	4740
872.785	4801
872.915	5006
873.044	4987
873.173	4915
873.303	5006
873.432	4961
873.561	4934
873.69	4866
873.819	4919
873.948	4873
874.077	4877
874.206	4755
874.335	4786
874.464	4919
874.593	5041
874.722	4972
874.851	5117
874.979	5132
875.108	5064
875.237	4953
875.365	4908
875.494	4873
875.623	4881
875.751	4904
875.88	4927
876.008	4953
876.136	5067
876.265	5220
876.393	5334
876.521	5254
876.65	5235
876.778	5102
876.906	5083
877.034	5022
877.162	5037
877.29	5022
877.418	5079
877.546	5018
877.674	5064
877.802	5060
877.93	5029
878.058	4900
878.185	4900
878.313	5006
878.441	4915
878.568	4782
878.696	4892
878.824	4987
878.951	5003
879.079	5124
879.206	5261
879.333	5094
879.461	4995
879.588	4991
879.715	5117
879.842	5242
879.97	5010
880.097	4790
880.224	4744
880.351	4793
880.478	4858
880.605	4820
880.732	4782
880.859	5090
880.986	4870
881.112	4938
881.239	4778
881.366	4668
881.493	4580
881.619	4577
881.746	4596
881.872	4656
881.999	4653
882.125	4706
882.252	4778
882.378	4805
882.505	4972
882.631	4812
882.757	4668
882.883	4717
883.01	4725
883.136	4615
883.262	4584
883.388	4641
883.514	4790
883.64	4870
883.766	4828
883.892	4675
884.018	4649
884.143	4896
884.269	5045
884.395	4660
884.52	4618
884.646	4641
884.772	4611
884.897	4573
885.023	4679
885.148	4797
885.274	4862
885.399	4774
885.524	4733
885.65	4729
885.775	4736
885.9	4710
886.025	4877
886.15	4805
886.275	4672
886.4	4687
886.525	4759
886.65	4672
886.775	4702
886.9	4908
887.025	5033
887.149	4858
887.274	4618
887.399	4637
887.523	4615
887.648	4611
887.773	4588
887.897	4771
888.021	4782
888.146	4694
888.27	4801
888.395	4900
888.519	4820
888.643	4748
888.767	4816
888.891	4660
889.015	4634
889.139	4675
889.263	4637
889.387	4736
889.511	4908
889.635	4771
889.759	4683
889.883	4641
890.006	4748
890.13	4820
890.254	4664
890.377	4698
890.501	4516
890.624	4554
890.748	4630
890.871	4512
890.995	4417
891.118	4443
891.241	4512
891.364	4565
891.488	4641
891.611	4474
891.734	4542
891.857	4580
891.98	4558
892.103	4660
892.226	4561
892.349	4508
892.471	4424
892.594	4573
892.717	4596
892.839	4538
892.962	4588
893.085	4592
893.207	4580
893.33	4500
893.452	4569
893.575	4668
893.697	4588
893.819	4801
893.941	4824
894.064	4725
894.186	4538
894.308	4565
894.43	4698
894.552	4809
894.674	4714
894.796	4577
894.918	4569
895.04	4546
895.161	4725
895.283	4675
895.405	4596
895.526	4615
895.648	4706
895.769	4683
895.891	4721
896.012	4729
896.134	4725
896.255	4668
896.376	4691
896.498	4634
896.619	4664
896.74	4622
896.861	4668
896.982	4896
897.103	5098
897.224	4900
897.345	4729
897.466	4618
897.587	4755
897.708	4862
897.828	4790
897.949	4691
898.07	4573
898.19	4580
898.311	4820
898.431	4645
898.552	4736
898.672	4786
898.792	4812
898.913	4748
899.033	4668
899.153	4478
899.273	4413
899.393	4493
899.513	4489
899.633	4558
899.753	4546
899.873	4535
899.993	4561
900.113	4493
900.232	4611
900.352	4565
900.472	4504
900.591	4390
900.711	4493
900.83	4409
900.95	4615
901.069	4694
901.189	4504
901.308	4421
901.427	4337
901.546	4360
901.665	4455
901.784	4523
901.904	4371
902.023	4322
902.141	4188
902.26	4181
902.379	4360
902.498	4257
902.617	4204
902.735	4383
902.854	4405
902.973	4360
903.091	4291
903.21	4234
903.328	4276
903.446	4257
903.565	4196
903.683	4348
903.801	4276
903.919	4409
904.038	4436
904.156	4344
904.274	4447
904.392	4402
904.51	4451
904.627	4432
904.745	4596
904.863	4592
904.981	4421
905.098	4333
905.216	4325
905.334	4402
905.451	4459
905.569	4443
905.686	4512
905.803	4554
905.921	4432
906.038	4561
906.155	4478
906.272	4421
906.389	4504
906.506	4341
906.623	4409
906.74	4428
906.857	4371
906.974	4421
907.091	4535
907.208	4698
907.324	4607
907.441	4561
907.557	4333
907.674	4325
907.79	4333
907.907	4383
908.023	4516
908.139	4508
908.256	4424
908.372	4451
908.488	4440
908.604	4363
908.72	4371
908.836	4329
908.952	4409
909.068	4432
909.184	4535
909.3	4485
909.415	4588
909.531	4565
909.647	4360
909.762	4367
909.878	4356
909.993	4413
910.108	4428
910.224	4428
910.339	4478
910.454	4417
910.57	4375
910.685	4322
910.8	4637
910.915	4611
911.03	4527
911.145	4280
911.259	4348
911.374	4337
911.489	4299
911.604	4314
911.718	4169
911.833	4207
911.947	4051
912.062	4032
912.176	4173
912.291	4200
912.405	4249
912.519	4466
912.633	4508
912.748	4390
912.862	4329
912.976	4204
913.09	4086
913.204	4188
913.318	4280
913.431	4394
913.545	4352
913.659	4409
913.772	4318
913.886	4249
914	4200
914.113	4371
914.226	4394
914.34	4356
914.453	4257
914.566	4440
914.68	4310
914.793	4314
914.906	4162
915.019	4166
915.132	4109
915.245	4188
915.358	4204
915.47	4253
915.583	4295
915.696	4295
915.809	4402
915.921	4424
916.034	4242
916.146	4272
916.259	4200
916.371	4409
916.483	4417
916.595	4284
916.708	4337
916.82	4344
916.932	4371
917.044	4333
917.156	4287
917.268	4238
917.38	4257
917.491	4268
917.603	4318
917.715	4417
917.826	4451
917.938	4329
918.049	4257
918.161	4436
918.272	4535
918.384	4527
918.495	4402
918.606	4333
918.717	4227
918.828	4405
918.939	4402
919.05	4253
919.161	4303
919.272	4120
919.383	4249
919.494	4443
919.604	4622
919.715	4470
919.826	4386
919.936	4436
920.047	4531
920.157	4500
920.267	4710
920.378	4531
920.488	4500
920.598	4679
920.708	4923
920.818	4748
920.928	4774
921.038	4999
921.148	4915
921.258	4641
921.368	4523
921.477	4519
921.587	4478
921.697	4386
921.806	4519
921.916	4409
922.025	4242
922.134	4249
922.244	4223
922.353	4325
922.462	4162
922.571	4162
922.68	4032
922.789	3983
922.898	4010
923.007	3956
923.116	4112
923.224	4086
923.333	4093
923.442	3994
923.55	4010
923.659	4013
923.767	4124
923.876	4029
923.984	4109
924.092	4017
924.201	4093
924.309	4082
924.417	4166
924.525	4059
924.633	4074
924.741	5086
924.849	3899
924.956	4147
925.064	3930
925.172	3934
925.279	3937
925.387	4055
925.494	4036
925.602	4204
925.709	4173
925.816	4078
925.924	4162
926.031	4223
926.138	4143
926.245	4219
926.352	4143
926.459	4246
926.566	4333
926.673	4192
926.779	4139
926.886	4051
926.993	3991
927.099	3953
927.206	3941
927.312	3979
927.419	4040
927.525	4025
927.631	4086
927.737	3983
927.843	3956
927.95	3873
928.056	3949
928.162	4025
928.267	4078
928.373	4714
928.479	4124
928.585	3911
928.69	4017
928.796	4059
928.901	3983
929.007	3876
929.112	4013
929.218	3949
929.323	3979
929.428	3956
929.533	4090
929.638	3888
929.743	3953
929.848	4097
929.953	4013
930.058	3926
930.163	3785
930.267	3827
930.372	3991
930.477	3827
930.581	4101
930.685	3975
930.79	3797
930.894	3907
930.998	3857
931.103	4036
931.207	3705
931.311	3724
931.415	3679
931.519	3519
931.623	3534
