Data from test_V78500241_1107.txt Node
Date: Fri Mar 25 16:56:41 CST 2022
User: usil
Spectrometer: V785-0024
Trigger mode: 0
Integration Time (sec): 4.000000E-1
Scans to average: 1
Nonlinearity correction enabled: false
Boxcar width: 0
Storing dark spectrum: false
XAxis mode: Wavelengths
Number of Pixels in Spectrum: 1024
>>>>>Begin Spectral Data<<<<<
801.071	8088
801.214	8077
801.356	7883
801.499	7830
801.641	7788
801.783	7818
801.926	7959
802.068	7925
802.211	7925
802.353	7928
802.496	7795
802.638	7852
802.78	7928
802.923	7906
803.065	7852
803.208	7852
803.35	7944
803.492	8107
803.635	8069
803.777	8035
803.919	8168
804.061	8366
804.204	8138
804.346	8027
804.488	7894
804.63	8115
804.773	8065
804.915	8126
805.057	8263
805.199	8119
805.341	8195
805.483	8332
805.626	8180
805.768	8092
805.91	8157
806.052	8233
806.194	8050
806.336	8339
806.478	8100
806.62	7986
806.762	8130
806.904	8218
807.046	8434
807.188	8305
807.33	8252
807.472	8290
807.614	8138
807.756	8126
807.898	8001
808.04	7890
808.182	7913
808.324	7944
808.465	7852
808.607	8005
808.749	8062
808.891	8172
809.033	8271
809.174	8050
809.316	8027
809.458	8065
809.6	7890
809.741	8065
809.883	7986
810.025	8050
810.166	8035
810.308	8024
810.45	8039
810.591	7814
810.733	7685
810.875	7693
811.016	7472
811.158	7445
811.299	7632
811.441	7715
811.582	7643
811.724	7540
811.865	7518
812.007	7601
812.148	7616
812.29	7590
812.431	7689
812.573	7841
812.714	7986
812.855	8081
812.997	8176
813.138	8244
813.279	8176
813.421	8103
813.562	8039
813.703	7860
813.845	7746
813.986	7480
814.127	7346
814.268	7168
814.41	7228
814.551	7141
814.692	7202
814.833	7057
814.974	7065
815.115	7046
815.256	6928
815.397	6890
815.539	6897
815.68	6890
815.821	6795
815.962	6837
816.103	6795
816.244	6749
816.385	6578
816.526	6612
816.666	6513
816.807	6281
816.948	6452
817.089	6437
817.23	6384
817.371	6342
817.512	6407
817.653	6403
817.793	6342
817.934	6384
818.075	6483
818.216	6388
818.356	6311
818.497	6186
818.638	6098
818.778	6129
818.919	6140
819.06	6194
819.2	6281
819.341	6319
819.481	6319
819.622	6521
819.762	6684
819.903	6688
820.043	6551
820.184	6570
820.324	6620
820.465	6692
820.605	6665
820.746	6593
820.886	6509
821.026	6684
821.167	6692
821.307	6795
821.447	6700
821.588	6635
821.728	6574
821.868	6490
822.008	6334
822.149	6384
822.289	6357
822.429	6110
822.569	6079
822.709	6076
822.849	5878
822.99	5904
823.13	5882
823.27	5859
823.41	5817
823.55	5764
823.69	5741
823.83	5756
823.97	5676
824.11	5509
824.25	5497
824.389	5452
824.529	5535
824.669	5512
824.809	5646
824.949	5585
825.089	5577
825.228	5509
825.368	5376
825.508	5326
825.648	5349
825.787	5337
825.927	5402
826.067	5254
826.206	5292
826.346	5360
826.485	5383
826.625	5410
826.765	5585
826.904	5440
827.044	5239
827.183	5151
827.323	5102
827.462	5216
827.601	5162
827.741	5140
827.88	5147
828.02	5109
828.159	5220
828.298	5280
828.437	5345
828.577	5216
828.716	5452
828.855	5303
828.994	5128
829.134	5143
829.273	5242
829.412	5117
829.551	5102
829.69	5143
829.829	5212
829.968	5376
830.107	5273
830.246	5227
830.385	5159
830.524	5136
830.663	5025
830.802	4953
830.941	4828
831.08	4824
831.219	4961
831.357	4942
831.496	5117
831.635	4877
831.774	4843
831.913	4828
832.051	4710
832.19	4733
832.329	4820
832.467	4702
832.606	4611
832.744	4679
832.883	4778
833.022	4748
833.16	4767
833.299	4782
833.437	4774
833.576	4793
833.714	4812
833.852	4892
833.991	4870
834.129	4957
834.267	4911
834.406	4904
834.544	4976
834.682	4968
834.821	4961
834.959	5109
835.097	5022
835.235	5102
835.373	5045
835.511	5075
835.65	5060
835.788	5022
835.926	4927
836.064	4820
836.202	4881
836.34	5159
836.478	5212
836.615	5136
836.753	5151
836.891	5273
837.029	5254
837.167	5197
837.305	5170
837.443	5178
837.58	5045
837.718	5288
837.856	5166
837.993	5102
838.131	5178
838.269	5155
838.406	5155
838.544	5185
838.681	4987
838.819	5037
838.956	4889
839.094	4892
839.231	4938
839.369	5037
839.506	5436
839.643	5235
839.781	5045
839.918	5006
840.055	5124
840.193	5064
840.33	5090
840.467	5151
840.604	5193
840.742	5467
840.879	5098
841.016	5075
841.153	5189
841.29	5345
841.427	5303
841.564	5292
841.701	5315
841.838	5269
841.975	5254
842.112	5254
842.249	5113
842.385	5086
842.522	5288
842.659	5151
842.796	5166
842.933	5212
843.069	5178
843.206	5117
843.343	5265
843.479	5204
843.616	5269
843.752	5022
843.889	4961
844.025	5201
844.162	5014
844.298	5220
844.435	5037
844.571	5060
844.708	5143
844.844	5280
844.98	5345
845.117	5242
845.253	5094
845.389	5048
845.525	5197
845.661	5132
845.798	4984
845.934	5166
846.07	5064
846.206	5159
846.342	5242
846.478	5151
846.614	5022
846.75	4976
846.886	4987
847.022	5121
847.158	4961
847.294	5064
847.429	5079
847.565	5003
847.701	5258
847.837	4847
847.972	4782
848.108	4908
848.244	4934
848.379	4778
848.515	4725
848.65	4706
848.786	4706
848.921	4767
849.057	4793
849.192	4877
849.328	4778
849.463	4839
849.598	4771
849.734	4793
849.869	4714
850.004	4618
850.14	4622
850.275	4569
850.41	4542
850.545	4546
850.68	4580
850.815	4592
850.95	4622
851.085	4839
851.22	4710
851.355	4626
851.49	4615
851.625	4607
851.76	4634
851.895	4538
852.03	4542
852.165	4641
852.299	4683
852.434	4736
852.569	4694
852.703	4752
852.838	4828
852.973	4911
853.107	4908
853.242	4733
853.376	4649
853.511	4538
853.645	4577
853.78	4816
853.914	4641
854.048	4622
854.183	4679
854.317	4683
854.451	4816
854.585	4603
854.72	4626
854.854	4774
854.988	4611
855.122	4637
855.256	4523
855.39	4664
855.524	4767
855.658	4675
855.792	4664
855.926	4721
856.06	4710
856.194	4744
856.327	4630
856.461	4630
856.595	4607
856.729	4615
856.862	4744
856.996	4660
857.13	4740
857.263	4687
857.397	4782
857.53	4630
857.664	4687
857.797	4744
857.931	4736
858.064	4675
858.197	4736
858.331	4622
858.464	4618
858.597	4542
858.731	4607
858.864	4603
858.997	4561
859.13	4607
859.263	4687
859.396	4729
859.529	4542
859.662	4546
859.795	4512
859.928	4672
860.061	4736
860.194	4774
860.327	4618
860.46	4569
860.592	4668
860.725	4710
860.858	4721
860.99	4573
861.123	4493
861.256	4531
861.388	4626
861.521	5318
861.653	4432
861.786	4424
861.918	4386
862.05	4447
862.183	4485
862.315	4565
862.447	4649
862.58	4527
862.712	4421
862.844	4287
862.976	4455
863.108	4474
863.24	4717
863.372	4291
863.504	4390
863.636	4413
863.768	4481
863.9	4440
864.032	4379
864.164	4375
864.296	4436
864.428	4516
864.559	4558
864.691	4523
864.823	4512
864.954	4436
865.086	4519
865.217	4398
865.349	4394
865.48	4398
865.612	4500
865.743	4565
865.875	4493
866.006	4462
866.137	4440
866.269	4424
866.4	4440
866.531	4428
866.662	4413
866.793	4413
866.924	4409
867.055	4500
867.186	4447
867.317	4417
867.448	4409
867.579	4390
867.71	4360
867.841	4356
867.972	4481
868.103	4455
868.233	4451
868.364	4470
868.495	4489
868.625	4653
868.756	4733
868.886	4645
869.017	4634
869.147	4793
869.278	4824
869.408	4679
869.539	4615
869.669	4698
869.799	4679
869.929	4767
870.06	4687
870.19	4961
870.32	4938
870.45	4972
870.58	5071
870.71	5079
870.84	5098
870.97	5025
871.1	4896
871.23	5124
871.36	5128
871.489	5048
871.619	5056
871.749	5121
871.879	5155
872.008	5193
872.138	5029
872.267	5003
872.397	4870
872.526	4885
872.656	4748
872.785	4877
872.915	4991
873.044	5064
873.173	4942
873.303	4942
873.432	4987
873.561	4995
873.69	4938
873.819	4858
873.948	4946
874.077	4824
874.206	4801
874.335	4828
874.464	4923
874.593	5060
874.722	4961
874.851	5159
874.979	5029
875.108	5022
875.237	4949
875.365	4866
875.494	4934
875.623	5022
875.751	4812
875.88	4976
876.008	4976
876.136	5064
876.265	5261
876.393	5376
876.521	5254
876.65	5216
876.778	5189
876.906	5121
877.034	4980
877.162	5109
877.29	5060
877.418	5117
877.546	5094
877.674	5048
877.802	5045
877.93	5010
878.058	4892
878.185	4908
878.313	4999
878.441	4980
878.568	4831
878.696	4870
878.824	4961
878.951	5056
879.079	5174
879.206	5311
879.333	5117
879.461	4972
879.588	5014
879.715	5151
879.842	5231
879.97	5064
880.097	4793
880.224	4771
880.351	4839
880.478	4850
880.605	4839
880.732	4828
880.859	5136
880.986	4949
881.112	4904
881.239	4774
881.366	4717
881.493	4630
881.619	4637
881.746	4618
881.872	4656
881.999	4637
882.125	4748
882.252	4820
882.378	4896
882.505	4908
882.631	4805
882.757	4672
882.883	4752
883.01	4710
883.136	4710
883.262	4641
883.388	4634
883.514	4839
883.64	4881
883.766	4843
883.892	4675
884.018	4725
884.143	4957
884.269	4999
884.395	4702
884.52	4641
884.646	4664
884.772	4599
884.897	4561
885.023	4687
885.148	4805
885.274	4892
885.399	4824
885.524	4763
885.65	4702
885.775	4698
885.9	4694
886.025	4854
886.15	4835
886.275	4763
886.4	4679
886.525	4752
886.65	4714
886.775	4721
886.9	4953
887.025	5102
887.149	4824
887.274	4714
887.399	4618
887.523	4603
887.648	4584
887.773	4607
887.897	4771
888.021	4831
888.146	4721
888.27	4793
888.395	4942
888.519	4801
888.643	4824
888.767	4839
888.891	4687
889.015	4660
889.139	4698
889.263	4634
889.387	4797
889.511	4881
889.635	4790
889.759	4717
889.883	4672
890.006	4733
890.13	4797
890.254	4645
890.377	4664
890.501	4577
890.624	4550
890.748	4622
890.871	4554
890.995	4474
891.118	4405
891.241	4577
891.364	4546
891.488	4717
891.611	4516
891.734	4611
891.857	4580
891.98	4607
892.103	4637
892.226	4637
892.349	4554
892.471	4421
892.594	4584
892.717	4607
892.839	4607
892.962	4550
893.085	4729
893.207	4599
893.33	4478
893.452	4538
893.575	4702
893.697	4592
893.819	4786
893.941	4820
894.064	4793
894.186	4630
894.308	4634
894.43	4782
894.552	4839
894.674	4736
894.796	4580
894.918	4584
895.04	4565
895.161	4721
895.283	4698
895.405	4599
895.526	4656
895.648	4687
895.769	4668
895.891	4778
896.012	4736
896.134	4714
896.255	4679
896.376	4634
896.498	4615
896.619	4687
896.74	4664
896.861	4664
896.982	4953
897.103	5075
897.224	4839
897.345	4790
897.466	4740
897.587	4717
897.708	4847
897.828	4790
897.949	4706
898.07	4580
898.19	4645
898.311	4885
898.431	4710
898.552	4710
898.672	4843
898.792	4790
898.913	4755
899.033	4694
899.153	4538
899.273	4405
899.393	4531
899.513	4535
899.633	4580
899.753	4542
899.873	4508
899.993	4622
900.113	4542
900.232	4573
900.352	4531
900.472	4474
900.591	4409
900.711	4489
900.83	4455
900.95	4596
901.069	4714
901.189	4573
901.308	4341
901.427	4341
901.546	4398
901.665	4500
901.784	4538
901.904	4352
902.023	4310
902.141	4249
902.26	4192
902.379	4344
902.498	4265
902.617	4265
902.735	4402
902.854	4405
902.973	4417
903.091	4276
903.21	4276
903.328	4272
903.446	4276
903.565	4268
903.683	4344
903.801	4291
903.919	4409
904.038	4451
904.156	4337
904.274	4489
904.392	4428
904.51	4466
904.627	4512
904.745	4580
904.863	4668
904.981	4436
905.098	4284
905.216	4409
905.334	4462
905.451	4466
905.569	4485
905.686	4565
905.803	4577
905.921	4432
906.038	4569
906.155	4485
906.272	4451
906.389	4451
906.506	4390
906.623	4390
906.74	4371
906.857	4310
906.974	4455
907.091	4584
907.208	4679
907.324	4584
907.441	4519
907.557	4371
907.674	4394
907.79	4337
907.907	4390
908.023	4535
908.139	4497
908.256	4421
908.372	4493
908.488	4466
908.604	4348
908.72	4314
908.836	4424
908.952	4348
909.068	4440
909.184	4599
909.3	4485
909.415	4584
909.531	4577
909.647	4417
909.762	4443
909.878	4379
909.993	4470
910.108	4417
910.224	4402
910.339	4497
910.454	4447
910.57	4360
910.685	4318
910.8	4694
910.915	4588
911.03	4493
911.145	4310
911.259	4310
911.374	4386
911.489	4299
911.604	4310
911.718	4150
911.833	4181
911.947	4055
912.062	4086
912.176	4257
912.291	4227
912.405	4272
912.519	4481
912.633	4508
912.748	4394
912.862	4356
912.976	4188
913.09	4112
913.204	4207
913.318	4249
913.431	4360
913.545	4360
913.659	4497
913.772	4379
913.886	4234
914	4268
914.113	4386
914.226	4428
914.34	4390
914.453	4223
914.566	4424
914.68	4322
914.793	4329
914.906	4158
915.019	4143
915.132	4067
915.245	4238
915.358	4265
915.47	4188
915.583	4306
915.696	4325
915.809	4405
915.921	4451
916.034	4253
916.146	4272
916.259	4287
916.371	4390
916.483	4348
916.595	4219
916.708	4299
916.82	4341
916.932	4318
917.044	4310
917.156	4341
917.268	4249
917.38	4284
917.491	4265
917.603	4322
917.715	4451
917.826	4474
917.938	4375
918.049	4303
918.161	4421
918.272	4561
918.384	4538
918.495	4428
918.606	4337
918.717	4299
918.828	4356
918.939	4390
919.05	4276
919.161	4322
919.272	4128
919.383	4246
919.494	4383
919.604	4630
919.715	4436
919.826	4398
919.936	4440
920.047	4462
920.157	4508
920.267	4702
920.378	4573
920.488	4466
920.598	4736
920.708	4835
920.818	4729
920.928	4774
921.038	4885
921.148	4904
921.258	4649
921.368	4592
921.477	4497
921.587	4497
921.697	4371
921.806	4569
921.916	4432
922.025	4299
922.134	4295
922.244	4284
922.353	4360
922.462	4158
922.571	4158
922.68	4044
922.789	4017
922.898	3998
923.007	4013
923.116	4128
923.224	4109
923.333	4116
923.442	3991
923.55	3930
923.659	4105
923.767	4101
923.876	3994
923.984	4109
924.092	3994
924.201	4074
924.309	4135
924.417	4093
924.525	4025
924.633	4128
924.741	4953
924.849	3922
924.956	4120
925.064	3975
925.172	3892
925.279	3953
925.387	4040
925.494	4063
925.602	4154
925.709	4207
925.816	4051
925.924	4116
926.031	4223
926.138	4166
926.245	4188
926.352	4128
926.459	4276
926.566	4299
926.673	4185
926.779	4074
926.886	4082
926.993	3956
927.099	3941
927.206	3945
927.312	3956
927.419	4059
927.525	4036
927.631	4139
927.737	3949
927.843	3903
927.95	3835
928.056	3991
928.162	4029
928.267	4029
928.373	4706
928.479	4112
928.585	3873
928.69	4051
928.796	4082
928.901	3911
929.007	3808
929.112	4040
929.218	3979
929.323	3934
929.428	3945
929.533	4135
929.638	3964
929.743	3964
929.848	4032
929.953	3987
930.058	3926
930.163	3800
930.267	3831
930.372	3941
930.477	3842
930.581	4067
930.685	3941
930.79	3827
930.894	3899
930.998	3838
931.103	4067
931.207	3743
931.311	3724
931.415	3701
931.519	3519
931.623	3564
