Data from test_V78500241_2375.txt Node
Date: Fri Mar 25 17:05:30 CST 2022
User: usil
Spectrometer: V785-0024
Trigger mode: 0
Integration Time (sec): 4.000000E-1
Scans to average: 1
Nonlinearity correction enabled: false
Boxcar width: 0
Storing dark spectrum: false
XAxis mode: Wavelengths
Number of Pixels in Spectrum: 1024
>>>>>Begin Spectral Data<<<<<
801.071	8084
801.214	8020
801.356	7871
801.499	7913
801.641	7849
801.783	7818
801.926	7993
802.068	7925
802.211	8088
802.353	8046
802.496	7879
802.638	7909
802.78	7932
802.923	7940
803.065	7917
803.208	7986
803.35	7913
803.492	8115
803.635	8103
803.777	8020
803.919	8183
804.061	8442
804.204	8183
804.346	8134
804.488	7944
804.63	8130
804.773	8001
804.915	8096
805.057	8305
805.199	8225
805.341	8119
805.483	8290
805.626	8191
805.768	8157
805.91	8176
806.052	8206
806.194	8050
806.336	8267
806.478	8111
806.62	8096
806.762	8096
806.904	8237
807.046	8465
807.188	8385
807.33	8377
807.472	8332
807.614	8134
807.756	8134
807.898	8069
808.04	7906
808.182	7879
808.324	7856
808.465	7921
808.607	8115
808.749	8225
808.891	8210
809.033	8362
809.174	8282
809.316	8111
809.458	8130
809.6	8031
809.741	8088
809.883	8062
810.025	8092
810.166	8062
810.308	8039
810.45	8088
810.591	7871
810.733	7803
810.875	7734
811.016	7601
811.158	7449
811.299	7597
811.441	7746
811.582	7715
811.724	7559
811.865	7533
812.007	7529
812.148	7624
812.29	7639
812.431	7757
812.573	7913
812.714	7997
812.855	8199
812.997	8240
813.138	8339
813.279	8180
813.421	8123
813.562	7955
813.703	7814
813.845	7719
813.986	7400
814.127	7289
814.268	7232
814.41	7236
814.551	7240
814.692	7308
814.833	7129
814.974	7099
815.115	7149
815.256	6970
815.397	6913
815.539	7000
815.68	6810
815.821	6703
815.962	6913
816.103	6863
816.244	6726
816.385	6646
816.526	6536
816.666	6528
816.807	6331
816.948	6441
817.089	6437
817.23	6422
817.371	6380
817.512	6388
817.653	6365
817.793	6350
817.934	6429
818.075	6498
818.216	6456
818.356	6464
818.497	6353
818.638	6136
818.778	6144
818.919	6155
819.06	6182
819.2	6384
819.341	6407
819.481	6372
819.622	6601
819.762	6783
819.903	6726
820.043	6669
820.184	6608
820.324	6616
820.465	6734
820.605	6639
820.746	6673
820.886	6540
821.026	6707
821.167	6707
821.307	6844
821.447	6795
821.588	6711
821.728	6540
821.868	6521
822.008	6365
822.149	6410
822.289	6357
822.429	6190
822.569	6117
822.709	6117
822.849	5973
822.99	5935
823.13	5851
823.27	5916
823.41	5783
823.55	5832
823.69	5783
823.83	5794
823.97	5672
824.11	5520
824.25	5547
824.389	5592
824.529	5570
824.669	5528
824.809	5630
824.949	5680
825.089	5661
825.228	5543
825.368	5429
825.508	5372
825.648	5360
825.787	5395
825.927	5383
826.067	5277
826.206	5349
826.346	5406
826.485	5398
826.625	5429
826.765	5596
826.904	5459
827.044	5311
827.183	5242
827.323	5121
827.462	5277
827.601	5155
827.741	5193
827.88	5220
828.02	5113
828.159	5254
828.298	5284
828.437	5349
828.577	5311
828.716	5512
828.855	5296
828.994	5094
829.134	5216
829.273	5212
829.412	5132
829.551	5151
829.69	5121
829.829	5292
829.968	5429
830.107	5296
830.246	5334
830.385	5159
830.524	5155
830.663	5102
830.802	4968
830.941	4911
831.08	4862
831.219	4961
831.357	4927
831.496	5113
831.635	4881
831.774	4824
831.913	4877
832.051	4755
832.19	4717
832.329	4870
832.467	4656
832.606	4626
832.744	4664
832.883	4721
833.022	4755
833.16	4778
833.299	4809
833.437	4843
833.576	4881
833.714	4809
833.852	4854
833.991	4953
834.129	4949
834.267	4919
834.406	4885
834.544	4995
834.682	4953
834.821	5014
834.959	5140
835.097	4987
835.235	5159
835.373	5041
835.511	5109
835.65	5025
835.788	4965
835.926	4923
836.064	4873
836.202	4942
836.34	5159
836.478	5204
836.615	5181
836.753	5204
836.891	5292
837.029	5254
837.167	5208
837.305	5239
837.443	5121
837.58	5094
837.718	5227
837.856	5174
837.993	5113
838.131	5223
838.269	5212
838.406	5269
838.544	5208
838.681	5048
838.819	5045
838.956	4900
839.094	4968
839.231	4984
839.369	5113
839.506	5436
839.643	5265
839.781	5048
839.918	5067
840.055	5094
840.193	5086
840.33	5136
840.467	5159
840.604	5140
840.742	5406
840.879	5098
841.016	5102
841.153	5174
841.29	5395
841.427	5406
841.564	5288
841.701	5395
841.838	5341
841.975	5296
842.112	5269
842.249	5136
842.385	5094
842.522	5326
842.659	5223
842.796	5189
842.933	5189
843.069	5239
843.206	5189
843.343	5364
843.479	5273
843.616	5311
843.752	5098
843.889	5102
844.025	5246
844.162	5067
844.298	5280
844.435	5113
844.571	5045
844.708	5231
844.844	5307
844.98	5410
845.117	5288
845.253	5227
845.389	5128
845.525	5242
845.661	5239
845.798	5121
845.934	5174
846.07	5102
846.206	5273
846.342	5315
846.478	5231
846.614	5064
846.75	4995
846.886	5022
847.022	5170
847.158	5067
847.294	5086
847.429	5181
847.565	5060
847.701	5398
847.837	4946
847.972	4870
848.108	4968
848.244	4946
848.379	4805
848.515	4763
848.65	4744
848.786	4763
848.921	4816
849.057	4900
849.192	4942
849.328	4850
849.463	4873
849.598	4854
849.734	4824
849.869	4736
850.004	4675
850.14	4702
850.275	4641
850.41	4569
850.545	4615
850.68	4649
850.815	4634
850.95	4702
851.085	4858
851.22	4721
851.355	4740
851.49	4630
851.625	4653
851.76	4668
851.895	4641
852.03	4542
852.165	4660
852.299	4771
852.434	4828
852.569	4763
852.703	4797
852.838	4889
852.973	4976
853.107	4911
853.242	4714
853.376	4691
853.511	4584
853.645	4645
853.78	4843
853.914	4721
854.048	4698
854.183	4668
854.317	4733
854.451	4843
854.585	4736
854.72	4622
854.854	4797
854.988	4630
855.122	4729
855.256	4542
855.39	4672
855.524	4797
855.658	4759
855.792	4683
855.926	4782
856.06	4816
856.194	4835
856.327	4744
856.461	4672
856.595	4702
856.729	4691
856.862	4771
856.996	4725
857.13	4778
857.263	4854
857.397	4862
857.53	4717
857.664	4774
857.797	4771
857.931	4812
858.064	4755
858.197	4752
858.331	4675
858.464	4607
858.597	4584
858.731	4656
858.864	4698
858.997	4592
859.13	4675
859.263	4706
859.396	4767
859.529	4584
859.662	4626
859.795	4630
859.928	4660
860.061	4786
860.194	4755
860.327	4630
860.46	4577
860.592	4740
860.725	4748
860.858	4740
860.99	4622
861.123	4592
861.256	4531
861.388	4664
861.521	5307
861.653	4512
861.786	4489
861.918	4474
862.05	4538
862.183	4592
862.315	4626
862.447	4668
862.58	4615
862.712	4436
862.844	4356
862.976	4500
863.108	4493
863.24	4805
863.372	4398
863.504	4447
863.636	4466
863.768	4531
863.9	4451
864.032	4402
864.164	4424
864.296	4508
864.428	4588
864.559	4554
864.691	4599
864.823	4489
864.954	4519
865.086	4561
865.217	4523
865.349	4462
865.48	4535
865.612	4531
865.743	4641
865.875	4527
866.006	4493
866.137	4493
866.269	4481
866.4	4466
866.531	4466
866.662	4424
866.793	4436
866.924	4474
867.055	4531
867.186	4523
867.317	4470
867.448	4489
867.579	4394
867.71	4455
867.841	4413
867.972	4493
868.103	4512
868.233	4478
868.364	4481
868.495	4523
868.625	4656
868.756	4782
868.886	4573
869.017	4626
869.147	4790
869.278	4801
869.408	4683
869.539	4656
869.669	4755
869.799	4683
869.929	4755
870.06	4725
870.19	4987
870.32	4930
870.45	5006
870.58	5083
870.71	5178
870.84	5121
870.97	4965
871.1	4927
871.23	5189
871.36	5189
871.489	5052
871.619	5060
871.749	5117
871.879	5159
872.008	5231
872.138	5041
872.267	5006
872.397	4862
872.526	4828
872.656	4717
872.785	4908
872.915	4972
873.044	5033
873.173	4957
873.303	4965
873.432	4972
873.561	4949
873.69	4923
873.819	4938
873.948	4957
874.077	4889
874.206	4809
874.335	4801
874.464	4980
874.593	5113
874.722	5010
874.851	5117
874.979	5071
875.108	5094
875.237	4934
875.365	4927
875.494	4911
875.623	4984
875.751	4847
875.88	4934
876.008	5037
876.136	5056
876.265	5227
876.393	5398
876.521	5311
876.65	5239
876.778	5185
876.906	5113
877.034	5071
877.162	5086
877.29	5033
877.418	5098
877.546	5037
877.674	5083
877.802	5056
877.93	5086
878.058	4953
878.185	4938
878.313	4961
878.441	4984
878.568	4873
878.696	4946
878.824	4957
878.951	5003
879.079	5140
879.206	5334
879.333	5083
879.461	5006
879.588	5010
879.715	5159
879.842	5235
879.97	5029
880.097	4801
880.224	4797
880.351	4809
880.478	4850
880.605	4892
880.732	4820
880.859	5128
880.986	4873
881.112	4923
881.239	4790
881.366	4714
881.493	4664
881.619	4603
881.746	4630
881.872	4607
881.999	4668
882.125	4683
882.252	4824
882.378	4896
882.505	4965
882.631	4809
882.757	4660
882.883	4714
883.01	4736
883.136	4717
883.262	4637
883.388	4630
883.514	4828
883.64	4919
883.766	4831
883.892	4683
884.018	4721
884.143	4919
884.269	5071
884.395	4694
884.52	4653
884.646	4664
884.772	4584
884.897	4599
885.023	4683
885.148	4790
885.274	4881
885.399	4809
885.524	4733
885.65	4710
885.775	4782
885.9	4721
886.025	4896
886.15	4771
886.275	4702
886.4	4675
886.525	4752
886.65	4714
886.775	4736
886.9	4892
887.025	5037
887.149	4831
887.274	4649
887.399	4573
887.523	4607
887.648	4630
887.773	4592
887.897	4812
888.021	4809
888.146	4733
888.27	4843
888.395	4961
888.519	4843
888.643	4885
888.767	4828
888.891	4668
889.015	4618
889.139	4664
889.263	4607
889.387	4782
889.511	4904
889.635	4862
889.759	4653
889.883	4630
890.006	4729
890.13	4847
890.254	4626
890.377	4702
890.501	4558
890.624	4554
890.748	4672
890.871	4497
890.995	4440
891.118	4436
891.241	4565
891.364	4561
891.488	4641
891.611	4512
891.734	4577
891.857	4641
891.98	4596
892.103	4656
892.226	4580
892.349	4538
892.471	4459
892.594	4546
892.717	4618
892.839	4611
892.962	4603
893.085	4664
893.207	4615
893.33	4497
893.452	4565
893.575	4679
893.697	4649
893.819	4854
893.941	4824
894.064	4782
894.186	4599
894.308	4584
894.43	4736
894.552	4839
894.674	4816
894.796	4538
894.918	4641
895.04	4599
895.161	4759
895.283	4698
895.405	4618
895.526	4637
895.648	4714
895.769	4736
895.891	4721
896.012	4824
896.134	4774
896.255	4725
896.376	4656
896.498	4615
896.619	4698
896.74	4607
896.861	4641
896.982	4896
897.103	5086
897.224	4866
897.345	4714
897.466	4615
897.587	4736
897.708	4866
897.828	4801
897.949	4698
898.07	4592
898.19	4687
898.311	4854
898.431	4653
898.552	4752
898.672	4847
898.792	4793
898.913	4694
899.033	4653
899.153	4569
899.273	4443
899.393	4523
899.513	4550
899.633	4535
899.753	4588
899.873	4527
899.993	4630
900.113	4535
900.232	4615
900.352	4561
900.472	4459
900.591	4421
900.711	4531
900.83	4432
900.95	4599
901.069	4660
901.189	4535
901.308	4390
901.427	4348
901.546	4386
901.665	4459
901.784	4542
901.904	4356
902.023	4352
902.141	4185
902.26	4242
902.379	4333
902.498	4272
902.617	4234
902.735	4398
902.854	4379
902.973	4379
903.091	4219
903.21	4284
903.328	4348
903.446	4234
903.565	4306
903.683	4409
903.801	4329
903.919	4379
904.038	4428
904.156	4356
904.274	4485
904.392	4402
904.51	4436
904.627	4489
904.745	4573
904.863	4641
904.981	4379
905.098	4318
905.216	4375
905.334	4470
905.451	4409
905.569	4462
905.686	4558
905.803	4596
905.921	4413
906.038	4554
906.155	4474
906.272	4405
906.389	4481
906.506	4352
906.623	4390
906.74	4402
906.857	4318
906.974	4352
907.091	4599
907.208	4687
907.324	4584
907.441	4554
907.557	4344
907.674	4356
907.79	4291
907.907	4333
908.023	4497
908.139	4508
908.256	4462
908.372	4466
908.488	4436
908.604	4352
908.72	4310
908.836	4390
908.952	4417
909.068	4428
909.184	4607
909.3	4493
909.415	4584
909.531	4592
909.647	4371
909.762	4405
909.878	4322
909.993	4428
910.108	4462
910.224	4443
910.339	4523
910.454	4409
910.57	4417
910.685	4257
910.8	4668
910.915	4580
911.03	4489
911.145	4398
911.259	4333
911.374	4398
911.489	4318
911.604	4325
911.718	4173
911.833	4200
911.947	4120
912.062	4025
912.176	4227
912.291	4238
912.405	4295
912.519	4485
912.633	4485
912.748	4421
912.862	4367
912.976	4200
913.09	4139
913.204	4207
913.318	4227
913.431	4402
913.545	4375
913.659	4462
913.772	4405
913.886	4265
914	4215
914.113	4421
914.226	4455
914.34	4379
914.453	4253
914.566	4436
914.68	4318
914.793	4367
914.906	4181
915.019	4105
915.132	4109
915.245	4207
915.358	4204
915.47	4227
915.583	4299
915.696	4325
915.809	4409
915.921	4451
916.034	4276
916.146	4238
916.259	4265
916.371	4455
916.483	4363
916.595	4249
916.708	4303
916.82	4322
916.932	4299
917.044	4352
917.156	4329
917.268	4242
917.38	4272
917.491	4310
917.603	4352
917.715	4390
917.826	4436
917.938	4314
918.049	4272
918.161	4440
918.272	4512
918.384	4554
918.495	4481
918.606	4303
918.717	4215
918.828	4356
918.939	4379
919.05	4322
919.161	4337
919.272	4105
919.383	4284
919.494	4436
919.604	4622
919.715	4459
919.826	4356
919.936	4413
920.047	4546
920.157	4519
920.267	4729
920.378	4561
920.488	4554
920.598	4702
920.708	4892
920.818	4725
920.928	4782
921.038	4946
921.148	4938
921.258	4607
921.368	4569
921.477	4497
921.587	4481
921.697	4390
921.806	4538
921.916	4417
922.025	4272
922.134	4306
922.244	4223
922.353	4341
922.462	4169
922.571	4109
922.68	4036
922.789	3960
922.898	4044
923.007	3994
923.116	4093
923.224	4059
923.333	4086
923.442	4006
923.55	3987
923.659	4036
923.767	4139
923.876	3975
923.984	4116
924.092	4013
924.201	4044
924.309	4101
924.417	4139
924.525	4109
924.633	4093
924.741	5041
924.849	3903
924.956	4109
925.064	3941
925.172	3903
925.279	3975
925.387	4048
925.494	4048
925.602	4261
925.709	4158
925.816	4021
925.924	4166
926.031	4230
926.138	4200
926.245	4242
926.352	4040
926.459	4261
926.566	4272
926.673	4139
926.779	4112
926.886	4078
926.993	3926
927.099	3926
927.206	3876
927.312	3922
927.419	4082
927.525	4013
927.631	4101
927.737	3941
927.843	3949
927.95	3869
928.056	3964
928.162	3972
928.267	4036
928.373	4596
928.479	4173
928.585	3876
928.69	4029
928.796	4067
928.901	4002
929.007	3876
929.112	3994
929.218	3956
929.323	3994
929.428	3979
929.533	4101
929.638	3922
929.743	3937
929.848	4040
929.953	3994
930.058	3926
930.163	3793
930.267	3823
930.372	3998
930.477	3808
930.581	4040
930.685	3930
930.79	3865
930.894	3926
930.998	3869
931.103	4063
931.207	3736
931.311	3698
931.415	3705
931.519	3519
931.623	3519
