Data from test_V78500241_1019.txt Node
Date: Fri Mar 25 16:56:05 CST 2022
User: usil
Spectrometer: V785-0024
Trigger mode: 0
Integration Time (sec): 4.000000E-1
Scans to average: 1
Nonlinearity correction enabled: false
Boxcar width: 0
Storing dark spectrum: false
XAxis mode: Wavelengths
Number of Pixels in Spectrum: 1024
>>>>>Begin Spectral Data<<<<<
801.071	8027
801.214	8081
801.356	7875
801.499	7841
801.641	7753
801.783	7822
801.926	7951
802.068	7833
802.211	7932
802.353	7890
802.496	7795
802.638	7807
802.78	7917
802.923	7860
803.065	7909
803.208	7887
803.35	7982
803.492	8077
803.635	8115
803.777	7963
803.919	8084
804.061	8400
804.204	8069
804.346	8062
804.488	7909
804.63	8092
804.773	8005
804.915	8084
805.057	8259
805.199	8092
805.341	8244
805.483	8263
805.626	8252
805.768	8027
805.91	8202
806.052	8210
806.194	8065
806.336	8233
806.478	8065
806.62	8012
806.762	8084
806.904	8240
807.046	8400
807.188	8332
807.33	8237
807.472	8290
807.614	8126
807.756	8191
807.898	8024
808.04	7822
808.182	7868
808.324	7909
808.465	7856
808.607	8115
808.749	8107
808.891	8214
809.033	8282
809.174	8126
809.316	8069
809.458	7989
809.6	7947
809.741	8005
809.883	8012
810.025	8054
810.166	8039
810.308	8024
810.45	8031
810.591	7849
810.733	7715
810.875	7685
811.016	7480
811.158	7472
811.299	7613
811.441	7651
811.582	7636
811.724	7601
811.865	7495
812.007	7590
812.148	7525
812.29	7616
812.431	7685
812.573	7845
812.714	7940
812.855	8065
812.997	8130
813.138	8218
813.279	8149
813.421	8084
813.562	8043
813.703	7875
813.845	7761
813.986	7396
814.127	7259
814.268	7225
814.41	7164
814.551	7122
814.692	7103
814.833	7042
814.974	7126
815.115	7053
815.256	6973
815.397	6932
815.539	6962
815.68	6795
815.821	6810
815.962	6840
816.103	6749
816.244	6726
816.385	6673
816.526	6597
816.666	6475
816.807	6285
816.948	6483
817.089	6517
817.23	6391
817.371	6388
817.512	6338
817.653	6403
817.793	6319
817.934	6342
818.075	6418
818.216	6414
818.356	6395
818.497	6163
818.638	6117
818.778	6117
818.919	6076
819.06	6152
819.2	6273
819.341	6285
819.481	6407
819.622	6498
819.762	6654
819.903	6688
820.043	6578
820.184	6616
820.324	6559
820.465	6639
820.605	6703
820.746	6574
820.886	6506
821.026	6730
821.167	6730
821.307	6776
821.447	6753
821.588	6665
821.728	6597
821.868	6498
822.008	6277
822.149	6346
822.289	6311
822.429	6129
822.569	6098
822.709	6095
822.849	5904
822.99	5897
823.13	5893
823.27	5923
823.41	5821
823.55	5737
823.69	5794
823.83	5752
823.97	5627
824.11	5535
824.25	5455
824.389	5524
824.529	5554
824.669	5505
824.809	5623
824.949	5649
825.089	5585
825.228	5539
825.368	5349
825.508	5330
825.648	5326
825.787	5376
825.927	5349
826.067	5315
826.206	5235
826.346	5349
826.485	5357
826.625	5406
826.765	5535
826.904	5455
827.044	5239
827.183	5170
827.323	5117
827.462	5162
827.601	5094
827.741	5235
827.88	5216
828.02	5052
828.159	5227
828.298	5277
828.437	5360
828.577	5341
828.716	5440
828.855	5280
828.994	5151
829.134	5189
829.273	5159
829.412	5155
829.551	5121
829.69	5143
829.829	5159
829.968	5353
830.107	5258
830.246	5280
830.385	5193
830.524	5136
830.663	5098
830.802	4984
830.941	4870
831.08	4831
831.219	4927
831.357	4919
831.496	5155
831.635	4881
831.774	4866
831.913	4881
832.051	4706
832.19	4717
832.329	4843
832.467	4656
832.606	4599
832.744	4752
832.883	4698
833.022	4687
833.16	4782
833.299	4809
833.437	4831
833.576	4828
833.714	4870
833.852	4835
833.991	4843
834.129	4957
834.267	4900
834.406	4900
834.544	4961
834.682	4919
834.821	4949
834.959	5140
835.097	4965
835.235	5162
835.373	5075
835.511	5121
835.65	5067
835.788	5045
835.926	4908
836.064	4828
836.202	4885
836.34	5155
836.478	5193
836.615	5105
836.753	5220
836.891	5269
837.029	5208
837.167	5155
837.305	5155
837.443	5121
837.58	5037
837.718	5212
837.856	5174
837.993	5075
838.131	5231
838.269	5189
838.406	5189
838.544	5121
838.681	5060
838.819	4991
838.956	4858
839.094	4870
839.231	4965
839.369	5048
839.506	5410
839.643	5220
839.781	5056
839.918	4995
840.055	5075
840.193	5075
840.33	5071
840.467	5105
840.604	5178
840.742	5433
840.879	5090
841.016	5090
841.153	5124
841.29	5315
841.427	5315
841.564	5277
841.701	5269
841.838	5246
841.975	5181
842.112	5239
842.249	5113
842.385	5147
842.522	5349
842.659	5151
842.796	5090
842.933	5178
843.069	5128
843.206	5117
843.343	5284
843.479	5208
843.616	5269
843.752	5003
843.889	5003
844.025	5193
844.162	4972
844.298	5193
844.435	5025
844.571	5041
844.708	5227
844.844	5258
844.98	5360
845.117	5269
845.253	5094
845.389	5025
845.525	5147
845.661	5140
845.798	5045
845.934	5102
846.07	5064
846.206	5231
846.342	5254
846.478	5235
846.614	5025
846.75	4957
846.886	4999
847.022	5166
847.158	5086
847.294	5056
847.429	5105
847.565	5113
847.701	5398
847.837	4831
847.972	4854
848.108	5006
848.244	4961
848.379	4801
848.515	4740
848.65	4710
848.786	4763
848.921	4809
849.057	4904
849.192	4942
849.328	4790
849.463	4934
849.598	4740
849.734	4801
849.869	4714
850.004	4664
850.14	4698
850.275	4645
850.41	4542
850.545	4577
850.68	4641
850.815	4672
850.95	4664
851.085	4870
851.22	4778
851.355	4675
851.49	4630
851.625	4653
851.76	4649
851.895	4588
852.03	4531
852.165	4679
852.299	4786
852.434	4812
852.569	4774
852.703	4793
852.838	4824
852.973	4953
853.107	4942
853.242	4797
853.376	4706
853.511	4569
853.645	4607
853.78	4801
853.914	4679
854.048	4714
854.183	4656
854.317	4679
854.451	4866
854.585	4668
854.72	4626
854.854	4721
854.988	4634
855.122	4672
855.256	4527
855.39	4679
855.524	4809
855.658	4748
855.792	4744
855.926	4733
856.06	4805
856.194	4809
856.327	4721
856.461	4618
856.595	4649
856.729	4664
856.862	4755
856.996	4694
857.13	4736
857.263	4824
857.397	4824
857.53	4656
857.664	4748
857.797	4820
857.931	4752
858.064	4710
858.197	4786
858.331	4645
858.464	4630
858.597	4538
858.731	4626
858.864	4687
858.997	4592
859.13	4641
859.263	4729
859.396	4702
859.529	4565
859.662	4588
859.795	4588
859.928	4672
860.061	4767
860.194	4839
860.327	4679
860.46	4565
860.592	4763
860.725	4752
860.858	4752
860.99	4584
861.123	4523
861.256	4588
861.388	4599
861.521	5307
861.653	4542
861.786	4455
861.918	4504
862.05	4546
862.183	4554
862.315	4645
862.447	4702
862.58	4592
862.712	4470
862.844	4360
862.976	4504
863.108	4451
863.24	4877
863.372	4314
863.504	4417
863.636	4447
863.768	4500
863.9	4436
864.032	4344
864.164	4390
864.296	4474
864.428	4561
864.559	4588
864.691	4535
864.823	4569
864.954	4558
865.086	4546
865.217	4508
865.349	4455
865.48	4466
865.612	4538
865.743	4634
865.875	4466
866.006	4466
866.137	4516
866.269	4462
866.4	4440
866.531	4432
866.662	4436
866.793	4443
866.924	4451
867.055	4462
867.186	4436
867.317	4459
867.448	4405
867.579	4413
867.71	4375
867.841	4424
867.972	4558
868.103	4497
868.233	4478
868.364	4462
868.495	4462
868.625	4660
868.756	4752
868.886	4607
869.017	4683
869.147	4858
869.278	4736
869.408	4641
869.539	4687
869.669	4694
869.799	4675
869.929	4805
870.06	4748
870.19	4972
870.32	4908
870.45	4972
870.58	5045
870.71	5109
870.84	5102
870.97	4995
871.1	4919
871.23	5174
871.36	5143
871.489	5018
871.619	5067
871.749	5124
871.879	5170
872.008	5189
872.138	5064
872.267	4991
872.397	4900
872.526	4835
872.656	4759
872.785	4809
872.915	4965
873.044	5045
873.173	4972
873.303	4984
873.432	4995
873.561	4987
873.69	4927
873.819	4858
873.948	4949
874.077	4858
874.206	4824
874.335	4835
874.464	4934
874.593	5045
874.722	4934
874.851	5105
874.979	5048
875.108	5010
875.237	4927
875.365	4839
875.494	4900
875.623	5010
875.751	4843
875.88	4877
876.008	4953
876.136	5048
876.265	5208
876.393	5326
876.521	5280
876.65	5277
876.778	5166
876.906	5098
877.034	5014
877.162	5056
877.29	5018
877.418	5056
877.546	5052
877.674	5083
877.802	5041
877.93	5018
878.058	4980
878.185	4877
878.313	4991
878.441	4984
878.568	4850
878.696	4854
878.824	4923
878.951	4961
879.079	5155
879.206	5288
879.333	5105
879.461	5037
879.588	5010
879.715	5098
879.842	5258
879.97	5014
880.097	4809
880.224	4812
880.351	4793
880.478	4824
880.605	4858
880.732	4801
880.859	5128
880.986	4904
881.112	5003
881.239	4759
881.366	4740
881.493	4664
881.619	4592
881.746	4683
881.872	4660
881.999	4736
882.125	4698
882.252	4774
882.378	4824
882.505	4953
882.631	4820
882.757	4710
882.883	4717
883.01	4752
883.136	4687
883.262	4637
883.388	4660
883.514	4801
883.64	4892
883.766	4778
883.892	4717
884.018	4706
884.143	4877
884.269	5041
884.395	4702
884.52	4634
884.646	4637
884.772	4630
884.897	4538
885.023	4675
885.148	4847
885.274	4858
885.399	4812
885.524	4752
885.65	4725
885.775	4755
885.9	4672
886.025	4801
886.15	4793
886.275	4698
886.4	4656
886.525	4733
886.65	4710
886.775	4706
886.9	4934
887.025	5041
887.149	4850
887.274	4672
887.399	4603
887.523	4565
887.648	4622
887.773	4668
887.897	4816
888.021	4835
888.146	4714
888.27	4843
888.395	4911
888.519	4839
888.643	4809
888.767	4847
888.891	4698
889.015	4611
889.139	4694
889.263	4634
889.387	4767
889.511	4885
889.635	4820
889.759	4660
889.883	4634
890.006	4763
890.13	4828
890.254	4641
890.377	4694
890.501	4561
890.624	4527
890.748	4653
890.871	4527
890.995	4489
891.118	4428
891.241	4550
891.364	4565
891.488	4626
891.611	4489
891.734	4538
891.857	4641
891.98	4554
892.103	4672
892.226	4645
892.349	4577
892.471	4432
892.594	4535
892.717	4596
892.839	4554
892.962	4653
893.085	4675
893.207	4622
893.33	4508
893.452	4451
893.575	4626
893.697	4554
893.819	4801
893.941	4767
894.064	4774
894.186	4558
894.308	4592
894.43	4725
894.552	4820
894.674	4767
894.796	4588
894.918	4637
895.04	4561
895.161	4698
895.283	4694
895.405	4596
895.526	4615
895.648	4710
895.769	4736
895.891	4721
896.012	4729
896.134	4706
896.255	4698
896.376	4649
896.498	4645
896.619	4649
896.74	4618
896.861	4641
896.982	4930
897.103	5083
897.224	4892
897.345	4767
897.466	4634
897.587	4748
897.708	4889
897.828	4793
897.949	4702
898.07	4577
898.19	4637
898.311	4858
898.431	4714
898.552	4767
898.672	4877
898.792	4812
898.913	4774
899.033	4634
899.153	4474
899.273	4474
899.393	4538
899.513	4554
899.633	4512
899.753	4538
899.873	4550
899.993	4554
900.113	4516
900.232	4618
900.352	4577
900.472	4497
900.591	4379
900.711	4485
900.83	4451
900.95	4569
901.069	4740
901.189	4512
901.308	4405
901.427	4363
901.546	4367
901.665	4459
901.784	4550
901.904	4360
902.023	4299
902.141	4185
902.26	4169
902.379	4303
902.498	4200
902.617	4223
902.735	4398
902.854	4451
902.973	4367
903.091	4234
903.21	4272
903.328	4318
903.446	4280
903.565	4299
903.683	4375
903.801	4295
903.919	4402
904.038	4424
904.156	4303
904.274	4462
904.392	4390
904.51	4470
904.627	4466
904.745	4630
904.863	4603
904.981	4379
905.098	4322
905.216	4337
905.334	4440
905.451	4459
905.569	4424
905.686	4592
905.803	4523
905.921	4417
906.038	4554
906.155	4500
906.272	4402
906.389	4481
906.506	4417
906.623	4428
906.74	4413
906.857	4379
906.974	4424
907.091	4607
907.208	4679
907.324	4634
907.441	4443
907.557	4356
907.674	4379
907.79	4329
907.907	4375
908.023	4481
908.139	4493
908.256	4421
908.372	4470
908.488	4451
908.604	4314
908.72	4322
908.836	4367
908.952	4383
909.068	4474
909.184	4592
909.3	4474
909.415	4580
909.531	4538
909.647	4375
909.762	4394
909.878	4348
909.993	4447
910.108	4443
910.224	4402
910.339	4485
910.454	4462
910.57	4398
910.685	4272
910.8	4656
910.915	4588
911.03	4523
911.145	4337
911.259	4348
911.374	4398
911.489	4268
911.604	4265
911.718	4169
911.833	4181
911.947	4124
912.062	4013
912.176	4223
912.291	4242
912.405	4246
912.519	4512
912.633	4546
912.748	4333
912.862	4314
912.976	4261
913.09	4059
913.204	4204
913.318	4272
913.431	4363
913.545	4383
913.659	4451
913.772	4348
913.886	4261
914	4234
914.113	4356
914.226	4413
914.34	4417
914.453	4276
914.566	4451
914.68	4337
914.793	4325
914.906	4181
915.019	4166
915.132	4078
915.245	4154
915.358	4211
915.47	4238
915.583	4306
915.696	4265
915.809	4466
915.921	4481
916.034	4265
916.146	4318
916.259	4215
916.371	4375
916.483	4344
916.595	4352
916.708	4394
916.82	4329
916.932	4348
917.044	4363
917.156	4386
917.268	4272
917.38	4295
917.491	4291
917.603	4398
917.715	4413
917.826	4478
917.938	4360
918.049	4284
918.161	4424
918.272	4584
918.384	4531
918.495	4470
918.606	4348
918.717	4291
918.828	4402
918.939	4394
919.05	4253
919.161	4310
919.272	4162
919.383	4265
919.494	4459
919.604	4607
919.715	4519
919.826	4405
919.936	4470
920.047	4584
920.157	4504
920.267	4694
920.378	4569
920.488	4531
920.598	4790
920.708	4957
920.818	4805
920.928	4854
921.038	4965
921.148	4976
921.258	4618
921.368	4615
921.477	4558
921.587	4500
921.697	4413
921.806	4588
921.916	4459
922.025	4272
922.134	4303
922.244	4272
922.353	4367
922.462	4188
922.571	4166
922.68	4074
922.789	4010
922.898	4051
923.007	4032
923.116	4131
923.224	4074
923.333	4071
923.442	4002
923.55	3998
923.659	4090
923.767	4150
923.876	4021
923.984	4135
924.092	4036
924.201	4059
924.309	4124
924.417	4181
924.525	4101
924.633	4120
924.741	5094
924.849	3937
924.956	4131
925.064	4029
925.172	3937
925.279	4021
925.387	4120
925.494	4093
925.602	4211
925.709	4268
925.816	4078
925.924	4169
926.031	4249
926.138	4185
926.245	4249
926.352	4147
926.459	4299
926.566	4295
926.673	4173
926.779	4105
926.886	4086
926.993	4002
927.099	3975
927.206	3979
927.312	3972
927.419	4135
927.525	4010
927.631	4139
927.737	4002
927.843	3979
927.95	3861
928.056	4013
928.162	4029
928.267	4086
928.373	4729
928.479	4147
928.585	3915
928.69	4063
928.796	4143
928.901	3983
929.007	3896
929.112	4071
929.218	4006
929.323	3972
929.428	3979
929.533	4177
929.638	3998
929.743	3975
929.848	4078
929.953	4040
930.058	4006
930.163	3804
930.267	3869
930.372	3991
930.477	3808
930.581	4090
930.685	4036
930.79	3876
930.894	3888
930.998	3854
931.103	4097
931.207	3743
931.311	3751
931.415	3686
931.519	3564
931.623	3553
