Data from test_V78500241_1507.txt Node
Date: Fri Mar 25 16:59:28 CST 2022
User: usil
Spectrometer: V785-0024
Trigger mode: 0
Integration Time (sec): 4.000000E-1
Scans to average: 1
Nonlinearity correction enabled: false
Boxcar width: 0
Storing dark spectrum: false
XAxis mode: Wavelengths
Number of Pixels in Spectrum: 1024
>>>>>Begin Spectral Data<<<<<
801.071	7993
801.214	7967
801.356	7849
801.499	7841
801.641	7818
801.783	7833
801.926	7940
802.068	7925
802.211	7925
802.353	7967
802.496	7769
802.638	7818
802.78	7932
802.923	7925
803.065	7944
803.208	7845
803.35	7898
803.492	8046
803.635	8115
803.777	8008
803.919	8062
804.061	8355
804.204	8123
804.346	8077
804.488	7947
804.63	8016
804.773	7944
804.915	8142
805.057	8267
805.199	8088
805.341	8164
805.483	8183
805.626	8145
805.768	8050
805.91	8202
806.052	8187
806.194	8107
806.336	8271
806.478	8043
806.62	8062
806.762	8062
806.904	8259
807.046	8446
807.188	8362
807.33	8298
807.472	8256
807.614	8069
807.756	8134
807.898	8043
808.04	7890
808.182	7951
808.324	7868
808.465	7967
808.607	8054
808.749	8058
808.891	8130
809.033	8248
809.174	8191
809.316	8035
809.458	8043
809.6	8031
809.741	8046
809.883	7993
810.025	8073
810.166	8054
810.308	8005
810.45	8058
810.591	7792
810.733	7708
810.875	7658
811.016	7495
811.158	7468
811.299	7590
811.441	7693
811.582	7620
811.724	7620
811.865	7548
812.007	7578
812.148	7590
812.29	7609
812.431	7742
812.573	7879
812.714	8005
812.855	8088
812.997	8153
813.138	8370
813.279	8134
813.421	8119
813.562	7936
813.703	7845
813.845	7712
813.986	7400
814.127	7236
814.268	7244
814.41	7168
814.551	7114
814.692	7240
814.833	7084
814.974	7168
815.115	7095
815.256	6981
815.397	6894
815.539	6924
815.68	6806
815.821	6764
815.962	6878
816.103	6814
816.244	6764
816.385	6604
816.526	6646
816.666	6486
816.807	6311
816.948	6525
817.089	6429
817.23	6460
817.371	6426
817.512	6391
817.653	6323
817.793	6338
817.934	6418
818.075	6433
818.216	6418
818.356	6338
818.497	6190
818.638	6136
818.778	6148
818.919	6083
819.06	6117
819.2	6346
819.341	6369
819.481	6350
819.622	6525
819.762	6623
819.903	6749
820.043	6582
820.184	6604
820.324	6559
820.465	6612
820.605	6700
820.746	6639
820.886	6490
821.026	6612
821.167	6700
821.307	6768
821.447	6719
821.588	6662
821.728	6559
821.868	6464
822.008	6319
822.149	6384
822.289	6346
822.429	6125
822.569	6045
822.709	6076
822.849	5870
822.99	5897
823.13	5942
823.27	5870
823.41	5775
823.55	5745
823.69	5760
823.83	5775
823.97	5646
824.11	5539
824.25	5459
824.389	5543
824.529	5528
824.669	5486
824.809	5638
824.949	5657
825.089	5596
825.228	5501
825.368	5391
825.508	5265
825.648	5299
825.787	5372
825.927	5322
826.067	5330
826.206	5250
826.346	5353
826.485	5433
826.625	5353
826.765	5509
826.904	5425
827.044	5265
827.183	5212
827.323	5166
827.462	5280
827.601	5170
827.741	5151
827.88	5220
828.02	5124
828.159	5223
828.298	5269
828.437	5334
828.577	5288
828.716	5463
828.855	5292
828.994	5174
829.134	5105
829.273	5178
829.412	5159
829.551	5117
829.69	5166
829.829	5242
829.968	5326
830.107	5273
830.246	5269
830.385	5121
830.524	5060
830.663	5037
830.802	5022
830.941	4904
831.08	4866
831.219	5022
831.357	4961
831.496	5140
831.635	4915
831.774	4797
831.913	4847
832.051	4725
832.19	4691
832.329	4809
832.467	4622
832.606	4596
832.744	4717
832.883	4736
833.022	4725
833.16	4816
833.299	4805
833.437	4812
833.576	4831
833.714	4835
833.852	4919
833.991	4873
834.129	4957
834.267	4911
834.406	4862
834.544	4965
834.682	4957
834.821	4930
834.959	5128
835.097	4968
835.235	5174
835.373	5075
835.511	5086
835.65	4953
835.788	5037
835.926	4911
836.064	4870
836.202	4923
836.34	5117
836.478	5201
836.615	5132
836.753	5208
836.891	5273
837.029	5265
837.167	5174
837.305	5147
837.443	5105
837.58	5064
837.718	5258
837.856	5197
837.993	5136
838.131	5220
838.269	5204
838.406	5204
838.544	5162
838.681	5029
838.819	5003
838.956	4843
839.094	4870
839.231	4965
839.369	5071
839.506	5459
839.643	5223
839.781	5060
839.918	5041
840.055	5037
840.193	5056
840.33	5151
840.467	5113
840.604	5208
840.742	5444
840.879	5083
841.016	5102
841.153	5124
841.29	5349
841.427	5296
841.564	5303
841.701	5383
841.838	5280
841.975	5227
842.112	5307
842.249	5132
842.385	5098
842.522	5299
842.659	5185
842.796	5098
842.933	5185
843.069	5117
843.206	5140
843.343	5246
843.479	5242
843.616	5231
843.752	5064
843.889	4972
844.025	5178
844.162	5037
844.298	5220
844.435	5075
844.571	5048
844.708	5185
844.844	5292
844.98	5296
845.117	5296
845.253	5098
845.389	5052
845.525	5128
845.661	5090
845.798	5022
845.934	5067
846.07	5003
846.206	5193
846.342	5303
846.478	5155
846.614	5022
846.75	4995
846.886	4889
847.022	5113
847.158	5041
847.294	5045
847.429	5079
847.565	5056
847.701	5299
847.837	4824
847.972	4809
848.108	4980
848.244	4919
848.379	4767
848.515	4687
848.65	4656
848.786	4752
848.921	4767
849.057	4885
849.192	4904
849.328	4782
849.463	4801
849.598	4831
849.734	4763
849.869	4656
850.004	4584
850.14	4615
850.275	4584
850.41	4535
850.545	4546
850.68	4641
850.815	4599
850.95	4588
851.085	4774
851.22	4767
851.355	4733
851.49	4607
851.625	4618
851.76	4565
851.895	4542
852.03	4565
852.165	4634
852.299	4668
852.434	4759
852.569	4729
852.703	4786
852.838	4816
852.973	4927
853.107	4919
853.242	4729
853.376	4626
853.511	4546
853.645	4622
853.78	4816
853.914	4691
854.048	4645
854.183	4668
854.317	4668
854.451	4801
854.585	4706
854.72	4641
854.854	4725
854.988	4603
855.122	4622
855.256	4519
855.39	4607
855.524	4748
855.658	4687
855.792	4649
855.926	4706
856.06	4736
856.194	4797
856.327	4664
856.461	4618
856.595	4630
856.729	4596
856.862	4736
856.996	4668
857.13	4733
857.263	4736
857.397	4736
857.53	4683
857.664	4694
857.797	4774
857.931	4782
858.064	4664
858.197	4721
858.331	4622
858.464	4558
858.597	4478
858.731	4653
858.864	4592
858.997	4599
859.13	4679
859.263	4683
859.396	4656
859.529	4550
859.662	4577
859.795	4485
859.928	4561
860.061	4714
860.194	4744
860.327	4630
860.46	4558
860.592	4653
860.725	4752
860.858	4668
860.99	4630
861.123	4500
861.256	4500
861.388	4596
861.521	5261
861.653	4478
861.786	4375
861.918	4474
862.05	4516
862.183	4512
862.315	4599
862.447	4637
862.58	4584
862.712	4436
862.844	4341
862.976	4474
863.108	4440
863.24	4763
863.372	4333
863.504	4394
863.636	4371
863.768	4485
863.9	4417
864.032	4329
864.164	4379
864.296	4474
864.428	4554
864.559	4558
864.691	4565
864.823	4462
864.954	4478
865.086	4459
865.217	4497
865.349	4432
865.48	4481
865.612	4481
865.743	4577
865.875	4459
866.006	4383
866.137	4459
866.269	4440
866.4	4409
866.531	4424
866.662	4352
866.793	4455
866.924	4474
867.055	4474
867.186	4436
867.317	4409
867.448	4348
867.579	4367
867.71	4421
867.841	4409
867.972	4451
868.103	4466
868.233	4451
868.364	4428
868.495	4485
868.625	4679
868.756	4729
868.886	4573
869.017	4592
869.147	4797
869.278	4714
869.408	4672
869.539	4618
869.669	4721
869.799	4683
869.929	4698
870.06	4706
870.19	4965
870.32	4896
870.45	4915
870.58	4991
870.71	5090
870.84	5079
870.97	4919
871.1	4866
871.23	5136
871.36	5067
871.489	5010
871.619	5083
871.749	5045
871.879	5102
872.008	5140
872.138	5041
872.267	4953
872.397	4862
872.526	4843
872.656	4710
872.785	4809
872.915	4927
873.044	4995
873.173	4965
873.303	4953
873.432	4923
873.561	4949
873.69	4908
873.819	4870
873.948	4877
874.077	4847
874.206	4717
874.335	4759
874.464	4934
874.593	5056
874.722	4919
874.851	5064
874.979	5041
875.108	4987
875.237	4828
875.365	4915
875.494	4862
875.623	5003
875.751	4801
875.88	4858
876.008	4881
876.136	4984
876.265	5159
876.393	5250
876.521	5242
876.65	5220
876.778	5174
876.906	5075
877.034	4949
877.162	4980
877.29	4968
877.418	5045
877.546	4995
877.674	4987
877.802	5041
877.93	5003
878.058	4911
878.185	4831
878.313	4923
878.441	4911
878.568	4736
878.696	4831
878.824	4892
878.951	4961
879.079	5113
879.206	5258
879.333	5052
879.461	5006
879.588	4987
879.715	5109
879.842	5189
879.97	5033
880.097	4797
880.224	4748
880.351	4774
880.478	4862
880.605	4816
880.732	4744
880.859	5079
880.986	4862
881.112	4885
881.239	4778
881.366	4683
881.493	4615
881.619	4626
881.746	4641
881.872	4634
881.999	4698
882.125	4683
882.252	4786
882.378	4790
882.505	4968
882.631	4763
882.757	4611
882.883	4729
883.01	4710
883.136	4656
883.262	4599
883.388	4641
883.514	4809
883.64	4839
883.766	4793
883.892	4618
884.018	4748
884.143	4908
884.269	5025
884.395	4653
884.52	4630
884.646	4702
884.772	4588
884.897	4569
885.023	4706
885.148	4771
885.274	4881
885.399	4820
885.524	4759
885.65	4714
885.775	4744
885.9	4725
886.025	4881
886.15	4835
886.275	4744
886.4	4710
886.525	4744
886.65	4702
886.775	4725
886.9	4949
887.025	5041
887.149	4835
887.274	4679
887.399	4611
887.523	4630
887.648	4546
887.773	4641
887.897	4847
888.021	4801
888.146	4702
888.27	4850
888.395	4923
888.519	4831
888.643	4866
888.767	4824
888.891	4691
889.015	4668
889.139	4683
889.263	4599
889.387	4797
889.511	4866
889.635	4843
889.759	4721
889.883	4679
890.006	4778
890.13	4877
890.254	4653
890.377	4721
890.501	4561
890.624	4531
890.748	4702
890.871	4512
890.995	4443
891.118	4405
891.241	4569
891.364	4565
891.488	4668
891.611	4493
891.734	4615
891.857	4615
891.98	4584
892.103	4683
892.226	4626
892.349	4538
892.471	4485
892.594	4580
892.717	4618
892.839	4637
892.962	4603
893.085	4672
893.207	4698
893.33	4493
893.452	4577
893.575	4679
893.697	4618
893.819	4790
893.941	4839
894.064	4793
894.186	4618
894.308	4584
894.43	4725
894.552	4881
894.674	4767
894.796	4573
894.918	4630
895.04	4611
895.161	4733
895.283	4736
895.405	4565
895.526	4698
895.648	4721
895.769	4656
895.891	4736
896.012	4767
896.134	4778
896.255	4698
896.376	4675
896.498	4653
896.619	4733
896.74	4634
896.861	4668
896.982	4942
897.103	5113
897.224	4831
897.345	4790
897.466	4698
897.587	4801
897.708	4885
897.828	4786
897.949	4721
898.07	4607
898.19	4653
898.311	4850
898.431	4672
898.552	4717
898.672	4873
898.792	4870
898.913	4740
899.033	4656
899.153	4500
899.273	4470
899.393	4538
899.513	4527
899.633	4527
899.753	4558
899.873	4527
899.993	4615
900.113	4558
900.232	4569
900.352	4558
900.472	4470
900.591	4421
900.711	4523
900.83	4462
900.95	4618
901.069	4736
901.189	4565
901.308	4402
901.427	4344
901.546	4440
901.665	4443
901.784	4535
901.904	4375
902.023	4379
902.141	4234
902.26	4211
902.379	4363
902.498	4280
902.617	4242
902.735	4394
902.854	4424
902.973	4417
903.091	4215
903.21	4265
903.328	4333
903.446	4318
903.565	4257
903.683	4436
903.801	4310
903.919	4455
904.038	4459
904.156	4303
904.274	4440
904.392	4436
904.51	4512
904.627	4512
904.745	4630
904.863	4634
904.981	4413
905.098	4356
905.216	4356
905.334	4447
905.451	4481
905.569	4459
905.686	4558
905.803	4599
905.921	4443
906.038	4588
906.155	4573
906.272	4440
906.389	4474
906.506	4344
906.623	4417
906.74	4405
906.857	4325
906.974	4360
907.091	4561
907.208	4702
907.324	4599
907.441	4546
907.557	4394
907.674	4405
907.79	4310
907.907	4386
908.023	4512
908.139	4531
908.256	4478
908.372	4523
908.488	4478
908.604	4413
908.72	4352
908.836	4455
908.952	4360
909.068	4390
909.184	4569
909.3	4500
909.415	4622
909.531	4573
909.647	4360
909.762	4352
909.878	4322
909.993	4417
910.108	4447
910.224	4409
910.339	4485
910.454	4440
910.57	4371
910.685	4417
910.8	4668
910.915	4637
911.03	4474
911.145	4322
911.259	4375
911.374	4348
911.489	4310
911.604	4318
911.718	4215
911.833	4230
911.947	4143
912.062	4055
912.176	4261
912.291	4257
912.405	4257
912.519	4500
912.633	4527
912.748	4402
912.862	4360
912.976	4200
913.09	4128
913.204	4268
913.318	4284
913.431	4383
913.545	4402
913.659	4417
913.772	4394
913.886	4276
914	4227
914.113	4383
914.226	4493
914.34	4402
914.453	4303
914.566	4428
914.68	4325
914.793	4363
914.906	4230
915.019	4147
915.132	4131
915.245	4215
915.358	4242
915.47	4329
915.583	4299
915.696	4314
915.809	4459
915.921	4481
916.034	4280
916.146	4310
916.259	4253
916.371	4348
916.483	4352
916.595	4253
916.708	4375
916.82	4360
916.932	4344
917.044	4352
917.156	4363
917.268	4234
917.38	4287
917.491	4272
917.603	4383
917.715	4402
917.826	4466
917.938	4318
918.049	4249
918.161	4405
918.272	4592
918.384	4558
918.495	4493
918.606	4344
918.717	4261
918.828	4363
918.939	4352
919.05	4295
919.161	4383
919.272	4162
919.383	4227
919.494	4497
919.604	4668
919.715	4443
919.826	4299
919.936	4447
920.047	4558
920.157	4481
920.267	4706
920.378	4558
920.488	4546
920.598	4694
920.708	4889
920.818	4778
920.928	4771
921.038	4984
921.148	4911
921.258	4615
921.368	4618
921.477	4554
921.587	4424
921.697	4367
921.806	4588
921.916	4440
922.025	4337
922.134	4272
922.244	4272
922.353	4375
922.462	4200
922.571	4169
922.68	4010
922.789	4029
922.898	4071
923.007	4029
923.116	4166
923.224	4051
923.333	4116
923.442	4013
923.55	4021
923.659	4048
923.767	4143
923.876	4044
923.984	4158
924.092	4006
924.201	4082
924.309	4154
924.417	4158
924.525	4101
924.633	4116
924.741	4892
924.849	3899
924.956	4139
925.064	4048
925.172	3972
925.279	3979
925.387	4067
925.494	4051
925.602	4215
925.709	4207
925.816	4032
925.924	4135
926.031	4318
926.138	4158
926.245	4253
926.352	4124
926.459	4310
926.566	4314
926.673	4177
926.779	4090
926.886	4124
926.993	4006
927.099	3972
927.206	3968
927.312	3956
927.419	4040
927.525	4067
927.631	4116
927.737	3968
927.843	3964
927.95	3892
928.056	3953
928.162	3979
928.267	4086
928.373	4626
928.479	4173
928.585	3884
928.69	4021
928.796	4097
928.901	3949
929.007	3880
929.112	4017
929.218	3930
929.323	3937
929.428	3972
929.533	4147
929.638	3941
929.743	3975
929.848	4048
929.953	3998
930.058	3930
930.163	3842
930.267	3850
930.372	4032
930.477	3816
930.581	4097
930.685	3972
930.79	3842
930.894	3873
930.998	3899
931.103	4048
931.207	3728
931.311	3728
931.415	3660
931.519	3549
931.623	3542
