Data from test_V78500241_1756.txt Node
Date: Fri Mar 25 17:01:12 CST 2022
User: usil
Spectrometer: V785-0024
Trigger mode: 0
Integration Time (sec): 4.000000E-1
Scans to average: 1
Nonlinearity correction enabled: false
Boxcar width: 0
Storing dark spectrum: false
XAxis mode: Wavelengths
Number of Pixels in Spectrum: 1024
>>>>>Begin Spectral Data<<<<<
801.071	7993
801.214	7974
801.356	7833
801.499	7887
801.641	7803
801.783	7860
801.926	7978
802.068	7970
802.211	7951
802.353	8001
802.496	7818
802.638	7868
802.78	7967
802.923	7967
803.065	7860
803.208	7807
803.35	8005
803.492	8096
803.635	8103
803.777	7986
803.919	8153
804.061	8423
804.204	8138
804.346	8020
804.488	7944
804.63	8046
804.773	8081
804.915	8088
805.057	8294
805.199	8092
805.341	8210
805.483	8195
805.626	8119
805.768	8081
805.91	8149
806.052	8210
806.194	8100
806.336	8248
806.478	8119
806.62	8016
806.762	8088
806.904	8267
807.046	8469
807.188	8366
807.33	8301
807.472	8332
807.614	8176
807.756	8157
807.898	8012
808.04	7811
808.182	7928
808.324	7902
808.465	7830
808.607	8081
808.749	8100
808.891	8180
809.033	8286
809.174	8290
809.316	8065
809.458	8084
809.6	7974
809.741	8027
809.883	7986
810.025	8058
810.166	8062
810.308	7974
810.45	7955
810.591	7826
810.733	7731
810.875	7677
811.016	7586
811.158	7495
811.299	7616
811.441	7734
811.582	7624
811.724	7590
811.865	7540
812.007	7533
812.148	7518
812.29	7582
812.431	7670
812.573	7909
812.714	7970
812.855	8077
812.997	8221
813.138	8294
813.279	8206
813.421	8065
813.562	7989
813.703	7814
813.845	7727
813.986	7369
814.127	7187
814.268	7225
814.41	7168
814.551	7221
814.692	7171
814.833	7129
814.974	7103
815.115	7080
815.256	6935
815.397	6878
815.539	6954
815.68	6848
815.821	6764
815.962	6848
816.103	6791
816.244	6669
816.385	6620
816.526	6601
816.666	6517
816.807	6315
816.948	6429
817.089	6452
817.23	6353
817.371	6311
817.512	6399
817.653	6410
817.793	6319
817.934	6369
818.075	6498
818.216	6422
818.356	6372
818.497	6270
818.638	6117
818.778	6125
818.919	6114
819.06	6152
819.2	6228
819.341	6331
819.481	6334
819.622	6513
819.762	6696
819.903	6715
820.043	6559
820.184	6589
820.324	6589
820.465	6673
820.605	6677
820.746	6654
820.886	6536
821.026	6650
821.167	6673
821.307	6791
821.447	6779
821.588	6597
821.728	6574
821.868	6502
822.008	6331
822.149	6338
822.289	6357
822.429	6129
822.569	6057
822.709	6140
822.849	5828
822.99	5878
823.13	5866
823.27	5912
823.41	5718
823.55	5748
823.69	5737
823.83	5737
823.97	5672
824.11	5490
824.25	5524
824.389	5490
824.529	5596
824.669	5535
824.809	5600
824.949	5627
825.089	5581
825.228	5486
825.368	5398
825.508	5349
825.648	5318
825.787	5364
825.927	5357
826.067	5265
826.206	5239
826.346	5299
826.485	5433
826.625	5357
826.765	5505
826.904	5398
827.044	5197
827.183	5170
827.323	5083
827.462	5201
827.601	5121
827.741	5151
827.88	5185
828.02	5086
828.159	5235
828.298	5296
828.437	5330
828.577	5292
828.716	5455
828.855	5299
828.994	5124
829.134	5109
829.273	5193
829.412	5128
829.551	5136
829.69	5098
829.829	5223
829.968	5307
830.107	5239
830.246	5242
830.385	5181
830.524	5052
830.663	5029
830.802	4995
830.941	4873
831.08	4885
831.219	4946
831.357	4984
831.496	5109
831.635	4934
831.774	4820
831.913	4843
832.051	4687
832.19	4706
832.329	4835
832.467	4675
832.606	4645
832.744	4702
832.883	4714
833.022	4767
833.16	4755
833.299	4771
833.437	4790
833.576	4805
833.714	4854
833.852	4812
833.991	4927
834.129	4991
834.267	4968
834.406	4911
834.544	4999
834.682	5006
834.821	4984
834.959	5189
835.097	5022
835.235	5155
835.373	5113
835.511	5094
835.65	5003
835.788	5037
835.926	4919
836.064	4847
836.202	4968
836.34	5151
836.478	5250
836.615	5143
836.753	5246
836.891	5318
837.029	5269
837.167	5197
837.305	5220
837.443	5159
837.58	5121
837.718	5296
837.856	5216
837.993	5155
838.131	5284
838.269	5227
838.406	5208
838.544	5204
838.681	5090
838.819	5102
838.956	4915
839.094	4934
839.231	5041
839.369	5143
839.506	5368
839.643	5261
839.781	5056
839.918	5086
840.055	5102
840.193	5140
840.33	5102
840.467	5124
840.604	5235
840.742	5524
840.879	5147
841.016	5113
841.153	5220
841.29	5391
841.427	5395
841.564	5372
841.701	5410
841.838	5246
841.975	5269
842.112	5296
842.249	5193
842.385	5128
842.522	5337
842.659	5170
842.796	5212
842.933	5231
843.069	5178
843.206	5185
843.343	5299
843.479	5303
843.616	5315
843.752	5109
843.889	5029
844.025	5201
844.162	5006
844.298	5242
844.435	5185
844.571	5128
844.708	5242
844.844	5337
844.98	5379
845.117	5307
845.253	5216
845.389	5124
845.525	5197
845.661	5181
845.798	5045
845.934	5174
846.07	5048
846.206	5185
846.342	5322
846.478	5140
846.614	5033
846.75	5033
846.886	5003
847.022	5132
847.158	4991
847.294	5109
847.429	5071
847.565	5098
847.701	5330
847.837	4889
847.972	4854
848.108	4991
848.244	4961
848.379	4793
848.515	4778
848.65	4755
848.786	4778
848.921	4763
849.057	4911
849.192	4873
849.328	4820
849.463	4866
849.598	4805
849.734	4797
849.869	4653
850.004	4656
850.14	4702
850.275	4645
850.41	4561
850.545	4592
850.68	4592
850.815	4664
850.95	4660
851.085	4911
851.22	4816
851.355	4675
851.49	4664
851.625	4660
851.76	4687
851.895	4599
852.03	4565
852.165	4691
852.299	4786
852.434	4824
852.569	4763
852.703	4797
852.838	4820
852.973	4942
853.107	4930
853.242	4729
853.376	4691
853.511	4538
853.645	4660
853.78	4850
853.914	4702
854.048	4679
854.183	4653
854.317	4717
854.451	4904
854.585	4736
854.72	4664
854.854	4831
854.988	4626
855.122	4687
855.256	4542
855.39	4675
855.524	4809
855.658	4725
855.792	4694
855.926	4778
856.06	4809
856.194	4866
856.327	4748
856.461	4649
856.595	4660
856.729	4664
856.862	4774
856.996	4725
857.13	4759
857.263	4809
857.397	4839
857.53	4691
857.664	4740
857.797	4831
857.931	4828
858.064	4740
858.197	4767
858.331	4641
858.464	4656
858.597	4580
858.731	4710
858.864	4645
858.997	4649
859.13	4714
859.263	4717
859.396	4649
859.529	4596
859.662	4508
859.795	4618
859.928	4603
860.061	4748
860.194	4740
860.327	4637
860.46	4603
860.592	4748
860.725	4755
860.858	4717
860.99	4615
861.123	4523
861.256	4565
861.388	4645
861.521	5345
861.653	4500
861.786	4421
861.918	4470
862.05	4577
862.183	4569
862.315	4641
862.447	4706
862.58	4588
862.712	4470
862.844	4352
862.976	4512
863.108	4485
863.24	4927
863.372	4390
863.504	4451
863.636	4421
863.768	4485
863.9	4417
864.032	4394
864.164	4428
864.296	4546
864.428	4561
864.559	4500
864.691	4546
864.823	4542
864.954	4485
865.086	4577
865.217	4489
865.349	4470
865.48	4443
865.612	4508
865.743	4672
865.875	4508
866.006	4428
866.137	4466
866.269	4432
866.4	4493
866.531	4462
866.662	4436
866.793	4478
866.924	4462
867.055	4561
867.186	4451
867.317	4455
867.448	4402
867.579	4428
867.71	4402
867.841	4390
867.972	4481
868.103	4504
868.233	4508
868.364	4447
868.495	4569
868.625	4691
868.756	4759
868.886	4618
869.017	4714
869.147	4744
869.278	4774
869.408	4744
869.539	4710
869.669	4687
869.799	4694
869.929	4729
870.06	4748
870.19	4976
870.32	4919
870.45	4953
870.58	5067
870.71	5086
870.84	5083
870.97	5018
871.1	4858
871.23	5124
871.36	5162
871.489	5052
871.619	5143
871.749	5136
871.879	5113
872.008	5201
872.138	5064
872.267	4999
872.397	4854
872.526	4793
872.656	4733
872.785	4801
872.915	4961
873.044	5064
873.173	4965
873.303	5010
873.432	4968
873.561	4999
873.69	4911
873.819	4866
873.948	4934
874.077	4866
874.206	4778
874.335	4831
874.464	4949
874.593	5086
874.722	4995
874.851	5181
874.979	5033
875.108	5060
875.237	4961
875.365	4885
875.494	4889
875.623	4972
875.751	4767
875.88	4870
876.008	5018
876.136	5048
876.265	5223
876.393	5337
876.521	5261
876.65	5280
876.778	5124
876.906	5124
877.034	5037
877.162	5083
877.29	5033
877.418	5094
877.546	5075
877.674	5117
877.802	5056
877.93	5056
878.058	4957
878.185	4881
878.313	4953
878.441	4961
878.568	4828
878.696	4885
878.824	5006
878.951	5041
879.079	5143
879.206	5357
879.333	5083
879.461	4980
879.588	5056
879.715	5143
879.842	5269
879.97	4984
880.097	4793
880.224	4786
880.351	4847
880.478	4843
880.605	4778
880.732	4828
880.859	5083
880.986	4881
881.112	4915
881.239	4790
881.366	4725
881.493	4611
881.619	4611
881.746	4679
881.872	4649
881.999	4664
882.125	4714
882.252	4797
882.378	4892
882.505	4991
882.631	4862
882.757	4714
882.883	4725
883.01	4771
883.136	4702
883.262	4615
883.388	4694
883.514	4847
883.64	4896
883.766	4801
883.892	4649
884.018	4767
884.143	4900
884.269	5018
884.395	4683
884.52	4687
884.646	4656
884.772	4664
884.897	4573
885.023	4748
885.148	4790
885.274	4896
885.399	4831
885.524	4774
885.65	4748
885.775	4729
885.9	4729
886.025	4896
886.15	4824
886.275	4725
886.4	4675
886.525	4767
886.65	4706
886.775	4664
886.9	4946
887.025	5056
887.149	4809
887.274	4679
887.399	4596
887.523	4588
887.648	4569
887.773	4649
887.897	4759
888.021	4831
888.146	4672
888.27	4839
888.395	4911
888.519	4862
888.643	4862
888.767	4892
888.891	4691
889.015	4611
889.139	4634
889.263	4634
889.387	4801
889.511	4885
889.635	4816
889.759	4660
889.883	4691
890.006	4706
890.13	4889
890.254	4599
890.377	4649
890.501	4535
890.624	4550
890.748	4668
890.871	4504
890.995	4462
891.118	4417
891.241	4489
891.364	4573
891.488	4649
891.611	4481
891.734	4577
891.857	4630
891.98	4546
892.103	4634
892.226	4599
892.349	4554
892.471	4447
892.594	4546
892.717	4660
892.839	4607
892.962	4637
893.085	4660
893.207	4573
893.33	4497
893.452	4538
893.575	4683
893.697	4569
893.819	4809
893.941	4885
894.064	4759
894.186	4607
894.308	4558
894.43	4752
894.552	4843
894.674	4786
894.796	4527
894.918	4577
895.04	4615
895.161	4717
895.283	4656
895.405	4550
895.526	4634
895.648	4660
895.769	4675
895.891	4679
896.012	4782
896.134	4759
896.255	4702
896.376	4634
896.498	4637
896.619	4664
896.74	4584
896.861	4664
896.982	4915
897.103	5079
897.224	4866
897.345	4778
897.466	4645
897.587	4714
897.708	4908
897.828	4786
897.949	4660
898.07	4611
898.19	4660
898.311	4854
898.431	4668
898.552	4744
898.672	4847
898.792	4820
898.913	4790
899.033	4592
899.153	4527
899.273	4474
899.393	4516
899.513	4512
899.633	4504
899.753	4584
899.873	4504
899.993	4592
900.113	4538
900.232	4599
900.352	4561
900.472	4500
900.591	4405
900.711	4535
900.83	4432
900.95	4645
901.069	4733
901.189	4527
901.308	4417
901.427	4341
901.546	4333
901.665	4440
901.784	4546
901.904	4363
902.023	4363
902.141	4162
902.26	4169
902.379	4310
902.498	4265
902.617	4249
902.735	4386
902.854	4356
902.973	4344
903.091	4204
903.21	4257
903.328	4310
903.446	4299
903.565	4299
903.683	4371
903.801	4299
903.919	4386
904.038	4497
904.156	4329
904.274	4474
904.392	4398
904.51	4440
904.627	4466
904.745	4580
904.863	4649
904.981	4390
905.098	4299
905.216	4367
905.334	4402
905.451	4455
905.569	4474
905.686	4573
905.803	4584
905.921	4428
906.038	4561
906.155	4478
906.272	4398
906.389	4493
906.506	4344
906.623	4413
906.74	4428
906.857	4295
906.974	4390
907.091	4580
907.208	4721
907.324	4615
907.441	4500
907.557	4318
907.674	4375
907.79	4348
907.907	4413
908.023	4493
908.139	4470
908.256	4447
908.372	4531
908.488	4459
908.604	4352
908.72	4341
908.836	4386
908.952	4390
909.068	4440
909.184	4577
909.3	4466
909.415	4622
909.531	4493
909.647	4386
909.762	4375
909.878	4314
909.993	4443
910.108	4440
910.224	4402
910.339	4447
910.454	4409
910.57	4379
910.685	4337
910.8	4634
910.915	4615
911.03	4546
911.145	4333
911.259	4303
911.374	4390
911.489	4291
911.604	4265
911.718	4150
911.833	4207
911.947	4124
912.062	4063
912.176	4154
912.291	4211
912.405	4299
912.519	4432
912.633	4550
912.748	4371
912.862	4303
912.976	4219
913.09	4150
913.204	4120
913.318	4291
913.431	4329
913.545	4360
913.659	4447
913.772	4352
913.886	4207
914	4188
914.113	4352
914.226	4478
914.34	4413
914.453	4234
914.566	4417
914.68	4303
914.793	4284
914.906	4150
915.019	4109
915.132	4090
915.245	4196
915.358	4196
915.47	4272
915.583	4280
915.696	4322
915.809	4436
915.921	4428
916.034	4284
916.146	4215
916.259	4230
916.371	4413
916.483	4352
916.595	4261
916.708	4299
916.82	4344
916.932	4322
917.044	4322
917.156	4356
917.268	4207
917.38	4253
917.491	4280
917.603	4306
917.715	4375
917.826	4424
917.938	4356
918.049	4238
918.161	4379
918.272	4558
918.384	4516
918.495	4489
918.606	4280
918.717	4249
918.828	4284
918.939	4356
919.05	4306
919.161	4337
919.272	4139
919.383	4223
919.494	4390
919.604	4641
919.715	4466
919.826	4352
919.936	4405
920.047	4508
920.157	4485
920.267	4710
920.378	4538
920.488	4538
920.598	4740
920.708	4881
920.818	4755
920.928	4778
921.038	4923
921.148	5010
921.258	4645
921.368	4573
921.477	4527
921.587	4432
921.697	4413
921.806	4542
921.916	4363
922.025	4291
922.134	4253
922.244	4223
922.353	4337
922.462	4185
922.571	4116
922.68	4029
922.789	3953
922.898	4017
923.007	4040
923.116	4097
923.224	4116
923.333	4078
923.442	3972
923.55	3956
923.659	4017
923.767	4131
923.876	3975
923.984	4131
924.092	4036
924.201	4032
924.309	4101
924.417	4112
924.525	4074
924.633	4059
924.741	5041
924.849	3907
924.956	4131
925.064	3915
925.172	3911
925.279	3937
925.387	4055
925.494	4074
925.602	4169
925.709	4173
925.816	4048
925.924	4139
926.031	4276
926.138	4192
926.245	4219
926.352	4105
926.459	4227
926.566	4348
926.673	4166
926.779	4059
926.886	4071
926.993	4029
927.099	3941
927.206	3937
927.312	3987
927.419	4059
927.525	4017
927.631	4105
927.737	3960
927.843	3930
927.95	3857
928.056	3949
928.162	3998
928.267	4059
928.373	4683
928.479	4105
928.585	3876
928.69	4029
928.796	4074
928.901	3956
929.007	3854
929.112	4029
929.218	3953
929.323	3945
929.428	3930
929.533	4090
929.638	3911
929.743	3972
929.848	4063
929.953	4010
930.058	3896
930.163	3793
930.267	3873
930.372	3945
930.477	3835
930.581	4109
930.685	3964
930.79	3819
930.894	3899
930.998	3823
931.103	4036
931.207	3705
931.311	3694
931.415	3667
931.519	3492
931.623	3553
