Data from test_V78500241_670.txt Node
Date: Fri Mar 25 16:53:39 CST 2022
User: usil
Spectrometer: V785-0024
Trigger mode: 0
Integration Time (sec): 4.000000E-1
Scans to average: 1
Nonlinearity correction enabled: false
Boxcar width: 0
Storing dark spectrum: false
XAxis mode: Wavelengths
Number of Pixels in Spectrum: 1024
>>>>>Begin Spectral Data<<<<<
801.071	8001
801.214	8039
801.356	7928
801.499	7906
801.641	7818
801.783	7887
801.926	7986
802.068	7936
802.211	7970
802.353	7978
802.496	7864
802.638	7921
802.78	7890
802.923	7917
803.065	7913
803.208	7883
803.35	7997
803.492	8050
803.635	8111
803.777	7982
803.919	8035
804.061	8377
804.204	8065
804.346	7963
804.488	7913
804.63	8077
804.773	7978
804.915	8062
805.057	8229
805.199	8172
805.341	8279
805.483	8210
805.626	8218
805.768	8100
805.91	8259
806.052	8225
806.194	8115
806.336	8263
806.478	8119
806.62	8016
806.762	8161
806.904	8237
807.046	8431
807.188	8355
807.33	8237
807.472	8317
807.614	8176
807.756	8157
807.898	7982
808.04	7849
808.182	7932
808.324	7909
808.465	7944
808.607	8065
808.749	8153
808.891	8126
809.033	8332
809.174	8225
809.316	8054
809.458	8035
809.6	8050
809.741	7986
809.883	8062
810.025	8115
810.166	8096
810.308	8046
810.45	8027
810.591	7875
810.733	7738
810.875	7696
811.016	7514
811.158	7502
811.299	7548
811.441	7772
811.582	7666
811.724	7578
811.865	7548
812.007	7567
812.148	7674
812.29	7643
812.431	7734
812.573	7814
812.714	7932
812.855	8176
812.997	8214
813.138	8336
813.279	8183
813.421	8111
813.562	8027
813.703	7913
813.845	7742
813.986	7487
814.127	7339
814.268	7263
814.41	7202
814.551	7141
814.692	7122
814.833	7072
814.974	7053
815.115	7141
815.256	6935
815.397	6939
815.539	6962
815.68	6856
815.821	6787
815.962	6928
816.103	6863
816.244	6703
816.385	6677
816.526	6642
816.666	6502
816.807	6327
816.948	6426
817.089	6456
817.23	6410
817.371	6331
817.512	6353
817.653	6437
817.793	6342
817.934	6429
818.075	6483
818.216	6445
818.356	6410
818.497	6232
818.638	6076
818.778	6148
818.919	6155
819.06	6133
819.2	6353
819.341	6346
819.481	6369
819.622	6528
819.762	6688
819.903	6665
820.043	6551
820.184	6506
820.324	6517
820.465	6665
820.605	6639
820.746	6578
820.886	6486
821.026	6604
821.167	6669
821.307	6734
821.447	6673
821.588	6627
821.728	6547
821.868	6399
822.008	6292
822.149	6357
822.289	6357
822.429	6144
822.569	6102
822.709	6049
822.849	5923
822.99	5866
823.13	5897
823.27	5923
823.41	5783
823.55	5805
823.69	5752
823.83	5737
823.97	5657
824.11	5490
824.25	5516
824.389	5600
824.529	5581
824.669	5516
824.809	5615
824.949	5642
825.089	5615
825.228	5505
825.368	5353
825.508	5360
825.648	5364
825.787	5353
825.927	5387
826.067	5322
826.206	5345
826.346	5372
826.485	5349
826.625	5429
826.765	5577
826.904	5459
827.044	5254
827.183	5220
827.323	5140
827.462	5261
827.601	5201
827.741	5220
827.88	5212
828.02	5121
828.159	5185
828.298	5280
828.437	5364
828.577	5265
828.716	5467
828.855	5345
828.994	5166
829.134	5105
829.273	5197
829.412	5121
829.551	5132
829.69	5174
829.829	5265
829.968	5303
830.107	5254
830.246	5269
830.385	5166
830.524	5105
830.663	5052
830.802	4972
830.941	4889
831.08	4862
831.219	4980
831.357	4987
831.496	5143
831.635	4968
831.774	4877
831.913	4843
832.051	4717
832.19	4729
832.329	4835
832.467	4721
832.606	4615
832.744	4687
832.883	4687
833.022	4733
833.16	4771
833.299	4812
833.437	4793
833.576	4847
833.714	4854
833.852	4854
833.991	4866
834.129	4953
834.267	4930
834.406	4938
834.544	5003
834.682	5022
834.821	4957
834.959	5185
835.097	4980
835.235	5143
835.373	5090
835.511	5136
835.65	5041
835.788	5029
835.926	4900
836.064	4847
836.202	4915
836.34	5109
836.478	5212
836.615	5102
836.753	5265
836.891	5315
837.029	5254
837.167	5197
837.305	5140
837.443	5151
837.58	5033
837.718	5277
837.856	5174
837.993	5170
838.131	5223
838.269	5227
838.406	5193
838.544	5140
838.681	5037
838.819	4991
838.956	4873
839.094	4908
839.231	4961
839.369	5075
839.506	5417
839.643	5239
839.781	5075
839.918	5018
840.055	5132
840.193	5071
840.33	5086
840.467	5140
840.604	5189
840.742	5455
840.879	5006
841.016	5086
841.153	5140
841.29	5357
841.427	5326
841.564	5311
841.701	5368
841.838	5307
841.975	5193
842.112	5299
842.249	5132
842.385	5151
842.522	5395
842.659	5147
842.796	5159
842.933	5227
843.069	5136
843.206	5155
843.343	5315
843.479	5189
843.616	5288
843.752	5060
843.889	5022
844.025	5201
844.162	5010
844.298	5162
844.435	5083
844.571	5075
844.708	5181
844.844	5307
844.98	5334
845.117	5311
845.253	5102
845.389	5033
845.525	5162
845.661	5151
845.798	5018
845.934	5140
846.07	5067
846.206	5193
846.342	5284
846.478	5166
846.614	5025
846.75	4972
846.886	4923
847.022	5159
847.158	5025
847.294	5029
847.429	5086
847.565	5086
847.701	5315
847.837	4862
847.972	4793
848.108	5003
848.244	4942
848.379	4767
848.515	4721
848.65	4694
848.786	4710
848.921	4778
849.057	4801
849.192	4911
849.328	4820
849.463	4824
849.598	4797
849.734	4820
849.869	4687
850.004	4641
850.14	4645
850.275	4569
850.41	4493
850.545	4565
850.68	4592
850.815	4626
850.95	4596
851.085	4793
851.22	4752
851.355	4656
851.49	4637
851.625	4653
851.76	4634
851.895	4516
852.03	4500
852.165	4584
852.299	4733
852.434	4774
852.569	4759
852.703	4744
852.838	4778
852.973	4911
853.107	4949
853.242	4687
853.376	4626
853.511	4489
853.645	4618
853.78	4793
853.914	4615
854.048	4691
854.183	4637
854.317	4710
854.451	4900
854.585	4649
854.72	4664
854.854	4786
854.988	4622
855.122	4653
855.256	4512
855.39	4664
855.524	4752
855.658	4725
855.792	4694
855.926	4721
856.06	4771
856.194	4774
856.327	4683
856.461	4565
856.595	4588
856.729	4634
856.862	4755
856.996	4656
857.13	4710
857.263	4782
857.397	4801
857.53	4630
857.664	4710
857.797	4767
857.931	4786
858.064	4675
858.197	4774
858.331	4645
858.464	4588
858.597	4538
858.731	4611
858.864	4691
858.997	4546
859.13	4656
859.263	4702
859.396	4721
859.529	4558
859.662	4565
859.795	4504
859.928	4637
860.061	4752
860.194	4771
860.327	4577
860.46	4554
860.592	4706
860.725	4687
860.858	4752
860.99	4538
861.123	4508
861.256	4485
861.388	4656
861.521	5376
861.653	4538
861.786	4489
861.918	4421
862.05	4504
862.183	4573
862.315	4596
862.447	4649
862.58	4573
862.712	4402
862.844	4333
862.976	4474
863.108	4455
863.24	4881
863.372	4341
863.504	4417
863.636	4348
863.768	4447
863.9	4462
864.032	4360
864.164	4386
864.296	4481
864.428	4519
864.559	4508
864.691	4508
864.823	4504
864.954	4516
865.086	4508
865.217	4459
865.349	4421
865.48	4504
865.612	4535
865.743	4615
865.875	4417
866.006	4447
866.137	4417
866.269	4466
866.4	4443
866.531	4432
866.662	4398
866.793	4383
866.924	4398
867.055	4466
867.186	4428
867.317	4413
867.448	4348
867.579	4413
867.71	4390
867.841	4344
867.972	4440
868.103	4459
868.233	4455
868.364	4474
868.495	4424
868.625	4611
868.756	4736
868.886	4580
869.017	4641
869.147	4710
869.278	4744
869.408	4679
869.539	4660
869.669	4733
869.799	4641
869.929	4774
870.06	4694
870.19	4965
870.32	4919
870.45	4908
870.58	4991
870.71	5064
870.84	5094
870.97	4930
871.1	4892
871.23	5086
871.36	5132
871.489	5025
871.619	5083
871.749	5090
871.879	5121
872.008	5189
872.138	5041
872.267	4942
872.397	4771
872.526	4809
872.656	4691
872.785	4786
872.915	4900
873.044	5033
873.173	4942
873.303	4934
873.432	4930
873.561	4946
873.69	4892
873.819	4816
873.948	4927
874.077	4839
874.206	4767
874.335	4809
874.464	4953
874.593	5079
874.722	4968
874.851	5113
874.979	5037
875.108	5022
875.237	4919
875.365	4877
875.494	4870
875.623	4957
875.751	4801
875.88	4854
876.008	4908
876.136	5048
876.265	5185
876.393	5349
876.521	5227
876.65	5231
876.778	5151
876.906	5037
877.034	4999
877.162	5060
877.29	4953
877.418	5041
877.546	5022
877.674	5006
877.802	4995
877.93	4999
878.058	4923
878.185	4866
878.313	4957
878.441	4942
878.568	4774
878.696	4862
878.824	4942
878.951	4961
879.079	5147
879.206	5265
879.333	5071
879.461	4949
879.588	4976
879.715	5109
879.842	5193
879.97	5006
880.097	4809
880.224	4740
880.351	4797
880.478	4797
880.605	4733
880.732	4778
880.859	5056
880.986	4877
881.112	4873
881.239	4752
881.366	4660
881.493	4611
881.619	4615
881.746	4603
881.872	4656
881.999	4664
882.125	4774
882.252	4744
882.378	4839
882.505	4911
882.631	4763
882.757	4660
882.883	4782
883.01	4778
883.136	4641
883.262	4599
883.388	4634
883.514	4812
883.64	4850
883.766	4847
883.892	4672
884.018	4706
884.143	4908
884.269	5018
884.395	4664
884.52	4645
884.646	4645
884.772	4546
884.897	4565
885.023	4641
885.148	4763
885.274	4862
885.399	4797
885.524	4733
885.65	4694
885.775	4744
885.9	4672
886.025	4877
886.15	4767
886.275	4683
886.4	4607
886.525	4748
886.65	4691
886.775	4683
886.9	4870
887.025	5052
887.149	4797
887.274	4603
887.399	4611
887.523	4569
887.648	4565
887.773	4538
887.897	4763
888.021	4767
888.146	4679
888.27	4809
888.395	4904
888.519	4828
888.643	4801
888.767	4828
888.891	4683
889.015	4607
889.139	4637
889.263	4607
889.387	4740
889.511	4828
889.635	4782
889.759	4641
889.883	4626
890.006	4733
890.13	4820
890.254	4588
890.377	4679
890.501	4527
890.624	4519
890.748	4626
890.871	4485
890.995	4394
891.118	4424
891.241	4550
891.364	4504
891.488	4615
891.611	4481
891.734	4550
891.857	4603
891.98	4584
892.103	4634
892.226	4592
892.349	4546
892.471	4428
892.594	4512
892.717	4584
892.839	4596
892.962	4664
893.085	4641
893.207	4592
893.33	4455
893.452	4500
893.575	4634
893.697	4573
893.819	4824
893.941	4805
894.064	4755
894.186	4577
894.308	4577
894.43	4710
894.552	4790
894.674	4694
894.796	4500
894.918	4611
895.04	4554
895.161	4691
895.283	4641
895.405	4592
895.526	4672
895.648	4660
895.769	4687
895.891	4740
896.012	4778
896.134	4698
896.255	4710
896.376	4611
896.498	4626
896.619	4694
896.74	4573
896.861	4668
896.982	4896
897.103	5086
897.224	4835
897.345	4702
897.466	4694
897.587	4725
897.708	4812
897.828	4782
897.949	4706
898.07	4565
898.19	4645
898.311	4767
898.431	4683
898.552	4733
898.672	4793
898.792	4740
898.913	4733
899.033	4630
899.153	4527
899.273	4462
899.393	4504
899.513	4500
899.633	4500
899.753	4531
899.873	4508
899.993	4550
900.113	4523
900.232	4573
900.352	4504
900.472	4443
900.591	4440
900.711	4478
900.83	4386
900.95	4577
901.069	4618
901.189	4550
901.308	4398
901.427	4261
901.546	4398
901.665	4421
901.784	4478
901.904	4417
902.023	4329
902.141	4158
902.26	4166
902.379	4299
902.498	4257
902.617	4227
902.735	4360
902.854	4390
902.973	4329
903.091	4181
903.21	4242
903.328	4306
903.446	4265
903.565	4223
903.683	4405
903.801	4295
903.919	4390
904.038	4402
904.156	4272
904.274	4428
904.392	4413
904.51	4451
904.627	4440
904.745	4615
904.863	4565
904.981	4398
905.098	4306
905.216	4398
905.334	4447
905.451	4443
905.569	4466
905.686	4504
905.803	4573
905.921	4371
906.038	4584
906.155	4443
906.272	4367
906.389	4474
906.506	4352
906.623	4360
906.74	4379
906.857	4325
906.974	4409
907.091	4535
907.208	4656
907.324	4550
907.441	4470
907.557	4276
907.674	4341
907.79	4341
907.907	4360
908.023	4508
908.139	4497
908.256	4424
908.372	4436
908.488	4379
908.604	4303
908.72	4299
908.836	4356
908.952	4333
909.068	4470
909.184	4580
909.3	4459
909.415	4535
909.531	4542
909.647	4348
909.762	4386
909.878	4333
909.993	4352
910.108	4386
910.224	4379
910.339	4405
910.454	4409
910.57	4356
910.685	4287
910.8	4637
910.915	4577
911.03	4497
911.145	4284
911.259	4314
911.374	4390
911.489	4325
911.604	4249
911.718	4173
911.833	4200
911.947	4078
912.062	3998
912.176	4196
912.291	4207
912.405	4242
912.519	4470
912.633	4478
912.748	4310
912.862	4287
912.976	4204
913.09	4086
913.204	4139
913.318	4200
913.431	4344
913.545	4367
913.659	4383
913.772	4310
913.886	4265
914	4192
914.113	4413
914.226	4405
914.34	4356
914.453	4219
914.566	4432
914.68	4306
914.793	4337
914.906	4147
915.019	4097
915.132	4105
915.245	4200
915.358	4211
915.47	4215
915.583	4257
915.696	4280
915.809	4367
915.921	4424
916.034	4284
916.146	4249
916.259	4173
916.371	4405
916.483	4371
916.595	4284
916.708	4303
916.82	4375
916.932	4306
917.044	4306
917.156	4325
917.268	4261
917.38	4314
917.491	4314
917.603	4344
917.715	4413
917.826	4451
917.938	4383
918.049	4284
918.161	4402
918.272	4577
918.384	4569
918.495	4421
918.606	4291
918.717	4246
918.828	4363
918.939	4409
919.05	4287
919.161	4341
919.272	4158
919.383	4272
919.494	4470
919.604	4698
919.715	4474
919.826	4398
919.936	4447
920.047	4558
920.157	4485
920.267	4755
920.378	4565
920.488	4516
920.598	4733
920.708	4934
920.818	4797
920.928	4797
921.038	5006
921.148	4980
921.258	4687
921.368	4672
921.477	4550
921.587	4508
921.697	4440
921.806	4588
921.916	4447
922.025	4306
922.134	4261
922.244	4204
922.353	4398
922.462	4219
922.571	4112
922.68	4029
922.789	4044
922.898	4067
923.007	4059
923.116	4097
923.224	4093
923.333	4143
923.442	4040
923.55	4013
923.659	4112
923.767	4154
923.876	4029
923.984	4124
924.092	4006
924.201	4112
924.309	4128
924.417	4188
924.525	4086
924.633	4154
924.741	5090
924.849	3975
924.956	4150
925.064	3991
925.172	3945
925.279	3979
925.387	4090
925.494	4124
925.602	4295
925.709	4227
925.816	4086
925.924	4169
926.031	4242
926.138	4219
926.245	4257
926.352	4124
926.459	4299
926.566	4386
926.673	4215
926.779	4154
926.886	4154
926.993	4017
927.099	4006
927.206	4006
927.312	3964
927.419	4093
927.525	4044
927.631	4097
927.737	3968
927.843	4017
927.95	3915
928.056	3945
928.162	3998
928.267	4116
928.373	4706
928.479	4166
928.585	3903
928.69	4071
928.796	4154
928.901	4010
929.007	3850
929.112	4051
929.218	3979
929.323	3975
929.428	3964
929.533	4150
929.638	3983
929.743	3991
929.848	4055
929.953	4017
930.058	3907
930.163	3812
930.267	3854
930.372	4025
930.477	3880
930.581	4154
930.685	4006
930.79	3876
930.894	3911
930.998	3880
931.103	4063
931.207	3747
931.311	3679
931.415	3709
931.519	3515
931.623	3591
