Data from test_V78500241_946.txt Node
Date: Fri Mar 25 16:55:34 CST 2022
User: usil
Spectrometer: V785-0024
Trigger mode: 0
Integration Time (sec): 4.000000E-1
Scans to average: 1
Nonlinearity correction enabled: false
Boxcar width: 0
Storing dark spectrum: false
XAxis mode: Wavelengths
Number of Pixels in Spectrum: 1024
>>>>>Begin Spectral Data<<<<<
801.071	8065
801.214	8043
801.356	7875
801.499	7750
801.641	7811
801.783	7833
801.926	7921
802.068	7936
802.211	7906
802.353	7970
802.496	7879
802.638	7871
802.78	7875
802.923	7909
803.065	7875
803.208	7818
803.35	7928
803.492	8142
803.635	8149
803.777	8081
803.919	8069
804.061	8431
804.204	8092
804.346	8062
804.488	7902
804.63	8126
804.773	8027
804.915	8058
805.057	8267
805.199	8229
805.341	8195
805.483	8214
805.626	8107
805.768	8126
805.91	8161
806.052	8259
806.194	8088
806.336	8317
806.478	8088
806.62	8058
806.762	8145
806.904	8309
807.046	8419
807.188	8328
807.33	8301
807.472	8317
807.614	8187
807.756	8130
807.898	7993
808.04	7875
808.182	7833
808.324	7921
808.465	7860
808.607	8008
808.749	8031
808.891	8115
809.033	8301
809.174	8210
809.316	8065
809.458	8035
809.6	7967
809.741	8043
809.883	8100
810.025	8134
810.166	8008
810.308	8005
810.45	8020
810.591	7917
810.733	7734
810.875	7647
811.016	7533
811.158	7430
811.299	7639
811.441	7681
811.582	7662
811.724	7578
811.865	7525
812.007	7616
812.148	7586
812.29	7571
812.431	7746
812.573	7860
812.714	7974
812.855	8107
812.997	8176
813.138	8221
813.279	8176
813.421	8088
813.562	7997
813.703	7898
813.845	7818
813.986	7415
814.127	7255
814.268	7259
814.41	7179
814.551	7091
814.692	7076
814.833	7088
814.974	7015
815.115	7076
815.256	6897
815.397	6905
815.539	6951
815.68	6844
815.821	6707
815.962	6814
816.103	6768
816.244	6696
816.385	6673
816.526	6585
816.666	6540
816.807	6285
816.948	6429
817.089	6502
817.23	6429
817.371	6380
817.512	6418
817.653	6384
817.793	6327
817.934	6369
818.075	6407
818.216	6407
818.356	6399
818.497	6175
818.638	6144
818.778	6110
818.919	6091
819.06	6159
819.2	6289
819.341	6300
819.481	6391
819.622	6544
819.762	6688
819.903	6700
820.043	6654
820.184	6570
820.324	6551
820.465	6703
820.605	6673
820.746	6612
820.886	6475
821.026	6650
821.167	6646
821.307	6772
821.447	6719
821.588	6700
821.728	6547
821.868	6490
822.008	6334
822.149	6357
822.289	6285
822.429	6152
822.569	6106
822.709	6110
822.849	5942
822.99	5878
823.13	5893
823.27	5935
823.41	5790
823.55	5760
823.69	5752
823.83	5794
823.97	5657
824.11	5543
824.25	5512
824.389	5581
824.529	5566
824.669	5524
824.809	5608
824.949	5657
825.089	5596
825.228	5619
825.368	5387
825.508	5303
825.648	5277
825.787	5337
825.927	5406
826.067	5273
826.206	5326
826.346	5368
826.485	5398
826.625	5387
826.765	5497
826.904	5436
827.044	5246
827.183	5208
827.323	5105
827.462	5212
827.601	5140
827.741	5170
827.88	5185
828.02	5090
828.159	5212
828.298	5269
828.437	5368
828.577	5269
828.716	5463
828.855	5231
828.994	5170
829.134	5151
829.273	5220
829.412	5147
829.551	5109
829.69	5109
829.829	5254
829.968	5307
830.107	5277
830.246	5265
830.385	5136
830.524	5132
830.663	5045
830.802	4999
830.941	4889
831.08	4889
831.219	5010
831.357	4873
831.496	5162
831.635	4908
831.774	4850
831.913	4839
832.051	4774
832.19	4725
832.329	4847
832.467	4748
832.606	4664
832.744	4675
832.883	4702
833.022	4714
833.16	4774
833.299	4793
833.437	4854
833.576	4885
833.714	4801
833.852	4850
833.991	4858
834.129	4946
834.267	4984
834.406	4881
834.544	4995
834.682	4987
834.821	4957
834.959	5121
835.097	4995
835.235	5117
835.373	4995
835.511	5098
835.65	5014
835.788	5033
835.926	4946
836.064	4866
836.202	4862
836.34	5181
836.478	5212
836.615	5048
836.753	5197
836.891	5315
837.029	5261
837.167	5174
837.305	5143
837.443	5155
837.58	5064
837.718	5296
837.856	5162
837.993	5105
838.131	5223
838.269	5201
838.406	5208
838.544	5166
838.681	4995
838.819	5018
838.956	4847
839.094	4904
839.231	4957
839.369	5090
839.506	5414
839.643	5242
839.781	5025
839.918	4984
840.055	5090
840.193	5075
840.33	5128
840.467	5132
840.604	5181
840.742	5474
840.879	5117
841.016	5094
841.153	5128
841.29	5387
841.427	5322
841.564	5364
841.701	5299
841.838	5250
841.975	5254
842.112	5208
842.249	5121
842.385	5041
842.522	5307
842.659	5147
842.796	5151
842.933	5170
843.069	5121
843.206	5166
843.343	5265
843.479	5265
843.616	5254
843.752	4999
843.889	5029
844.025	5162
844.162	4987
844.298	5181
844.435	5128
844.571	5060
844.708	5220
844.844	5360
844.98	5322
845.117	5277
845.253	5132
845.389	5064
845.525	5117
845.661	5109
845.798	5067
845.934	5159
846.07	5037
846.206	5155
846.342	5261
846.478	5185
846.614	4957
846.75	4972
846.886	4919
847.022	5143
847.158	4965
847.294	5083
847.429	5098
847.565	5064
847.701	5288
847.837	4824
847.972	4790
848.108	4938
848.244	4949
848.379	4733
848.515	4706
848.65	4702
848.786	4706
848.921	4714
849.057	4839
849.192	4919
849.328	4778
849.463	4809
849.598	4771
849.734	4729
849.869	4675
850.004	4653
850.14	4649
850.275	4569
850.41	4481
850.545	4561
850.68	4634
850.815	4622
850.95	4615
851.085	4771
851.22	4729
851.355	4645
851.49	4611
851.625	4622
851.76	4565
851.895	4538
852.03	4546
852.165	4592
852.299	4740
852.434	4771
852.569	4740
852.703	4790
852.838	4801
852.973	4896
853.107	4885
853.242	4721
853.376	4637
853.511	4535
853.645	4561
853.78	4797
853.914	4694
854.048	4664
854.183	4645
854.317	4733
854.451	4835
854.585	4656
854.72	4630
854.854	4725
854.988	4588
855.122	4615
855.256	4519
855.39	4653
855.524	4748
855.658	4710
855.792	4641
855.926	4694
856.06	4714
856.194	4771
856.327	4675
856.461	4599
856.595	4607
856.729	4672
856.862	4733
856.996	4698
857.13	4717
857.263	4721
857.397	4755
857.53	4679
857.664	4691
857.797	4736
857.931	4717
858.064	4687
858.197	4744
858.331	4637
858.464	4611
858.597	4535
858.731	4626
858.864	4615
858.997	4573
859.13	4683
859.263	4603
859.396	4641
859.529	4569
859.662	4565
859.795	4535
859.928	4573
860.061	4714
860.194	4748
860.327	4588
860.46	4558
860.592	4721
860.725	4706
860.858	4771
860.99	4535
861.123	4531
861.256	4527
861.388	4569
861.521	5178
861.653	4493
861.786	4428
861.918	4447
862.05	4512
862.183	4516
862.315	4596
862.447	4630
862.58	4516
862.712	4386
862.844	4303
862.976	4455
863.108	4440
863.24	4725
863.372	4295
863.504	4413
863.636	4390
863.768	4478
863.9	4405
864.032	4329
864.164	4402
864.296	4440
864.428	4523
864.559	4516
864.691	4508
864.823	4493
864.954	4523
865.086	4519
865.217	4455
865.349	4436
865.48	4413
865.612	4440
865.743	4584
865.875	4432
866.006	4386
866.137	4462
866.269	4421
866.4	4474
866.531	4383
866.662	4363
866.793	4424
866.924	4424
867.055	4470
867.186	4417
867.317	4421
867.448	4402
867.579	4405
867.71	4352
867.841	4394
867.972	4428
868.103	4436
868.233	4447
868.364	4428
868.495	4455
868.625	4698
868.756	4793
868.886	4527
869.017	4611
869.147	4755
869.278	4771
869.408	4664
869.539	4611
869.669	4691
869.799	4622
869.929	4710
870.06	4755
870.19	4961
870.32	4896
870.45	4896
870.58	5025
870.71	5052
870.84	5064
870.97	4965
871.1	4927
871.23	5136
871.36	5079
871.489	4995
871.619	5147
871.749	5052
871.879	5136
872.008	5162
872.138	5033
872.267	5018
872.397	4805
872.526	4812
872.656	4748
872.785	4778
872.915	4968
873.044	4976
873.173	4934
873.303	4946
873.432	4949
873.561	4976
873.69	4831
873.819	4843
873.948	4885
874.077	4809
874.206	4740
874.335	4782
874.464	4915
874.593	5041
874.722	4957
874.851	5098
874.979	5018
875.108	4995
875.237	4919
875.365	4850
875.494	4911
875.623	4968
875.751	4771
875.88	4862
876.008	4908
876.136	5010
876.265	5178
876.393	5258
876.521	5227
876.65	5250
876.778	5143
876.906	5056
877.034	5010
877.162	4987
877.29	4987
877.418	4991
877.546	5033
877.674	5025
877.802	5010
877.93	4991
878.058	4873
878.185	4843
878.313	4930
878.441	4961
878.568	4790
878.696	4847
878.824	4946
878.951	4984
879.079	5090
879.206	5288
879.333	5083
879.461	4968
879.588	4949
879.715	5121
879.842	5208
879.97	4976
880.097	4778
880.224	4759
880.351	4790
880.478	4793
880.605	4763
880.732	4774
880.859	5056
880.986	4885
881.112	4968
881.239	4752
881.366	4694
881.493	4599
881.619	4588
881.746	4641
881.872	4653
881.999	4615
882.125	4694
882.252	4782
882.378	4831
882.505	4938
882.631	4755
882.757	4698
882.883	4721
883.01	4717
883.136	4622
883.262	4592
883.388	4618
883.514	4797
883.64	4828
883.766	4771
883.892	4668
884.018	4687
884.143	4862
884.269	4953
884.395	4637
884.52	4634
884.646	4637
884.772	4603
884.897	4584
885.023	4679
885.148	4782
885.274	4896
885.399	4748
885.524	4706
885.65	4653
885.775	4786
885.9	4706
886.025	4870
886.15	4801
886.275	4706
886.4	4668
886.525	4664
886.65	4710
886.775	4660
886.9	4877
887.025	5014
887.149	4748
887.274	4668
887.399	4584
887.523	4588
887.648	4592
887.773	4565
887.897	4721
888.021	4755
888.146	4668
888.27	4771
888.395	4904
888.519	4805
888.643	4812
888.767	4828
888.891	4710
889.015	4599
889.139	4660
889.263	4580
889.387	4748
889.511	4831
889.635	4755
889.759	4626
889.883	4660
890.006	4721
890.13	4729
890.254	4596
890.377	4645
890.501	4489
890.624	4516
890.748	4618
890.871	4493
890.995	4436
891.118	4390
891.241	4512
891.364	4538
891.488	4618
891.611	4436
891.734	4558
891.857	4561
891.98	4550
892.103	4645
892.226	4531
892.349	4474
892.471	4424
892.594	4546
892.717	4584
892.839	4580
892.962	4603
893.085	4683
893.207	4607
893.33	4459
893.452	4535
893.575	4664
893.697	4577
893.819	4786
893.941	4736
894.064	4771
894.186	4630
894.308	4546
894.43	4683
894.552	4797
894.674	4736
894.796	4569
894.918	4592
895.04	4546
895.161	4714
895.283	4668
895.405	4538
895.526	4599
895.648	4721
895.769	4714
895.891	4687
896.012	4733
896.134	4759
896.255	4675
896.376	4592
896.498	4634
896.619	4683
896.74	4588
896.861	4641
896.982	4892
897.103	5098
897.224	4816
897.345	4748
897.466	4672
897.587	4717
897.708	4801
897.828	4759
897.949	4702
898.07	4554
898.19	4611
898.311	4771
898.431	4634
898.552	4706
898.672	4816
898.792	4812
898.913	4706
899.033	4592
899.153	4470
899.273	4405
899.393	4489
899.513	4554
899.633	4519
899.753	4535
899.873	4500
899.993	4611
900.113	4538
900.232	4584
900.352	4565
900.472	4500
900.591	4398
900.711	4485
900.83	4447
900.95	4596
901.069	4683
901.189	4512
901.308	4363
901.427	4310
901.546	4325
901.665	4459
901.784	4508
901.904	4383
902.023	4333
902.141	4185
902.26	4154
902.379	4318
902.498	4234
902.617	4215
902.735	4344
902.854	4367
902.973	4306
903.091	4173
903.21	4265
903.328	4318
903.446	4291
903.565	4287
903.683	4363
903.801	4249
903.919	4383
904.038	4409
904.156	4314
904.274	4451
904.392	4398
904.51	4428
904.627	4447
904.745	4531
904.863	4656
904.981	4405
905.098	4303
905.216	4352
905.334	4432
905.451	4424
905.569	4417
905.686	4519
905.803	4516
905.921	4417
906.038	4565
906.155	4466
906.272	4405
906.389	4474
906.506	4325
906.623	4352
906.74	4375
906.857	4299
906.974	4337
907.091	4554
907.208	4664
907.324	4596
907.441	4455
907.557	4341
907.674	4333
907.79	4272
907.907	4409
908.023	4478
908.139	4428
908.256	4402
908.372	4436
908.488	4428
908.604	4337
908.72	4318
908.836	4402
908.952	4344
909.068	4413
909.184	4550
909.3	4474
909.415	4596
909.531	4531
909.647	4329
909.762	4329
909.878	4299
909.993	4405
910.108	4363
910.224	4379
910.339	4493
910.454	4417
910.57	4371
910.685	4238
910.8	4637
910.915	4573
911.03	4417
911.145	4363
911.259	4306
911.374	4303
911.489	4291
911.604	4287
911.718	4150
911.833	4207
911.947	4071
912.062	4040
912.176	4215
912.291	4261
912.405	4261
912.519	4459
912.633	4523
912.748	4379
912.862	4314
912.976	4219
913.09	4124
913.204	4158
913.318	4200
913.431	4383
913.545	4341
913.659	4417
913.772	4344
913.886	4207
914	4196
914.113	4303
914.226	4478
914.34	4322
914.453	4249
914.566	4402
914.68	4284
914.793	4333
914.906	4131
915.019	4097
915.132	4029
915.245	4211
915.358	4192
915.47	4234
915.583	4242
915.696	4284
915.809	4386
915.921	4417
916.034	4276
916.146	4219
916.259	4200
916.371	4310
916.483	4303
916.595	4242
916.708	4318
916.82	4344
916.932	4363
917.044	4295
917.156	4360
917.268	4215
917.38	4215
917.491	4249
917.603	4371
917.715	4405
917.826	4413
917.938	4333
918.049	4192
918.161	4383
918.272	4478
918.384	4527
918.495	4421
918.606	4261
918.717	4246
918.828	4329
918.939	4371
919.05	4261
919.161	4348
919.272	4093
919.383	4230
919.494	4436
919.604	4637
919.715	4428
919.826	4352
919.936	4409
920.047	4523
920.157	4500
920.267	4691
920.378	4504
920.488	4478
920.598	4740
920.708	4892
920.818	4721
920.928	4797
921.038	4934
921.148	4911
921.258	4603
921.368	4527
921.477	4462
921.587	4474
921.697	4363
921.806	4504
921.916	4379
922.025	4242
922.134	4234
922.244	4211
922.353	4306
922.462	4154
922.571	4090
922.68	3975
922.789	3964
922.898	4002
923.007	3972
923.116	4101
923.224	4067
923.333	4074
923.442	3953
923.55	3937
923.659	4044
923.767	4093
923.876	3979
923.984	4150
924.092	3991
924.201	4105
924.309	4105
924.417	4086
924.525	4078
924.633	4150
924.741	5045
924.849	3930
924.956	4105
925.064	4002
925.172	3907
925.279	3930
925.387	4093
925.494	4032
925.602	4211
925.709	4173
925.816	4059
925.924	4097
926.031	4211
926.138	4207
926.245	4223
926.352	4131
926.459	4219
926.566	4268
926.673	4154
926.779	4078
926.886	4048
926.993	3907
927.099	3941
927.206	3941
927.312	3926
927.419	4078
927.525	4025
927.631	4086
927.737	3960
927.843	3945
927.95	3857
928.056	3922
928.162	3964
928.267	4059
928.373	4672
928.479	4097
928.585	3857
928.69	4002
928.796	4071
928.901	3987
929.007	3865
929.112	3972
929.218	4017
929.323	3930
929.428	3934
929.533	4097
929.638	3930
929.743	3956
929.848	3991
929.953	4025
930.058	3945
930.163	3770
930.267	3816
930.372	3960
930.477	3869
930.581	4055
930.685	3926
930.79	3835
930.894	3892
930.998	3861
931.103	4036
931.207	3671
931.311	3701
931.415	3682
931.519	3481
931.623	3568
