Data from test_V78500241_1196.txt Node
Date: Fri Mar 25 16:57:19 CST 2022
User: usil
Spectrometer: V785-0024
Trigger mode: 0
Integration Time (sec): 4.000000E-1
Scans to average: 1
Nonlinearity correction enabled: false
Boxcar width: 0
Storing dark spectrum: false
XAxis mode: Wavelengths
Number of Pixels in Spectrum: 1024
>>>>>Begin Spectral Data<<<<<
801.071	8058
801.214	8035
801.356	7936
801.499	7811
801.641	7784
801.783	7719
801.926	7921
802.068	7909
802.211	8024
802.353	7944
802.496	7845
802.638	7887
802.78	7898
802.923	7997
803.065	7913
803.208	7868
803.35	7967
803.492	8134
803.635	8107
803.777	8031
803.919	8168
804.061	8419
804.204	8142
804.346	8012
804.488	8005
804.63	8050
804.773	8031
804.915	8142
805.057	8275
805.199	8130
805.341	8218
805.483	8263
805.626	8256
805.768	8202
805.91	8195
806.052	8210
806.194	8088
806.336	8218
806.478	8073
806.62	8092
806.762	8180
806.904	8279
807.046	8484
807.188	8282
807.33	8237
807.472	8225
807.614	8130
807.756	8164
807.898	8012
808.04	7913
808.182	7856
808.324	7833
808.465	7925
808.607	8008
808.749	8050
808.891	8180
809.033	8263
809.174	8225
809.316	8027
809.458	7970
809.6	8001
809.741	8035
809.883	7993
810.025	8027
810.166	8100
810.308	8012
810.45	8016
810.591	7913
810.733	7696
810.875	7632
811.016	7540
811.158	7544
811.299	7605
811.441	7712
811.582	7674
811.724	7609
811.865	7502
812.007	7601
812.148	7578
812.29	7609
812.431	7742
812.573	7875
812.714	7944
812.855	8084
812.997	8191
813.138	8320
813.279	8237
813.421	8107
813.562	8031
813.703	7852
813.845	7655
813.986	7438
814.127	7270
814.268	7244
814.41	7179
814.551	7088
814.692	7156
814.833	7053
814.974	7149
815.115	7103
815.256	6985
815.397	6916
815.539	6962
815.68	6837
815.821	6833
815.962	6829
816.103	6776
816.244	6738
816.385	6616
816.526	6604
816.666	6422
816.807	6300
816.948	6471
817.089	6521
817.23	6475
817.371	6391
817.512	6372
817.653	6376
817.793	6388
817.934	6448
818.075	6418
818.216	6452
818.356	6372
818.497	6209
818.638	6144
818.778	6140
818.919	6194
819.06	6190
819.2	6334
819.341	6262
819.481	6338
819.622	6471
819.762	6692
819.903	6703
820.043	6544
820.184	6536
820.324	6631
820.465	6700
820.605	6669
820.746	6574
820.886	6479
821.026	6639
821.167	6688
821.307	6779
821.447	6760
821.588	6662
821.728	6582
821.868	6483
822.008	6350
822.149	6426
822.289	6323
822.429	6095
822.569	6114
822.709	6110
822.849	5908
822.99	5950
823.13	5870
823.27	5946
823.41	5798
823.55	5824
823.69	5783
823.83	5813
823.97	5676
824.11	5554
824.25	5532
824.389	5543
824.529	5554
824.669	5524
824.809	5615
824.949	5642
825.089	5600
825.228	5528
825.368	5406
825.508	5337
825.648	5337
825.787	5353
825.927	5372
826.067	5288
826.206	5303
826.346	5353
826.485	5421
826.625	5322
826.765	5501
826.904	5486
827.044	5220
827.183	5166
827.323	5109
827.462	5246
827.601	5155
827.741	5216
827.88	5239
828.02	5075
828.159	5258
828.298	5311
828.437	5448
828.577	5292
828.716	5452
828.855	5307
828.994	5132
829.134	5159
829.273	5201
829.412	5136
829.551	5155
829.69	5143
829.829	5220
829.968	5315
830.107	5315
830.246	5284
830.385	5208
830.524	5094
830.663	5060
830.802	5003
830.941	4839
831.08	4934
831.219	4987
831.357	4961
831.496	5170
831.635	4900
831.774	4809
831.913	4881
832.051	4675
832.19	4744
832.329	4820
832.467	4683
832.606	4641
832.744	4714
832.883	4740
833.022	4683
833.16	4816
833.299	4790
833.437	4839
833.576	4793
833.714	4889
833.852	4843
833.991	4908
834.129	4930
834.267	4908
834.406	4927
834.544	4995
834.682	4972
834.821	4965
834.959	5201
835.097	4968
835.235	5151
835.373	5045
835.511	5090
835.65	5006
835.788	5060
835.926	4889
836.064	4843
836.202	4900
836.34	5178
836.478	5220
836.615	5121
836.753	5212
836.891	5277
837.029	5288
837.167	5151
837.305	5124
837.443	5155
837.58	5079
837.718	5212
837.856	5151
837.993	5147
838.131	5193
838.269	5181
838.406	5162
838.544	5170
838.681	5048
838.819	5018
838.956	4946
839.094	4919
839.231	4942
839.369	5079
839.506	5448
839.643	5239
839.781	5060
839.918	5014
840.055	5124
840.193	5102
840.33	5098
840.467	5128
840.604	5227
840.742	5395
840.879	5014
841.016	5098
841.153	5124
841.29	5322
841.427	5307
841.564	5372
841.701	5322
841.838	5246
841.975	5231
842.112	5242
842.249	5094
842.385	5090
842.522	5322
842.659	5170
842.796	5105
842.933	5204
843.069	5121
843.206	5162
843.343	5303
843.479	5212
843.616	5284
843.752	5006
843.889	5014
844.025	5193
844.162	5041
844.298	5212
844.435	5094
844.571	5037
844.708	5147
844.844	5318
844.98	5303
845.117	5269
845.253	5113
845.389	5056
845.525	5170
845.661	5132
845.798	5018
845.934	5098
846.07	5098
846.206	5201
846.342	5250
846.478	5185
846.614	5022
846.75	4980
846.886	4930
847.022	5113
847.158	5041
847.294	5064
847.429	5109
847.565	5037
847.701	5322
847.837	4828
847.972	4786
848.108	4995
848.244	4968
848.379	4755
848.515	4729
848.65	4687
848.786	4733
848.921	4755
849.057	4858
849.192	4889
849.328	4839
849.463	4831
849.598	4733
849.734	4767
849.869	4702
850.004	4634
850.14	4691
850.275	4584
850.41	4474
850.545	4592
850.68	4584
850.815	4592
850.95	4618
851.085	4839
851.22	4736
851.355	4668
851.49	4615
851.625	4577
851.76	4607
851.895	4546
852.03	4542
852.165	4656
852.299	4679
852.434	4755
852.569	4736
852.703	4698
852.838	4809
852.973	4870
853.107	4862
853.242	4733
853.376	4694
853.511	4546
853.645	4626
853.78	4801
853.914	4706
854.048	4660
854.183	4656
854.317	4729
854.451	4820
854.585	4679
854.72	4672
854.854	4748
854.988	4592
855.122	4615
855.256	4542
855.39	4596
855.524	4771
855.658	4698
855.792	4664
855.926	4763
856.06	4763
856.194	4805
856.327	4664
856.461	4580
856.595	4596
856.729	4603
856.862	4710
856.996	4664
857.13	4710
857.263	4748
857.397	4797
857.53	4603
857.664	4744
857.797	4710
857.931	4725
858.064	4702
858.197	4687
858.331	4615
858.464	4592
858.597	4493
858.731	4618
858.864	4577
858.997	4527
859.13	4630
859.263	4637
859.396	4675
859.529	4531
859.662	4546
859.795	4577
859.928	4565
860.061	4755
860.194	4763
860.327	4577
860.46	4546
860.592	4744
860.725	4710
860.858	4755
860.99	4577
861.123	4508
861.256	4500
861.388	4588
861.521	5288
861.653	4409
861.786	4409
861.918	4421
862.05	4542
862.183	4565
862.315	4596
862.447	4660
862.58	4550
862.712	4379
862.844	4318
862.976	4417
863.108	4417
863.24	4858
863.372	4295
863.504	4413
863.636	4390
863.768	4421
863.9	4398
864.032	4306
864.164	4344
864.296	4481
864.428	4523
864.559	4542
864.691	4489
864.823	4489
864.954	4489
865.086	4504
865.217	4440
865.349	4428
865.48	4455
865.612	4470
865.743	4588
865.875	4466
866.006	4470
866.137	4459
866.269	4375
866.4	4398
866.531	4405
866.662	4337
866.793	4383
866.924	4424
867.055	4451
867.186	4443
867.317	4424
867.448	4371
867.579	4390
867.71	4352
867.841	4363
867.972	4504
868.103	4424
868.233	4428
868.364	4447
868.495	4485
868.625	4656
868.756	4752
868.886	4573
869.017	4592
869.147	4805
869.278	4748
869.408	4649
869.539	4599
869.669	4683
869.799	4626
869.929	4752
870.06	4691
870.19	4930
870.32	4900
870.45	4961
870.58	4991
870.71	5052
870.84	5022
870.97	4942
871.1	4873
871.23	5121
871.36	5090
871.489	5006
871.619	5052
871.749	5052
871.879	5121
872.008	5162
872.138	5048
872.267	4984
872.397	4824
872.526	4759
872.656	4683
872.785	4774
872.915	4896
873.044	5052
873.173	4915
873.303	4949
873.432	4961
873.561	4995
873.69	4812
873.819	4862
873.948	4877
874.077	4809
874.206	4771
874.335	4778
874.464	4953
874.593	4987
874.722	4892
874.851	5083
874.979	5029
875.108	5071
875.237	4858
875.365	4847
875.494	4904
875.623	4995
875.751	4820
875.88	4881
876.008	4961
876.136	5010
876.265	5193
876.393	5307
876.521	5242
876.65	5227
876.778	5124
876.906	5052
877.034	5018
877.162	5022
877.29	5010
877.418	5117
877.546	4976
877.674	5025
877.802	5079
877.93	4995
878.058	4961
878.185	4919
878.313	4961
878.441	4957
878.568	4736
878.696	4847
878.824	4900
878.951	5033
879.079	5136
879.206	5269
879.333	5098
879.461	4980
879.588	4965
879.715	5105
879.842	5208
879.97	4999
880.097	4801
880.224	4729
880.351	4797
880.478	4809
880.605	4797
880.732	4793
880.859	5121
880.986	4896
881.112	4904
881.239	4786
881.366	4660
881.493	4550
881.619	4558
881.746	4664
881.872	4653
881.999	4668
882.125	4653
882.252	4774
882.378	4809
882.505	4938
882.631	4774
882.757	4618
882.883	4710
883.01	4774
883.136	4630
883.262	4634
883.388	4577
883.514	4767
883.64	4866
883.766	4767
883.892	4675
884.018	4698
884.143	4881
884.269	4980
884.395	4645
884.52	4615
884.646	4679
884.772	4637
884.897	4558
885.023	4656
885.148	4755
885.274	4805
885.399	4793
885.524	4664
885.65	4668
885.775	4725
885.9	4672
886.025	4839
886.15	4786
886.275	4725
886.4	4672
886.525	4687
886.65	4664
886.775	4698
886.9	4873
887.025	5014
887.149	4809
887.274	4664
887.399	4542
887.523	4615
887.648	4580
887.773	4561
887.897	4702
888.021	4748
888.146	4649
888.27	4801
888.395	4900
888.519	4828
888.643	4774
888.767	4786
888.891	4706
889.015	4588
889.139	4698
889.263	4592
889.387	4702
889.511	4889
889.635	4801
889.759	4615
889.883	4618
890.006	4759
890.13	4866
890.254	4622
890.377	4672
890.501	4542
890.624	4527
890.748	4618
890.871	4519
890.995	4462
891.118	4379
891.241	4523
891.364	4542
891.488	4630
891.611	4500
891.734	4497
891.857	4596
891.98	4554
892.103	4656
892.226	4535
892.349	4493
892.471	4432
892.594	4519
892.717	4573
892.839	4580
892.962	4611
893.085	4611
893.207	4558
893.33	4440
893.452	4554
893.575	4656
893.697	4542
893.819	4763
893.941	4797
894.064	4748
894.186	4561
894.308	4584
894.43	4714
894.552	4828
894.674	4683
894.796	4546
894.918	4573
895.04	4584
895.161	4626
895.283	4683
895.405	4565
895.526	4618
895.648	4653
895.769	4672
895.891	4744
896.012	4748
896.134	4725
896.255	4653
896.376	4596
896.498	4546
896.619	4634
896.74	4656
896.861	4656
896.982	4938
897.103	5140
897.224	4820
897.345	4736
897.466	4698
897.587	4702
897.708	4866
897.828	4755
897.949	4645
898.07	4516
898.19	4630
898.311	4786
898.431	4683
898.552	4729
898.672	4812
898.792	4793
898.913	4740
899.033	4531
899.153	4443
899.273	4421
899.393	4489
899.513	4474
899.633	4516
899.753	4519
899.873	4485
899.993	4603
900.113	4512
900.232	4603
900.352	4497
900.472	4451
900.591	4421
900.711	4489
900.83	4451
900.95	4611
901.069	4675
901.189	4573
901.308	4329
901.427	4306
901.546	4363
901.665	4440
901.784	4478
901.904	4363
902.023	4299
902.141	4181
902.26	4185
902.379	4268
902.498	4215
902.617	4272
902.735	4360
902.854	4394
902.973	4314
903.091	4185
903.21	4223
903.328	4268
903.446	4261
903.565	4276
903.683	4310
903.801	4253
903.919	4402
904.038	4394
904.156	4341
904.274	4428
904.392	4375
904.51	4409
904.627	4417
904.745	4550
904.863	4615
904.981	4375
905.098	4344
905.216	4402
905.334	4371
905.451	4428
905.569	4455
905.686	4512
905.803	4584
905.921	4436
906.038	4558
906.155	4432
906.272	4409
906.389	4417
906.506	4386
906.623	4398
906.74	4413
906.857	4348
906.974	4348
907.091	4558
907.208	4588
907.324	4558
907.441	4470
907.557	4310
907.674	4348
907.79	4276
907.907	4360
908.023	4447
908.139	4447
908.256	4428
908.372	4421
908.488	4417
908.604	4363
908.72	4280
908.836	4390
908.952	4322
909.068	4421
909.184	4558
909.3	4462
909.415	4535
909.531	4554
909.647	4333
909.762	4356
909.878	4310
909.993	4390
910.108	4417
910.224	4405
910.339	4470
910.454	4386
910.57	4367
910.685	4337
910.8	4641
910.915	4584
911.03	4523
911.145	4295
911.259	4280
911.374	4318
911.489	4291
911.604	4234
911.718	4128
911.833	4204
911.947	4139
912.062	3998
912.176	4230
912.291	4215
912.405	4230
912.519	4440
912.633	4508
912.748	4348
912.862	4261
912.976	4234
913.09	4029
913.204	4207
913.318	4238
913.431	4306
913.545	4375
913.659	4402
913.772	4348
913.886	4265
914	4238
914.113	4367
914.226	4443
914.34	4405
914.453	4215
914.566	4405
914.68	4284
914.793	4272
914.906	4101
915.019	4185
915.132	4093
915.245	4128
915.358	4200
915.47	4200
915.583	4261
915.696	4242
915.809	4398
915.921	4409
916.034	4287
916.146	4276
916.259	4246
916.371	4356
916.483	4314
916.595	4253
916.708	4329
916.82	4303
916.932	4329
917.044	4284
917.156	4344
917.268	4223
917.38	4246
917.491	4284
917.603	4280
917.715	4402
917.826	4432
917.938	4303
918.049	4223
918.161	4398
918.272	4569
918.384	4542
918.495	4379
918.606	4284
918.717	4207
918.828	4367
918.939	4363
919.05	4253
919.161	4322
919.272	4101
919.383	4188
919.494	4436
919.604	4653
919.715	4394
919.826	4341
919.936	4390
920.047	4493
920.157	4485
920.267	4675
920.378	4558
920.488	4516
920.598	4706
920.708	4877
920.818	4706
920.928	4740
921.038	4984
921.148	4919
921.258	4561
921.368	4592
921.477	4485
921.587	4478
921.697	4344
921.806	4493
921.916	4409
922.025	4299
922.134	4215
922.244	4192
922.353	4325
922.462	4162
922.571	4147
922.68	3998
922.789	3975
922.898	4006
923.007	4006
923.116	4105
923.224	4006
923.333	4082
923.442	4002
923.55	4010
923.659	4006
923.767	4063
923.876	3972
923.984	4093
924.092	3953
924.201	4078
924.309	4116
924.417	4112
924.525	4067
924.633	4093
924.741	5067
924.849	3896
924.956	4147
925.064	3945
925.172	3922
925.279	3930
925.387	4025
925.494	4048
925.602	4227
925.709	4150
925.816	4063
925.924	4112
926.031	4268
926.138	4162
926.245	4200
926.352	4097
926.459	4234
926.566	4310
926.673	4169
926.779	4120
926.886	4071
926.993	3994
927.099	3964
927.206	3918
927.312	3926
927.419	4040
927.525	4013
927.631	4082
927.737	3960
927.843	3926
927.95	3854
928.056	3949
928.162	3945
928.267	4051
928.373	4683
928.479	4124
928.585	3907
928.69	3994
928.796	4059
928.901	3972
929.007	3850
929.112	3979
929.218	3968
929.323	3937
929.428	3945
929.533	4086
929.638	3915
929.743	3960
929.848	4017
929.953	3979
930.058	3884
930.163	3800
930.267	3800
930.372	3956
930.477	3736
930.581	4040
930.685	3930
930.79	3797
930.894	3896
930.998	3823
931.103	4013
931.207	3675
931.311	3671
931.415	3652
931.519	3561
931.623	3564
