Data from test_V78500241_2298.txt Node
Date: Fri Mar 25 17:04:58 CST 2022
User: usil
Spectrometer: V785-0024
Trigger mode: 0
Integration Time (sec): 4.000000E-1
Scans to average: 1
Nonlinearity correction enabled: false
Boxcar width: 0
Storing dark spectrum: false
XAxis mode: Wavelengths
Number of Pixels in Spectrum: 1024
>>>>>Begin Spectral Data<<<<<
801.071	8065
801.214	8020
801.356	7898
801.499	7864
801.641	7818
801.783	7875
801.926	8039
802.068	7932
802.211	7963
802.353	8046
802.496	7936
802.638	7814
802.78	7856
802.923	7909
803.065	7841
803.208	7784
803.35	7986
803.492	8115
803.635	8054
803.777	8035
803.919	8107
804.061	8499
804.204	8183
804.346	8119
804.488	8001
804.63	8073
804.773	8046
804.915	8119
805.057	8294
805.199	8180
805.341	8180
805.483	8248
805.626	8221
805.768	8126
805.91	8180
806.052	8221
806.194	8081
806.336	8324
806.478	8096
806.62	8073
806.762	8164
806.904	8263
807.046	8457
807.188	8355
807.33	8328
807.472	8301
807.614	8161
807.756	8138
807.898	7982
808.04	7921
808.182	7803
808.324	7917
808.465	7833
808.607	8054
808.749	8073
808.891	8176
809.033	8248
809.174	8172
809.316	8058
809.458	8062
809.6	8081
809.741	8027
809.883	8001
810.025	8043
810.166	8027
810.308	8073
810.45	8001
810.591	7921
810.733	7746
810.875	7643
811.016	7540
811.158	7476
811.299	7563
811.441	7685
811.582	7620
811.724	7518
811.865	7597
812.007	7597
812.148	7601
812.29	7582
812.431	7696
812.573	7887
812.714	8008
812.855	8233
812.997	8191
813.138	8298
813.279	8153
813.421	8142
813.562	7917
813.703	7864
813.845	7685
813.986	7487
814.127	7244
814.268	7126
814.41	7244
814.551	7179
814.692	7266
814.833	7091
814.974	7126
815.115	7103
815.256	6989
815.397	6951
815.539	6981
815.68	6787
815.821	6776
815.962	6878
816.103	6867
816.244	6738
816.385	6593
816.526	6608
816.666	6563
816.807	6319
816.948	6479
817.089	6464
817.23	6456
817.371	6380
817.512	6437
817.653	6414
817.793	6395
817.934	6403
818.075	6506
818.216	6410
818.356	6475
818.497	6308
818.638	6129
818.778	6155
818.919	6114
819.06	6106
819.2	6342
819.341	6372
819.481	6369
819.622	6540
819.762	6688
819.903	6669
820.043	6612
820.184	6574
820.324	6513
820.465	6696
820.605	6662
820.746	6658
820.886	6574
821.026	6593
821.167	6715
821.307	6791
821.447	6795
821.588	6719
821.728	6566
821.868	6578
822.008	6308
822.149	6407
822.289	6399
822.429	6136
822.569	6095
822.709	6114
822.849	5912
822.99	5870
823.13	5912
823.27	5939
823.41	5790
823.55	5767
823.69	5722
823.83	5775
823.97	5688
824.11	5509
824.25	5474
824.389	5566
824.529	5589
824.669	5512
824.809	5668
824.949	5649
825.089	5623
825.228	5509
825.368	5357
825.508	5334
825.648	5341
825.787	5364
825.927	5433
826.067	5288
826.206	5265
826.346	5414
826.485	5372
826.625	5379
826.765	5528
826.904	5501
827.044	5277
827.183	5223
827.323	5140
827.462	5284
827.601	5143
827.741	5178
827.88	5269
828.02	5105
828.159	5223
828.298	5311
828.437	5349
828.577	5341
828.716	5474
828.855	5299
828.994	5147
829.134	5117
829.273	5155
829.412	5155
829.551	5159
829.69	5136
829.829	5292
829.968	5357
830.107	5337
830.246	5239
830.385	5143
830.524	5155
830.663	5105
830.802	4968
830.941	4919
831.08	4889
831.219	4968
831.357	4915
831.496	5178
831.635	4961
831.774	4816
831.913	4778
832.051	4698
832.19	4759
832.329	4831
832.467	4687
832.606	4622
832.744	4721
832.883	4691
833.022	4736
833.16	4725
833.299	4839
833.437	4854
833.576	4873
833.714	4892
833.852	4805
833.991	4870
834.129	4995
834.267	4930
834.406	4949
834.544	4946
834.682	4934
834.821	4938
834.959	5181
835.097	4999
835.235	5201
835.373	5060
835.511	5132
835.65	5041
835.788	5033
835.926	4900
836.064	4877
836.202	4934
836.34	5117
836.478	5197
836.615	5094
836.753	5242
836.891	5277
837.029	5231
837.167	5162
837.305	5181
837.443	5117
837.58	5083
837.718	5223
837.856	5208
837.993	5174
838.131	5212
838.269	5178
838.406	5155
838.544	5193
838.681	5018
838.819	5029
838.956	4900
839.094	4885
839.231	4980
839.369	5052
839.506	5391
839.643	5239
839.781	5052
839.918	4995
840.055	5102
840.193	5071
840.33	5124
840.467	5124
840.604	5201
840.742	5512
840.879	5083
841.016	5067
841.153	5132
841.29	5406
841.427	5357
841.564	5326
841.701	5364
841.838	5223
841.975	5265
842.112	5250
842.249	5132
842.385	5079
842.522	5330
842.659	5132
842.796	5117
842.933	5212
843.069	5121
843.206	5155
843.343	5318
843.479	5258
843.616	5242
843.752	5018
843.889	5018
844.025	5189
844.162	5029
844.298	5216
844.435	5067
844.571	5041
844.708	5178
844.844	5299
844.98	5376
845.117	5261
845.253	5155
845.389	5060
845.525	5124
845.661	5136
845.798	5022
845.934	5128
846.07	5052
846.206	5201
846.342	5277
846.478	5151
846.614	4957
846.75	4946
846.886	4965
847.022	5075
847.158	5086
847.294	5098
847.429	5090
847.565	5083
847.701	5353
847.837	4858
847.972	4763
848.108	4949
848.244	4930
848.379	4748
848.515	4706
848.65	4733
848.786	4698
848.921	4812
849.057	4896
849.192	4854
849.328	4790
849.463	4870
849.598	4774
849.734	4763
849.869	4660
850.004	4573
850.14	4618
850.275	4565
850.41	4516
850.545	4580
850.68	4641
850.815	4615
850.95	4687
851.085	4843
851.22	4729
851.355	4694
851.49	4588
851.625	4634
851.76	4660
851.895	4531
852.03	4550
852.165	4664
852.299	4694
852.434	4763
852.569	4740
852.703	4801
852.838	4831
852.973	4946
853.107	4862
853.242	4740
853.376	4645
853.511	4592
853.645	4615
853.78	4820
853.914	4683
854.048	4714
854.183	4660
854.317	4672
854.451	4873
854.585	4691
854.72	4672
854.854	4755
854.988	4580
855.122	4592
855.256	4554
855.39	4679
855.524	4790
855.658	4736
855.792	4649
855.926	4687
856.06	4729
856.194	4736
856.327	4649
856.461	4607
856.595	4584
856.729	4630
856.862	4740
856.996	4679
857.13	4698
857.263	4774
857.397	4809
857.53	4607
857.664	4717
857.797	4820
857.931	4797
858.064	4698
858.197	4740
858.331	4653
858.464	4637
858.597	4550
858.731	4634
858.864	4645
858.997	4546
859.13	4687
859.263	4668
859.396	4656
859.529	4538
859.662	4538
859.795	4538
859.928	4653
860.061	4752
860.194	4763
860.327	4580
860.46	4519
860.592	4698
860.725	4725
860.858	4710
860.99	4569
861.123	4519
861.256	4523
861.388	4577
861.521	5231
861.653	4455
861.786	4436
861.918	4451
862.05	4493
862.183	4546
862.315	4577
862.447	4603
862.58	4599
862.712	4383
862.844	4363
862.976	4443
863.108	4447
863.24	4873
863.372	4306
863.504	4402
863.636	4432
863.768	4485
863.9	4466
864.032	4295
864.164	4367
864.296	4508
864.428	4607
864.559	4554
864.691	4527
864.823	4546
864.954	4497
865.086	4497
865.217	4462
865.349	4443
865.48	4474
865.612	4523
865.743	4649
865.875	4478
866.006	4440
866.137	4455
866.269	4436
866.4	4447
866.531	4447
866.662	4375
866.793	4394
866.924	4432
867.055	4432
867.186	4424
867.317	4413
867.448	4344
867.579	4409
867.71	4409
867.841	4363
867.972	4428
868.103	4451
868.233	4447
868.364	4424
868.495	4527
868.625	4637
868.756	4771
868.886	4573
869.017	4622
869.147	4740
869.278	4782
869.408	4630
869.539	4565
869.669	4729
869.799	4653
869.929	4786
870.06	4744
870.19	4972
870.32	4892
870.45	4915
870.58	5045
870.71	5094
870.84	5090
870.97	4949
871.1	4889
871.23	5143
871.36	5143
871.489	5029
871.619	5064
871.749	5117
871.879	5105
872.008	5174
872.138	5025
872.267	5003
872.397	4870
872.526	4847
872.656	4706
872.785	4812
872.915	4915
873.044	5037
873.173	4892
873.303	4987
873.432	4965
873.561	4953
873.69	4873
873.819	4839
873.948	4885
874.077	4847
874.206	4767
874.335	4763
874.464	4881
874.593	5048
874.722	4930
874.851	5102
874.979	5094
875.108	5025
875.237	4934
875.365	4843
875.494	4873
875.623	4999
875.751	4835
875.88	4915
876.008	4953
876.136	5060
876.265	5185
876.393	5322
876.521	5265
876.65	5254
876.778	5155
876.906	5090
877.034	5037
877.162	5064
877.29	5010
877.418	5029
877.546	4984
877.674	5014
877.802	5037
877.93	4968
878.058	4953
878.185	4850
878.313	4961
878.441	4980
878.568	4782
878.696	4862
878.824	4923
878.951	5045
879.079	5083
879.206	5273
879.333	5105
879.461	5041
879.588	5018
879.715	5109
879.842	5235
879.97	4961
880.097	4782
880.224	4675
880.351	4824
880.478	4816
880.605	4771
880.732	4801
880.859	5102
880.986	4877
881.112	4923
881.239	4759
881.366	4660
881.493	4668
881.619	4550
881.746	4626
881.872	4630
881.999	4641
882.125	4683
882.252	4839
882.378	4809
882.505	4908
882.631	4812
882.757	4687
882.883	4706
883.01	4683
883.136	4653
883.262	4607
883.388	4599
883.514	4778
883.64	4900
883.766	4767
883.892	4653
884.018	4675
884.143	4885
884.269	5010
884.395	4664
884.52	4672
884.646	4611
884.772	4588
884.897	4523
885.023	4687
885.148	4767
885.274	4839
885.399	4793
885.524	4725
885.65	4714
885.775	4710
885.9	4702
886.025	4873
886.15	4733
886.275	4710
886.4	4634
886.525	4744
886.65	4653
886.775	4691
886.9	4953
887.025	5003
887.149	4793
887.274	4607
887.399	4580
887.523	4565
887.648	4626
887.773	4577
887.897	4755
888.021	4744
888.146	4660
888.27	4873
888.395	4850
888.519	4763
888.643	4831
888.767	4797
888.891	4736
889.015	4584
889.139	4656
889.263	4546
889.387	4786
889.511	4870
889.635	4759
889.759	4694
889.883	4634
890.006	4744
890.13	4812
890.254	4626
890.377	4733
890.501	4542
890.624	4546
890.748	4615
890.871	4516
890.995	4478
891.118	4379
891.241	4459
891.364	4546
891.488	4656
891.611	4478
891.734	4497
891.857	4519
891.98	4588
892.103	4664
892.226	4565
892.349	4481
892.471	4394
892.594	4546
892.717	4634
892.839	4592
892.962	4577
893.085	4599
893.207	4588
893.33	4489
893.452	4523
893.575	4653
893.697	4542
893.819	4812
893.941	4755
894.064	4752
894.186	4569
894.308	4546
894.43	4752
894.552	4748
894.674	4755
894.796	4538
894.918	4554
895.04	4561
895.161	4744
895.283	4710
895.405	4573
895.526	4645
895.648	4687
895.769	4668
895.891	4771
896.012	4717
896.134	4717
896.255	4630
896.376	4622
896.498	4645
896.619	4607
896.74	4588
896.861	4615
896.982	4961
897.103	5071
897.224	4828
897.345	4736
897.466	4645
897.587	4698
897.708	4847
897.828	4771
897.949	4694
898.07	4561
898.19	4660
898.311	4778
898.431	4664
898.552	4778
898.672	4778
898.792	4790
898.913	4736
899.033	4611
899.153	4485
899.273	4424
899.393	4451
899.513	4538
899.633	4519
899.753	4542
899.873	4512
899.993	4542
900.113	4554
900.232	4630
900.352	4523
900.472	4504
900.591	4417
900.711	4478
900.83	4413
900.95	4637
901.069	4675
901.189	4550
901.308	4375
901.427	4299
901.546	4344
901.665	4508
901.784	4478
901.904	4360
902.023	4322
902.141	4173
902.26	4131
902.379	4306
902.498	4207
902.617	4219
902.735	4398
902.854	4421
902.973	4363
903.091	4204
903.21	4265
903.328	4306
903.446	4265
903.565	4276
903.683	4341
903.801	4291
903.919	4409
904.038	4405
904.156	4375
904.274	4424
904.392	4398
904.51	4451
904.627	4455
904.745	4580
904.863	4664
904.981	4379
905.098	4314
905.216	4341
905.334	4462
905.451	4447
905.569	4462
905.686	4550
905.803	4523
905.921	4375
906.038	4550
906.155	4466
906.272	4413
906.389	4474
906.506	4303
906.623	4341
906.74	4405
906.857	4363
906.974	4356
907.091	4573
907.208	4714
907.324	4626
907.441	4497
907.557	4363
907.674	4360
907.79	4284
907.907	4375
908.023	4508
908.139	4459
908.256	4443
908.372	4500
908.488	4436
908.604	4325
908.72	4322
908.836	4371
908.952	4383
909.068	4455
909.184	4554
909.3	4459
909.415	4622
909.531	4550
909.647	4352
909.762	4322
909.878	4333
909.993	4447
910.108	4424
910.224	4398
910.339	4474
910.454	4413
910.57	4379
910.685	4325
910.8	4592
910.915	4596
911.03	4504
911.145	4341
911.259	4363
911.374	4352
911.489	4310
911.604	4284
911.718	4150
911.833	4177
911.947	4067
912.062	4055
912.176	4219
912.291	4227
912.405	4280
912.519	4481
912.633	4455
912.748	4344
912.862	4322
912.976	4188
913.09	4051
913.204	4154
913.318	4261
913.431	4318
913.545	4329
913.659	4421
913.772	4337
913.886	4257
914	4219
914.113	4356
914.226	4409
914.34	4375
914.453	4246
914.566	4409
914.68	4333
914.793	4348
914.906	4055
915.019	4158
915.132	4074
915.245	4143
915.358	4196
915.47	4249
915.583	4230
915.696	4261
915.809	4394
915.921	4413
916.034	4242
916.146	4261
916.259	4249
916.371	4333
916.483	4352
916.595	4227
916.708	4314
916.82	4287
916.932	4276
917.044	4322
917.156	4329
917.268	4257
917.38	4272
917.491	4238
917.603	4341
917.715	4462
917.826	4428
917.938	4306
918.049	4211
918.161	4394
918.272	4535
918.384	4554
918.495	4485
918.606	4325
918.717	4200
918.828	4344
918.939	4352
919.05	4242
919.161	4295
919.272	4124
919.383	4223
919.494	4478
919.604	4558
919.715	4421
919.826	4352
919.936	4352
920.047	4508
920.157	4462
920.267	4694
920.378	4535
920.488	4519
920.598	4691
920.708	4885
920.818	4748
920.928	4744
921.038	4911
921.148	4892
921.258	4588
921.368	4558
921.477	4481
921.587	4459
921.697	4363
921.806	4516
921.916	4455
922.025	4249
922.134	4238
922.244	4158
922.353	4287
922.462	4211
922.571	4097
922.68	3991
922.789	3994
922.898	4048
923.007	3994
923.116	4150
923.224	4101
923.333	4048
923.442	3975
923.55	3945
923.659	4048
923.767	4116
923.876	4021
923.984	4131
924.092	3964
924.201	4074
924.309	4059
924.417	4112
924.525	4040
924.633	4120
924.741	5041
924.849	3915
924.956	4090
925.064	3956
925.172	3903
925.279	3987
925.387	4074
925.494	4059
925.602	4177
925.709	4215
925.816	4013
925.924	4128
926.031	4200
926.138	4188
926.245	4207
926.352	4086
926.459	4287
926.566	4295
926.673	4158
926.779	4101
926.886	4105
926.993	3945
927.099	3998
927.206	3907
927.312	3968
927.419	4067
927.525	4044
927.631	4124
927.737	3979
927.843	3964
927.95	3896
928.056	3869
928.162	3964
928.267	4059
928.373	4641
928.479	4120
928.585	3876
928.69	4025
928.796	4044
928.901	3956
929.007	3873
929.112	4002
929.218	4002
929.323	3968
929.428	3945
929.533	4135
929.638	3861
929.743	3964
929.848	4067
929.953	4013
930.058	3876
930.163	3747
930.267	3831
930.372	3987
930.477	3770
930.581	4131
930.685	3934
930.79	3812
930.894	3846
930.998	3854
931.103	4044
931.207	3709
931.311	3679
931.415	3686
931.519	3542
931.623	3534
