Data from test_V78500241_1430.txt Node
Date: Fri Mar 25 16:58:56 CST 2022
User: usil
Spectrometer: V785-0024
Trigger mode: 0
Integration Time (sec): 4.000000E-1
Scans to average: 1
Nonlinearity correction enabled: false
Boxcar width: 0
Storing dark spectrum: false
XAxis mode: Wavelengths
Number of Pixels in Spectrum: 1024
>>>>>Begin Spectral Data<<<<<
801.071	8035
801.214	8035
801.356	7913
801.499	7928
801.641	7852
801.783	7830
801.926	7917
802.068	7902
802.211	7913
802.353	7959
802.496	7852
802.638	7807
802.78	7883
802.923	7936
803.065	7967
803.208	7814
803.35	7932
803.492	8092
803.635	8187
803.777	8012
803.919	8096
804.061	8457
804.204	8130
804.346	8035
804.488	8016
804.63	8115
804.773	7978
804.915	8115
805.057	8298
805.199	8191
805.341	8218
805.483	8259
805.626	8195
805.768	8172
805.91	8229
806.052	8256
806.194	8123
806.336	8244
806.478	8103
806.62	8111
806.762	8172
806.904	8210
807.046	8537
807.188	8438
807.33	8279
807.472	8351
807.614	8221
807.756	8126
807.898	7970
808.04	7887
808.182	7879
808.324	7845
808.465	7921
808.607	8126
808.749	8123
808.891	8210
809.033	8313
809.174	8206
809.316	8111
809.458	8062
809.6	7997
809.741	8008
809.883	8020
810.025	8065
810.166	8145
810.308	8039
810.45	8008
810.591	7852
810.733	7712
810.875	7655
811.016	7552
811.158	7499
811.299	7613
811.441	7727
811.582	7696
811.724	7586
811.865	7529
812.007	7578
812.148	7510
812.29	7674
812.431	7738
812.573	7852
812.714	7963
812.855	8123
812.997	8202
813.138	8286
813.279	8286
813.421	8065
813.562	7978
813.703	7875
813.845	7753
813.986	7392
814.127	7293
814.268	7202
814.41	7175
814.551	7164
814.692	7217
814.833	7103
814.974	7103
815.115	7122
815.256	6977
815.397	6932
815.539	6913
815.68	6829
815.821	6764
815.962	6882
816.103	6856
816.244	6696
816.385	6642
816.526	6719
816.666	6498
816.807	6346
816.948	6490
817.089	6509
817.23	6426
817.371	6365
817.512	6376
817.653	6418
817.793	6395
817.934	6456
818.075	6475
818.216	6445
818.356	6433
818.497	6220
818.638	6144
818.778	6148
818.919	6098
819.06	6144
819.2	6380
819.341	6315
819.481	6342
819.622	6483
819.762	6757
819.903	6692
820.043	6650
820.184	6559
820.324	6604
820.465	6741
820.605	6707
820.746	6677
820.886	6589
821.026	6623
821.167	6715
821.307	6795
821.447	6753
821.588	6681
821.728	6563
821.868	6433
822.008	6353
822.149	6414
822.289	6331
822.429	6144
822.569	6045
822.709	6133
822.849	5927
822.99	5931
823.13	5897
823.27	5946
823.41	5771
823.55	5798
823.69	5752
823.83	5790
823.97	5695
824.11	5543
824.25	5501
824.389	5554
824.529	5547
824.669	5490
824.809	5596
824.949	5665
825.089	5646
825.228	5535
825.368	5391
825.508	5376
825.648	5337
825.787	5383
825.927	5334
826.067	5303
826.206	5296
826.346	5406
826.485	5410
826.625	5402
826.765	5566
826.904	5436
827.044	5254
827.183	5178
827.323	5159
827.462	5258
827.601	5143
827.741	5189
827.88	5250
828.02	5132
828.159	5216
828.298	5303
828.437	5334
828.577	5311
828.716	5452
828.855	5345
828.994	5117
829.134	5166
829.273	5162
829.412	5132
829.551	5178
829.69	5140
829.829	5315
829.968	5357
830.107	5254
830.246	5296
830.385	5155
830.524	5124
830.663	5018
830.802	4987
830.941	4870
831.08	4892
831.219	4995
831.357	4961
831.496	5170
831.635	4885
831.774	4866
831.913	4858
832.051	4710
832.19	4752
832.329	4820
832.467	4706
832.606	4649
832.744	4729
832.883	4744
833.022	4729
833.16	4782
833.299	4828
833.437	4835
833.576	4824
833.714	4839
833.852	4847
833.991	4915
834.129	4984
834.267	4938
834.406	4946
834.544	5033
834.682	4972
834.821	4980
834.959	5189
835.097	5006
835.235	5170
835.373	5094
835.511	5083
835.65	5022
835.788	4965
835.926	4904
836.064	4892
836.202	4908
836.34	5140
836.478	5204
836.615	5098
836.753	5197
836.891	5235
837.029	5261
837.167	5189
837.305	5151
837.443	5159
837.58	5109
837.718	5220
837.856	5185
837.993	5113
838.131	5254
838.269	5201
838.406	5208
838.544	5178
838.681	5033
838.819	4987
838.956	4930
839.094	4854
839.231	4968
839.369	5124
839.506	5417
839.643	5223
839.781	5041
839.918	5033
840.055	5071
840.193	5117
840.33	5147
840.467	5155
840.604	5181
840.742	5414
840.879	5079
841.016	5079
841.153	5109
841.29	5391
841.427	5349
841.564	5326
841.701	5395
841.838	5311
841.975	5258
842.112	5242
842.249	5132
842.385	5083
842.522	5337
842.659	5159
842.796	5140
842.933	5227
843.069	5201
843.206	5170
843.343	5280
843.479	5208
843.616	5250
843.752	5052
843.889	5010
844.025	5193
844.162	4984
844.298	5159
844.435	5086
844.571	5056
844.708	5166
844.844	5311
844.98	5315
845.117	5284
845.253	5155
845.389	5033
845.525	5155
845.661	5105
845.798	5025
845.934	5174
846.07	5094
846.206	5208
846.342	5269
846.478	5174
846.614	4965
846.75	4976
846.886	4923
847.022	5155
847.158	4995
847.294	5033
847.429	5075
847.565	5052
847.701	5341
847.837	4854
847.972	4870
848.108	4968
848.244	4972
848.379	4793
848.515	4721
848.65	4733
848.786	4755
848.921	4748
849.057	4850
849.192	4892
849.328	4858
849.463	4812
849.598	4755
849.734	4786
849.869	4698
850.004	4577
850.14	4641
850.275	4599
850.41	4535
850.545	4542
850.68	4641
850.815	4607
850.95	4607
851.085	4790
851.22	4744
851.355	4622
851.49	4630
851.625	4607
851.76	4611
851.895	4527
852.03	4535
852.165	4626
852.299	4744
852.434	4820
852.569	4752
852.703	4767
852.838	4873
852.973	4904
853.107	4858
853.242	4717
853.376	4668
853.511	4565
853.645	4653
853.78	4824
853.914	4672
854.048	4664
854.183	4615
854.317	4675
854.451	4850
854.585	4656
854.72	4615
854.854	4710
854.988	4622
855.122	4626
855.256	4504
855.39	4622
855.524	4740
855.658	4725
855.792	4721
855.926	4721
856.06	4748
856.194	4774
856.327	4675
856.461	4615
856.595	4615
856.729	4675
856.862	4763
856.996	4630
857.13	4721
857.263	4752
857.397	4801
857.53	4618
857.664	4702
857.797	4717
857.931	4774
858.064	4694
858.197	4771
858.331	4611
858.464	4611
858.597	4512
858.731	4626
858.864	4668
858.997	4527
859.13	4672
859.263	4668
859.396	4714
859.529	4561
859.662	4550
859.795	4542
859.928	4626
860.061	4771
860.194	4786
860.327	4607
860.46	4546
860.592	4744
860.725	4786
860.858	4710
860.99	4516
861.123	4531
861.256	4554
861.388	4634
861.521	5429
861.653	4470
861.786	4424
861.918	4504
862.05	4485
862.183	4493
862.315	4580
862.447	4660
862.58	4519
862.712	4417
862.844	4344
862.976	4459
863.108	4413
863.24	4873
863.372	4325
863.504	4466
863.636	4356
863.768	4527
863.9	4409
864.032	4337
864.164	4424
864.296	4481
864.428	4497
864.559	4580
864.691	4542
864.823	4519
864.954	4481
865.086	4485
865.217	4500
865.349	4402
865.48	4424
865.612	4443
865.743	4599
865.875	4478
866.006	4459
866.137	4443
866.269	4432
866.4	4348
866.531	4417
866.662	4375
866.793	4360
866.924	4428
867.055	4500
867.186	4481
867.317	4417
867.448	4352
867.579	4386
867.71	4398
867.841	4337
867.972	4489
868.103	4485
868.233	4474
868.364	4402
868.495	4462
868.625	4675
868.756	4721
868.886	4550
869.017	4656
869.147	4771
869.278	4793
869.408	4618
869.539	4641
869.669	4721
869.799	4641
869.929	4748
870.06	4740
870.19	4904
870.32	4900
870.45	4957
870.58	5022
870.71	5071
870.84	5071
870.97	4904
871.1	4877
871.23	5121
871.36	5128
871.489	5037
871.619	5041
871.749	5102
871.879	5155
872.008	5178
872.138	5083
872.267	5052
872.397	4873
872.526	4790
872.656	4710
872.785	4812
872.915	4999
873.044	4972
873.173	4942
873.303	4980
873.432	4953
873.561	4942
873.69	4896
873.819	4816
873.948	4881
874.077	4843
874.206	4744
874.335	4782
874.464	4923
874.593	5090
874.722	4923
874.851	5086
874.979	5060
875.108	5071
875.237	4908
875.365	4862
875.494	4862
875.623	4968
875.751	4828
875.88	4885
876.008	4995
876.136	5029
876.265	5231
876.393	5349
876.521	5216
876.65	5223
876.778	5151
876.906	5075
877.034	4976
877.162	5003
877.29	4953
877.418	5018
877.546	5067
877.674	5037
877.802	5048
877.93	4980
878.058	4934
878.185	4854
878.313	4976
878.441	4987
878.568	4797
878.696	4866
878.824	4930
878.951	4957
879.079	5109
879.206	5288
879.333	5018
879.461	4999
879.588	5010
879.715	5155
879.842	5155
879.97	4980
880.097	4790
880.224	4755
880.351	4797
880.478	4835
880.605	4786
880.732	4809
880.859	5064
880.986	4873
881.112	4911
881.239	4790
881.366	4672
881.493	4565
881.619	4573
881.746	4618
881.872	4660
881.999	4649
882.125	4687
882.252	4767
882.378	4835
882.505	4919
882.631	4763
882.757	4653
882.883	4736
883.01	4714
883.136	4660
883.262	4618
883.388	4603
883.514	4839
883.64	4862
883.766	4767
883.892	4626
884.018	4714
884.143	4866
884.269	5006
884.395	4687
884.52	4584
884.646	4649
884.772	4592
884.897	4508
885.023	4687
885.148	4786
885.274	4850
885.399	4767
885.524	4683
885.65	4664
885.775	4687
885.9	4702
886.025	4862
886.15	4759
886.275	4710
886.4	4592
886.525	4744
886.65	4660
886.775	4656
886.9	4870
887.025	5052
887.149	4771
887.274	4664
887.399	4569
887.523	4573
887.648	4599
887.773	4626
887.897	4759
888.021	4725
888.146	4729
888.27	4858
888.395	4885
888.519	4831
888.643	4797
888.767	4820
888.891	4649
889.015	4561
889.139	4645
889.263	4584
889.387	4744
889.511	4793
889.635	4729
889.759	4634
889.883	4618
890.006	4733
890.13	4782
890.254	4580
890.377	4691
890.501	4550
890.624	4519
890.748	4660
890.871	4546
890.995	4459
891.118	4424
891.241	4527
891.364	4519
891.488	4656
891.611	4508
891.734	4527
891.857	4630
891.98	4577
892.103	4668
892.226	4588
892.349	4512
892.471	4428
892.594	4577
892.717	4596
892.839	4596
892.962	4573
893.085	4599
893.207	4603
893.33	4413
893.452	4519
893.575	4694
893.697	4554
893.819	4793
893.941	4805
894.064	4733
894.186	4550
894.308	4580
894.43	4691
894.552	4831
894.674	4763
894.796	4554
894.918	4569
895.04	4558
895.161	4668
895.283	4622
895.405	4523
895.526	4641
895.648	4714
895.769	4687
895.891	4668
896.012	4733
896.134	4710
896.255	4653
896.376	4641
896.498	4599
896.619	4683
896.74	4573
896.861	4596
896.982	4927
897.103	5048
897.224	4854
897.345	4744
897.466	4683
897.587	4744
897.708	4820
897.828	4790
897.949	4630
898.07	4535
898.19	4641
898.311	4786
898.431	4626
898.552	4714
898.672	4831
898.792	4824
898.913	4698
899.033	4607
899.153	4497
899.273	4409
899.393	4508
899.513	4519
899.633	4508
899.753	4588
899.873	4512
899.993	4588
900.113	4504
900.232	4565
900.352	4531
900.472	4500
900.591	4398
900.711	4504
900.83	4466
900.95	4637
901.069	4679
901.189	4523
901.308	4306
901.427	4291
901.546	4356
901.665	4459
901.784	4523
901.904	4375
902.023	4280
902.141	4185
902.26	4196
902.379	4310
902.498	4234
902.617	4249
902.735	4352
902.854	4402
902.973	4341
903.091	4200
903.21	4234
903.328	4295
903.446	4261
903.565	4249
903.683	4375
903.801	4265
903.919	4383
904.038	4367
904.156	4268
904.274	4398
904.392	4421
904.51	4455
904.627	4455
904.745	4573
904.863	4603
904.981	4371
905.098	4295
905.216	4371
905.334	4455
905.451	4436
905.569	4478
905.686	4542
905.803	4588
905.921	4379
906.038	4481
906.155	4478
906.272	4440
906.389	4474
906.506	4386
906.623	4409
906.74	4413
906.857	4284
906.974	4367
907.091	4573
907.208	4672
907.324	4592
907.441	4478
907.557	4303
907.674	4348
907.79	4314
907.907	4402
908.023	4485
908.139	4443
908.256	4405
908.372	4474
908.488	4474
908.604	4322
908.72	4272
908.836	4348
908.952	4390
909.068	4409
909.184	4550
909.3	4466
909.415	4607
909.531	4542
909.647	4329
909.762	4363
909.878	4306
909.993	4474
910.108	4432
910.224	4394
910.339	4455
910.454	4421
910.57	4379
910.685	4322
910.8	4607
910.915	4561
911.03	4493
911.145	4322
911.259	4287
911.374	4356
911.489	4242
911.604	4227
911.718	4204
911.833	4249
911.947	4097
912.062	4006
912.176	4234
912.291	4234
912.405	4223
912.519	4470
912.633	4500
912.748	4337
912.862	4314
912.976	4173
913.09	4074
913.204	4207
913.318	4280
913.431	4367
913.545	4344
913.659	4436
913.772	4367
913.886	4265
914	4219
914.113	4348
914.226	4402
914.34	4394
914.453	4169
914.566	4440
914.68	4287
914.793	4276
914.906	4188
915.019	4097
915.132	4048
915.245	4177
915.358	4234
915.47	4219
915.583	4246
915.696	4295
915.809	4390
915.921	4436
916.034	4249
916.146	4268
916.259	4207
916.371	4367
916.483	4310
916.595	4268
916.708	4329
916.82	4287
916.932	4295
917.044	4356
917.156	4344
917.268	4234
917.38	4284
917.491	4223
917.603	4329
917.715	4451
917.826	4409
917.938	4341
918.049	4276
918.161	4386
918.272	4531
918.384	4504
918.495	4440
918.606	4287
918.717	4257
918.828	4371
918.939	4375
919.05	4219
919.161	4348
919.272	4181
919.383	4242
919.494	4436
919.604	4603
919.715	4428
919.826	4341
919.936	4356
920.047	4565
920.157	4497
920.267	4675
920.378	4500
920.488	4470
920.598	4733
920.708	4911
920.818	4729
920.928	4774
921.038	4900
921.148	4892
921.258	4634
921.368	4550
921.477	4523
921.587	4443
921.697	4398
921.806	4577
921.916	4428
922.025	4276
922.134	4246
922.244	4230
922.353	4314
922.462	4219
922.571	4139
922.68	4010
922.789	3964
922.898	4074
923.007	3956
923.116	4147
923.224	4017
923.333	4063
923.442	3998
923.55	3979
923.659	4048
923.767	4109
923.876	3991
923.984	4101
924.092	3972
924.201	4082
924.309	4029
924.417	4154
924.525	4051
924.633	4074
924.741	5048
924.849	3915
924.956	4158
925.064	3979
925.172	3892
925.279	3934
925.387	4055
925.494	4055
925.602	4181
925.709	4143
925.816	4044
925.924	4135
926.031	4215
926.138	4150
926.245	4204
926.352	4112
926.459	4207
926.566	4333
926.673	4162
926.779	4090
926.886	4097
926.993	3994
927.099	3998
927.206	3964
927.312	3991
927.419	4025
927.525	4025
927.631	4067
927.737	3991
927.843	3926
927.95	3827
928.056	3945
928.162	3994
928.267	4082
928.373	4554
928.479	4071
928.585	3850
928.69	3994
928.796	4063
928.901	3960
929.007	3838
929.112	4010
929.218	3998
929.323	3968
929.428	3949
929.533	4086
929.638	3903
929.743	3926
929.848	4051
929.953	3987
930.058	3918
930.163	3762
930.267	3823
930.372	3949
930.477	3816
930.581	4112
930.685	3945
930.79	3827
930.894	3861
930.998	3831
931.103	4044
931.207	3717
931.311	3698
931.415	3660
931.519	3504
931.623	3553
