Data from test_V78500241_766.txt Node
Date: Fri Mar 25 16:54:19 CST 2022
User: usil
Spectrometer: V785-0024
Trigger mode: 0
Integration Time (sec): 4.000000E-1
Scans to average: 1
Nonlinearity correction enabled: false
Boxcar width: 0
Storing dark spectrum: false
XAxis mode: Wavelengths
Number of Pixels in Spectrum: 1024
>>>>>Begin Spectral Data<<<<<
801.071	8008
801.214	8031
801.356	7845
801.499	7913
801.641	7769
801.783	7852
801.926	8024
802.068	7978
802.211	7890
802.353	7951
802.496	7822
802.638	7818
802.78	7906
802.923	7963
803.065	7875
803.208	7833
803.35	8012
803.492	8088
803.635	8145
803.777	7993
803.919	8100
804.061	8355
804.204	8046
804.346	8069
804.488	7947
804.63	8107
804.773	8005
804.915	8084
805.057	8202
805.199	8157
805.341	8218
805.483	8221
805.626	8237
805.768	8180
805.91	8214
806.052	8199
806.194	8088
806.336	8286
806.478	8126
806.62	8027
806.762	8134
806.904	8317
807.046	8434
807.188	8275
807.33	8275
807.472	8301
807.614	8183
807.756	8130
807.898	8027
808.04	7845
808.182	7925
808.324	7818
808.465	7917
808.607	8035
808.749	8069
808.891	8142
809.033	8240
809.174	8233
809.316	8054
809.458	8084
809.6	8008
809.741	8024
809.883	8043
810.025	8084
810.166	8012
810.308	8020
810.45	8005
810.591	7799
810.733	7738
810.875	7655
811.016	7468
811.158	7514
811.299	7506
811.441	7681
811.582	7643
811.724	7518
811.865	7502
812.007	7594
812.148	7620
812.29	7582
812.431	7719
812.573	7849
812.714	7925
812.855	8058
812.997	8142
813.138	8263
813.279	8218
813.421	8111
813.562	7989
813.703	7875
813.845	7632
813.986	7445
814.127	7278
814.268	7213
814.41	7175
814.551	7076
814.692	7129
814.833	7034
814.974	7076
815.115	7171
815.256	7012
815.397	6920
815.539	6905
815.68	6875
815.821	6753
815.962	6806
816.103	6779
816.244	6753
816.385	6616
816.526	6585
816.666	6448
816.807	6281
816.948	6361
817.089	6445
817.23	6418
817.371	6380
817.512	6357
817.653	6380
817.793	6365
817.934	6441
818.075	6399
818.216	6407
818.356	6338
818.497	6270
818.638	6091
818.778	6125
818.919	6076
819.06	6167
819.2	6315
819.341	6262
819.481	6353
819.622	6555
819.762	6749
819.903	6681
820.043	6597
820.184	6608
820.324	6555
820.465	6673
820.605	6662
820.746	6604
820.886	6460
821.026	6700
821.167	6673
821.307	6745
821.447	6730
821.588	6669
821.728	6555
821.868	6490
822.008	6338
822.149	6350
822.289	6410
822.429	6110
822.569	6072
822.709	6038
822.849	5904
822.99	5878
823.13	5931
823.27	5908
823.41	5741
823.55	5741
823.69	5745
823.83	5764
823.97	5688
824.11	5566
824.25	5493
824.389	5524
824.529	5532
824.669	5516
824.809	5585
824.949	5619
825.089	5611
825.228	5554
825.368	5372
825.508	5337
825.648	5349
825.787	5391
825.927	5330
826.067	5261
826.206	5280
826.346	5357
826.485	5357
826.625	5436
826.765	5516
826.904	5417
827.044	5246
827.183	5212
827.323	5067
827.462	5277
827.601	5162
827.741	5181
827.88	5204
828.02	5143
828.159	5212
828.298	5254
828.437	5353
828.577	5197
828.716	5459
828.855	5299
828.994	5105
829.134	5155
829.273	5227
829.412	5102
829.551	5132
829.69	5170
829.829	5155
829.968	5364
830.107	5239
830.246	5242
830.385	5121
830.524	5132
830.663	5117
830.802	4923
830.941	4877
831.08	4809
831.219	4976
831.357	4953
831.496	5113
831.635	4919
831.774	4892
831.913	4835
832.051	4706
832.19	4755
832.329	4774
832.467	4683
832.606	4607
832.744	4714
832.883	4706
833.022	4729
833.16	4759
833.299	4778
833.437	4847
833.576	4820
833.714	4892
833.852	4862
833.991	4801
834.129	4942
834.267	4930
834.406	4881
834.544	4984
834.682	4957
834.821	4953
834.959	5166
835.097	5010
835.235	5136
835.373	5071
835.511	5079
835.65	5010
835.788	5056
835.926	4873
836.064	4847
836.202	4885
836.34	5132
836.478	5204
836.615	5128
836.753	5204
836.891	5299
837.029	5254
837.167	5208
837.305	5136
837.443	5094
837.58	5064
837.718	5269
837.856	5174
837.993	5147
838.131	5170
838.269	5201
838.406	5223
838.544	5155
838.681	5045
838.819	4991
838.956	4885
839.094	4866
839.231	4980
839.369	5105
839.506	5433
839.643	5220
839.781	5037
839.918	5025
840.055	5098
840.193	5090
840.33	5124
840.467	5128
840.604	5216
840.742	5429
840.879	5098
841.016	5067
841.153	5151
841.29	5398
841.427	5315
841.564	5273
841.701	5322
841.838	5299
841.975	5242
842.112	5242
842.249	5151
842.385	5098
842.522	5296
842.659	5166
842.796	5220
842.933	5155
843.069	5113
843.206	5113
843.343	5265
843.479	5193
843.616	5284
843.752	5067
843.889	5014
844.025	5280
844.162	5029
844.298	5239
844.435	5075
844.571	5083
844.708	5178
844.844	5311
844.98	5341
845.117	5216
845.253	5105
845.389	5113
845.525	5124
845.661	5151
845.798	5037
845.934	5136
846.07	5045
846.206	5170
846.342	5227
846.478	5170
846.614	5025
846.75	4968
846.886	4953
847.022	5124
847.158	4968
847.294	5071
847.429	5124
847.565	5048
847.701	5284
847.837	4831
847.972	4793
848.108	4908
848.244	4934
848.379	4786
848.515	4656
848.65	4736
848.786	4733
848.921	4721
849.057	4835
849.192	4908
849.328	4858
849.463	4862
849.598	4740
849.734	4733
849.869	4668
850.004	4599
850.14	4656
850.275	4634
850.41	4523
850.545	4554
850.68	4615
850.815	4641
850.95	4603
851.085	4835
851.22	4729
851.355	4672
851.49	4588
851.625	4611
851.76	4599
851.895	4531
852.03	4508
852.165	4672
852.299	4664
852.434	4763
852.569	4687
852.703	4755
852.838	4797
852.973	4942
853.107	4915
853.242	4717
853.376	4668
853.511	4554
853.645	4664
853.78	4786
853.914	4675
854.048	4679
854.183	4630
854.317	4698
854.451	4828
854.585	4675
854.72	4615
854.854	4778
854.988	4577
855.122	4626
855.256	4470
855.39	4641
855.524	4752
855.658	4687
855.792	4683
855.926	4664
856.06	4694
856.194	4824
856.327	4710
856.461	4596
856.595	4584
856.729	4611
856.862	4748
856.996	4656
857.13	4710
857.263	4767
857.397	4801
857.53	4641
857.664	4687
857.797	4752
857.931	4790
858.064	4687
858.197	4740
858.331	4580
858.464	4615
858.597	4519
858.731	4588
858.864	4615
858.997	4607
859.13	4672
859.263	4615
859.396	4729
859.529	4588
859.662	4569
859.795	4497
859.928	4573
860.061	4733
860.194	4793
860.327	4615
860.46	4516
860.592	4706
860.725	4698
860.858	4668
860.99	4558
861.123	4500
861.256	4535
861.388	4622
861.521	5322
861.653	4489
861.786	4436
861.918	4508
862.05	4500
862.183	4561
862.315	4577
862.447	4698
862.58	4497
862.712	4360
862.844	4287
862.976	4459
863.108	4455
863.24	4812
863.372	4303
863.504	4440
863.636	4428
863.768	4413
863.9	4383
864.032	4352
864.164	4379
864.296	4455
864.428	4504
864.559	4519
864.691	4546
864.823	4565
864.954	4504
865.086	4527
865.217	4451
865.349	4398
865.48	4413
865.612	4512
865.743	4618
865.875	4485
866.006	4466
866.137	4402
866.269	4455
866.4	4428
866.531	4405
866.662	4421
866.793	4398
866.924	4402
867.055	4497
867.186	4470
867.317	4466
867.448	4386
867.579	4417
867.71	4417
867.841	4375
867.972	4485
868.103	4466
868.233	4459
868.364	4447
868.495	4485
868.625	4683
868.756	4778
868.886	4577
869.017	4672
869.147	4790
869.278	4831
869.408	4744
869.539	4660
869.669	4752
869.799	4694
869.929	4805
870.06	4767
870.19	5022
870.32	4968
870.45	5006
870.58	5025
870.71	5143
870.84	5102
870.97	4995
871.1	4976
871.23	5216
871.36	5212
871.489	5094
871.619	5155
871.749	5170
871.879	5193
872.008	5216
872.138	5086
872.267	5014
872.397	4904
872.526	4801
872.656	4801
872.785	4843
872.915	4991
873.044	5060
873.173	4976
873.303	4995
873.432	4995
873.561	5041
873.69	4896
873.819	4896
873.948	4946
874.077	4866
874.206	4820
874.335	4816
874.464	4946
874.593	5067
874.722	5003
874.851	5132
874.979	5140
875.108	5060
875.237	4923
875.365	4908
875.494	4919
875.623	5018
875.751	4877
875.88	4957
876.008	5003
876.136	5048
876.265	5246
876.393	5379
876.521	5311
876.65	5269
876.778	5193
876.906	5079
877.034	5056
877.162	5098
877.29	5025
877.418	5151
877.546	5018
877.674	5052
877.802	5060
877.93	5075
878.058	4980
878.185	4915
878.313	5022
878.441	4976
878.568	4843
878.696	4892
878.824	4976
878.951	5010
879.079	5204
879.206	5269
879.333	5174
879.461	4968
879.588	5041
879.715	5128
879.842	5261
879.97	5079
880.097	4801
880.224	4793
880.351	4866
880.478	4877
880.605	4801
880.732	4812
880.859	5113
880.986	4904
881.112	4953
881.239	4812
881.366	4683
881.493	4656
881.619	4592
881.746	4694
881.872	4660
881.999	4733
882.125	4752
882.252	4824
882.378	4877
882.505	5025
882.631	4801
882.757	4687
882.883	4767
883.01	4782
883.136	4725
883.262	4626
883.388	4656
883.514	4812
883.64	4877
883.766	4835
883.892	4691
884.018	4748
884.143	4900
884.269	5075
884.395	4702
884.52	4683
884.646	4649
884.772	4603
884.897	4584
885.023	4706
885.148	4786
885.274	4839
885.399	4873
885.524	4786
885.65	4721
885.775	4771
885.9	4767
886.025	4900
886.15	4835
886.275	4736
886.4	4698
886.525	4778
886.65	4702
886.775	4733
886.9	4919
887.025	5022
887.149	4816
887.274	4717
887.399	4599
887.523	4615
887.648	4630
887.773	4599
887.897	4778
888.021	4850
888.146	4725
888.27	4866
888.395	4908
888.519	4854
888.643	4911
888.767	4858
888.891	4698
889.015	4607
889.139	4664
889.263	4618
889.387	4793
889.511	4877
889.635	4831
889.759	4733
889.883	4656
890.006	4740
890.13	4870
890.254	4622
890.377	4683
890.501	4577
890.624	4558
890.748	4660
890.871	4550
890.995	4466
891.118	4417
891.241	4527
891.364	4538
891.488	4668
891.611	4527
891.734	4535
891.857	4641
891.98	4596
892.103	4653
892.226	4656
892.349	4580
892.471	4390
892.594	4538
892.717	4615
892.839	4626
892.962	4634
893.085	4683
893.207	4653
893.33	4470
893.452	4561
893.575	4675
893.697	4588
893.819	4771
893.941	4881
894.064	4801
894.186	4687
894.308	4596
894.43	4767
894.552	4919
894.674	4767
894.796	4588
894.918	4618
895.04	4637
895.161	4748
895.283	4687
895.405	4584
895.526	4664
895.648	4672
895.769	4698
895.891	4729
896.012	4740
896.134	4752
896.255	4710
896.376	4683
896.498	4672
896.619	4702
896.74	4637
896.861	4691
896.982	4927
897.103	5071
897.224	4862
897.345	4763
897.466	4698
897.587	4740
897.708	4908
897.828	4797
897.949	4702
898.07	4554
898.19	4672
898.311	4854
898.431	4683
898.552	4740
898.672	4831
898.792	4831
898.913	4797
899.033	4683
899.153	4546
899.273	4500
899.393	4474
899.513	4512
899.633	4588
899.753	4618
899.873	4531
899.993	4596
900.113	4592
900.232	4596
900.352	4626
900.472	4527
900.591	4443
900.711	4554
900.83	4497
900.95	4656
901.069	4736
901.189	4550
901.308	4421
901.427	4367
901.546	4405
901.665	4519
901.784	4554
901.904	4432
902.023	4367
902.141	4230
902.26	4215
902.379	4341
902.498	4257
902.617	4242
902.735	4386
902.854	4443
902.973	4356
903.091	4223
903.21	4261
903.328	4295
903.446	4257
903.565	4310
903.683	4390
903.801	4276
903.919	4440
904.038	4451
904.156	4318
904.274	4470
904.392	4398
904.51	4466
904.627	4489
904.745	4634
904.863	4649
904.981	4379
905.098	4318
905.216	4413
905.334	4504
905.451	4443
905.569	4493
905.686	4558
905.803	4580
905.921	4474
906.038	4519
906.155	4523
906.272	4432
906.389	4493
906.506	4356
906.623	4421
906.74	4383
906.857	4371
906.974	4390
907.091	4584
907.208	4668
907.324	4641
907.441	4538
907.557	4367
907.674	4356
907.79	4360
907.907	4386
908.023	4504
908.139	4500
908.256	4485
908.372	4474
908.488	4440
908.604	4386
908.72	4356
908.836	4379
908.952	4363
909.068	4451
909.184	4584
909.3	4516
909.415	4653
909.531	4569
909.647	4333
909.762	4360
909.878	4348
909.993	4527
910.108	4443
910.224	4459
910.339	4470
910.454	4398
910.57	4402
910.685	4371
910.8	4679
910.915	4622
911.03	4478
911.145	4379
911.259	4348
911.374	4375
911.489	4386
911.604	4314
911.718	4169
911.833	4230
911.947	4067
912.062	4021
912.176	4215
912.291	4261
912.405	4268
912.519	4474
912.633	4535
912.748	4386
912.862	4318
912.976	4234
913.09	4105
913.204	4211
913.318	4276
913.431	4402
913.545	4371
913.659	4447
913.772	4371
913.886	4265
914	4223
914.113	4386
914.226	4478
914.34	4428
914.453	4272
914.566	4436
914.68	4341
914.793	4363
914.906	4185
915.019	4166
915.132	4044
915.245	4215
915.358	4249
915.47	4268
915.583	4310
915.696	4322
915.809	4394
915.921	4447
916.034	4337
916.146	4257
916.259	4246
916.371	4371
916.483	4367
916.595	4268
916.708	4325
916.82	4314
916.932	4322
917.044	4367
917.156	4329
917.268	4219
917.38	4310
917.491	4356
917.603	4383
917.715	4409
917.826	4470
917.938	4322
918.049	4223
918.161	4443
918.272	4523
918.384	4508
918.495	4470
918.606	4303
918.717	4295
918.828	4379
918.939	4402
919.05	4303
919.161	4337
919.272	4173
919.383	4249
919.494	4497
919.604	4634
919.715	4436
919.826	4383
919.936	4394
920.047	4538
920.157	4462
920.267	4721
920.378	4542
920.488	4519
920.598	4752
920.708	4904
920.818	4797
920.928	4740
921.038	4908
921.148	4934
921.258	4630
921.368	4573
921.477	4485
921.587	4470
921.697	4371
921.806	4584
921.916	4436
922.025	4253
922.134	4291
922.244	4242
922.353	4360
922.462	4181
922.571	4139
922.68	4002
922.789	4063
922.898	4112
923.007	4021
923.116	4112
923.224	4082
923.333	4067
923.442	4013
923.55	4010
923.659	3998
923.767	4128
923.876	3991
923.984	4139
924.092	3994
924.201	4086
924.309	4120
924.417	4131
924.525	4109
924.633	4139
924.741	4870
924.849	3956
924.956	4215
925.064	3964
925.172	3911
925.279	3953
925.387	4051
925.494	4071
925.602	4173
925.709	4211
925.816	4010
925.924	4139
926.031	4227
926.138	4169
926.245	4200
926.352	4067
926.459	4192
926.566	4333
926.673	4143
926.779	4105
926.886	4082
926.993	3987
927.099	4002
927.206	3956
927.312	3911
927.419	4086
927.525	4032
927.631	4082
927.737	3979
927.843	3953
927.95	3831
928.056	3968
928.162	3956
928.267	4093
928.373	4660
928.479	4112
928.585	3842
928.69	4071
928.796	4097
928.901	3956
929.007	3873
929.112	4010
929.218	3972
929.323	3968
929.428	3972
929.533	4143
929.638	3915
929.743	3949
929.848	4078
929.953	3979
930.058	3956
930.163	3804
930.267	3781
930.372	3987
930.477	3800
930.581	4101
930.685	3979
930.79	3827
930.894	3876
930.998	3812
931.103	4021
931.207	3743
931.311	3694
931.415	3641
931.519	3481
931.623	3542
