Data from test_V78500241_2750.txt Node
Date: Fri Mar 25 17:08:07 CST 2022
User: usil
Spectrometer: V785-0024
Trigger mode: 0
Integration Time (sec): 4.000000E-1
Scans to average: 1
Nonlinearity correction enabled: false
Boxcar width: 0
Storing dark spectrum: false
XAxis mode: Wavelengths
Number of Pixels in Spectrum: 1024
>>>>>Begin Spectral Data<<<<<
801.071	8065
801.214	8077
801.356	7928
801.499	7913
801.641	7837
801.783	7921
801.926	8043
802.068	7989
802.211	7997
802.353	8024
802.496	7932
802.638	7913
802.78	7921
802.923	7970
803.065	7925
803.208	7947
803.35	8001
803.492	8130
803.635	8240
803.777	8065
803.919	8176
804.061	8476
804.204	8191
804.346	8092
804.488	7989
804.63	8134
804.773	8092
804.915	8187
805.057	8362
805.199	8191
805.341	8256
805.483	8195
805.626	8320
805.768	8191
805.91	8298
806.052	8286
806.194	8161
806.336	8343
806.478	8119
806.62	8084
806.762	8172
806.904	8305
807.046	8469
807.188	8419
807.33	8332
807.472	8377
807.614	8305
807.756	8183
807.898	8073
808.04	7955
808.182	7902
808.324	7970
808.465	7932
808.607	8088
808.749	8149
808.891	8263
809.033	8358
809.174	8275
809.316	8191
809.458	8103
809.6	8008
809.741	8069
809.883	8054
810.025	8149
810.166	8111
810.308	8046
810.45	8050
810.591	7936
810.733	7792
810.875	7647
811.016	7514
811.158	7613
811.299	7655
811.441	7849
811.582	7715
811.724	7575
811.865	7548
812.007	7693
812.148	7597
812.29	7719
812.431	7803
812.573	7883
812.714	7955
812.855	8145
812.997	8240
813.138	8328
813.279	8183
813.421	8103
813.562	8039
813.703	7917
813.845	7803
813.986	7544
814.127	7266
814.268	7251
814.41	7293
814.551	7202
814.692	7194
814.833	7088
814.974	7122
815.115	7156
815.256	6954
815.397	7004
815.539	6977
815.68	6901
815.821	6837
815.962	6886
816.103	6878
816.244	6662
816.385	6608
816.526	6662
816.666	6490
816.807	6323
816.948	6464
817.089	6490
817.23	6460
817.371	6372
817.512	6399
817.653	6395
817.793	6407
817.934	6464
818.075	6479
818.216	6433
818.356	6391
818.497	6262
818.638	6182
818.778	6190
818.919	6148
819.06	6235
819.2	6357
819.341	6323
819.481	6372
819.622	6551
819.762	6722
819.903	6707
820.043	6620
820.184	6601
820.324	6604
820.465	6730
820.605	6715
820.746	6684
820.886	6582
821.026	6677
821.167	6730
821.307	6882
821.447	6783
821.588	6681
821.728	6563
821.868	6525
822.008	6327
822.149	6445
822.289	6361
822.429	6167
822.569	6121
822.709	6171
822.849	6011
822.99	5984
823.13	5977
823.27	5931
823.41	5775
823.55	5836
823.69	5809
823.83	5836
823.97	5733
824.11	5535
824.25	5566
824.389	5547
824.529	5551
824.669	5512
824.809	5653
824.949	5649
825.089	5623
825.228	5551
825.368	5440
825.508	5360
825.648	5345
825.787	5395
825.927	5372
826.067	5341
826.206	5288
826.346	5360
826.485	5436
826.625	5414
826.765	5592
826.904	5490
827.044	5220
827.183	5220
827.323	5193
827.462	5299
827.601	5201
827.741	5216
827.88	5212
828.02	5151
828.159	5269
828.298	5280
828.437	5360
828.577	5315
828.716	5490
828.855	5318
828.994	5162
829.134	5189
829.273	5212
829.412	5136
829.551	5140
829.69	5162
829.829	5235
829.968	5383
830.107	5258
830.246	5288
830.385	5235
830.524	5159
830.663	5052
830.802	4991
830.941	4911
831.08	4889
831.219	5003
831.357	5018
831.496	5170
831.635	4946
831.774	4858
831.913	4835
832.051	4748
832.19	4725
832.329	4858
832.467	4679
832.606	4675
832.744	4752
832.883	4710
833.022	4683
833.16	4816
833.299	4835
833.437	4892
833.576	4850
833.714	4854
833.852	4896
833.991	4908
834.129	4980
834.267	4896
834.406	4911
834.544	4923
834.682	4999
834.821	5003
834.959	5181
835.097	5025
835.235	5162
835.373	5132
835.511	5140
835.65	5052
835.788	4976
835.926	4908
836.064	4881
836.202	4949
836.34	5162
836.478	5212
836.615	5140
836.753	5201
836.891	5334
837.029	5246
837.167	5227
837.305	5147
837.443	5113
837.58	5067
837.718	5212
837.856	5204
837.993	5170
838.131	5250
838.269	5246
838.406	5185
838.544	5216
838.681	5029
838.819	5033
838.956	4911
839.094	4915
839.231	5025
839.369	5079
839.506	5444
839.643	5223
839.781	5102
839.918	5045
840.055	5090
840.193	5060
840.33	5128
840.467	5136
840.604	5193
840.742	5414
840.879	5098
841.016	5079
841.153	5166
841.29	5417
841.427	5322
841.564	5326
841.701	5357
841.838	5265
841.975	5254
842.112	5261
842.249	5121
842.385	5113
842.522	5345
842.659	5162
842.796	5178
842.933	5189
843.069	5113
843.206	5155
843.343	5299
843.479	5212
843.616	5261
843.752	5083
843.889	4972
844.025	5208
844.162	5037
844.298	5220
844.435	5098
844.571	5067
844.708	5181
844.844	5326
844.98	5307
845.117	5307
845.253	5113
845.389	5124
845.525	5155
845.661	5128
845.798	5064
845.934	5117
846.07	5075
846.206	5269
846.342	5216
846.478	5124
846.614	5056
846.75	4980
846.886	4942
847.022	5128
847.158	5018
847.294	5105
847.429	5159
847.565	5052
847.701	5311
847.837	4877
847.972	4873
848.108	4953
848.244	4984
848.379	4748
848.515	4782
848.65	4694
848.786	4752
848.921	4763
849.057	4854
849.192	4919
849.328	4839
849.463	4854
849.598	4786
849.734	4748
849.869	4668
850.004	4649
850.14	4660
850.275	4618
850.41	4558
850.545	4607
850.68	4580
850.815	4603
850.95	4634
851.085	4847
851.22	4816
851.355	4702
851.49	4622
851.625	4645
851.76	4641
851.895	4561
852.03	4573
852.165	4660
852.299	4721
852.434	4812
852.569	4782
852.703	4793
852.838	4850
852.973	4972
853.107	4927
853.242	4683
853.376	4675
853.511	4596
853.645	4660
853.78	4847
853.914	4694
854.048	4740
854.183	4637
854.317	4706
854.451	4831
854.585	4653
854.72	4645
854.854	4736
854.988	4584
855.122	4679
855.256	4531
855.39	4675
855.524	4767
855.658	4736
855.792	4717
855.926	4683
856.06	4778
856.194	4763
856.327	4664
856.461	4626
856.595	4645
856.729	4645
856.862	4755
856.996	4664
857.13	4710
857.263	4767
857.397	4843
857.53	4672
857.664	4714
857.797	4774
857.931	4774
858.064	4744
858.197	4717
858.331	4694
858.464	4584
858.597	4489
858.731	4649
858.864	4672
858.997	4596
859.13	4656
859.263	4630
859.396	4668
859.529	4592
859.662	4580
859.795	4580
859.928	4660
860.061	4778
860.194	4736
860.327	4615
860.46	4569
860.592	4714
860.725	4729
860.858	4710
860.99	4565
861.123	4538
861.256	4550
861.388	4603
861.521	5341
861.653	4466
861.786	4470
861.918	4462
862.05	4508
862.183	4554
862.315	4542
862.447	4691
862.58	4527
862.712	4363
862.844	4344
862.976	4500
863.108	4417
863.24	4725
863.372	4360
863.504	4462
863.636	4421
863.768	4512
863.9	4436
864.032	4386
864.164	4432
864.296	4459
864.428	4554
864.559	4584
864.691	4531
864.823	4588
864.954	4485
865.086	4489
865.217	4470
865.349	4341
865.48	4497
865.612	4504
865.743	4603
865.875	4451
866.006	4432
866.137	4443
866.269	4489
866.4	4451
866.531	4413
866.662	4390
866.793	4390
866.924	4417
867.055	4516
867.186	4459
867.317	4478
867.448	4363
867.579	4424
867.71	4348
867.841	4375
867.972	4508
868.103	4481
868.233	4459
868.364	4481
868.495	4474
868.625	4641
868.756	4801
868.886	4561
869.017	4565
869.147	4755
869.278	4744
869.408	4683
869.539	4645
869.669	4733
869.799	4649
869.929	4683
870.06	4748
870.19	4972
870.32	4873
870.45	4927
870.58	5022
870.71	5037
870.84	5083
870.97	4953
871.1	4896
871.23	5117
871.36	5121
871.489	5056
871.619	5086
871.749	5056
871.879	5121
872.008	5246
872.138	5037
872.267	5014
872.397	4850
872.526	4778
872.656	4755
872.785	4812
872.915	4961
873.044	5014
873.173	4923
873.303	4915
873.432	5006
873.561	4911
873.69	4896
873.819	4828
873.948	4957
874.077	4809
874.206	4744
874.335	4782
874.464	4870
874.593	5064
874.722	4972
874.851	5117
874.979	5094
875.108	5056
875.237	4904
875.365	4885
875.494	4904
875.623	4980
875.751	4797
875.88	4908
876.008	4972
876.136	5045
876.265	5185
876.393	5395
876.521	5315
876.65	5220
876.778	5227
876.906	5083
877.034	5071
877.162	5018
877.29	4972
877.418	5105
877.546	5048
877.674	5029
877.802	5033
877.93	5029
878.058	4987
878.185	4915
878.313	4953
878.441	4961
878.568	4831
878.696	4850
878.824	5010
878.951	4946
879.079	5124
879.206	5288
879.333	5121
879.461	4930
879.588	5022
879.715	5117
879.842	5193
879.97	5010
880.097	4816
880.224	4767
880.351	4778
880.478	4839
880.605	4801
880.732	4771
880.859	5094
880.986	4900
881.112	4911
881.239	4790
881.366	4717
881.493	4622
881.619	4573
881.746	4675
881.872	4630
881.999	4687
882.125	4698
882.252	4809
882.378	4850
882.505	4927
882.631	4801
882.757	4656
882.883	4778
883.01	4721
883.136	4618
883.262	4603
883.388	4675
883.514	4805
883.64	4850
883.766	4778
883.892	4653
884.018	4698
884.143	4862
884.269	5022
884.395	4694
884.52	4626
884.646	4607
884.772	4607
884.897	4577
885.023	4649
885.148	4828
885.274	4900
885.399	4839
885.524	4774
885.65	4656
885.775	4748
885.9	4702
886.025	4862
886.15	4790
886.275	4744
886.4	4691
886.525	4752
886.65	4702
886.775	4691
886.9	4904
887.025	5018
887.149	4820
887.274	4630
887.399	4588
887.523	4607
887.648	4596
887.773	4592
887.897	4714
888.021	4809
888.146	4717
888.27	4843
888.395	4889
888.519	4820
888.643	4831
888.767	4801
888.891	4736
889.015	4634
889.139	4637
889.263	4637
889.387	4721
889.511	4820
889.635	4759
889.759	4641
889.883	4687
890.006	4733
890.13	4858
890.254	4626
890.377	4641
890.501	4527
890.624	4542
890.748	4641
890.871	4561
890.995	4455
891.118	4405
891.241	4542
891.364	4588
891.488	4649
891.611	4527
891.734	4577
891.857	4584
891.98	4580
892.103	4622
892.226	4573
892.349	4527
892.471	4447
892.594	4531
892.717	4637
892.839	4577
892.962	4592
893.085	4656
893.207	4580
893.33	4485
893.452	4508
893.575	4687
893.697	4592
893.819	4828
893.941	4831
894.064	4767
894.186	4580
894.308	4542
894.43	4740
894.552	4828
894.674	4767
894.796	4584
894.918	4622
895.04	4599
895.161	4725
895.283	4622
895.405	4561
895.526	4687
895.648	4675
895.769	4679
895.891	4729
896.012	4748
896.134	4698
896.255	4725
896.376	4645
896.498	4603
896.619	4725
896.74	4580
896.861	4637
896.982	4927
897.103	5071
897.224	4824
897.345	4752
897.466	4660
897.587	4736
897.708	4892
897.828	4809
897.949	4649
898.07	4538
898.19	4649
898.311	4835
898.431	4607
898.552	4721
898.672	4828
898.792	4778
898.913	4740
899.033	4634
899.153	4481
899.273	4428
899.393	4558
899.513	4542
899.633	4569
899.753	4493
899.873	4508
899.993	4527
900.113	4550
900.232	4569
900.352	4596
900.472	4512
900.591	4341
900.711	4481
900.83	4428
900.95	4538
901.069	4683
901.189	4535
901.308	4360
901.427	4306
901.546	4402
901.665	4497
901.784	4531
901.904	4344
902.023	4318
902.141	4200
902.26	4150
902.379	4295
902.498	4242
902.617	4242
902.735	4356
902.854	4360
902.973	4356
903.091	4242
903.21	4234
903.328	4257
903.446	4268
903.565	4268
903.683	4337
903.801	4257
903.919	4356
904.038	4421
904.156	4284
904.274	4466
904.392	4398
904.51	4394
904.627	4493
904.745	4577
904.863	4618
904.981	4409
905.098	4303
905.216	4379
905.334	4447
905.451	4466
905.569	4474
905.686	4554
905.803	4592
905.921	4409
906.038	4558
906.155	4489
906.272	4421
906.389	4508
906.506	4363
906.623	4360
906.74	4405
906.857	4306
906.974	4405
907.091	4588
907.208	4725
907.324	4592
907.441	4504
907.557	4352
907.674	4367
907.79	4310
907.907	4352
908.023	4428
908.139	4500
908.256	4421
908.372	4451
908.488	4466
908.604	4356
908.72	4284
908.836	4417
908.952	4344
909.068	4443
909.184	4535
909.3	4485
909.415	4565
909.531	4550
909.647	4375
909.762	4432
909.878	4363
909.993	4462
910.108	4405
910.224	4417
910.339	4470
910.454	4352
910.57	4337
910.685	4329
910.8	4672
910.915	4618
911.03	4489
911.145	4375
911.259	4360
911.374	4360
911.489	4291
911.604	4287
911.718	4131
911.833	4173
911.947	4116
912.062	4021
912.176	4246
912.291	4230
912.405	4257
912.519	4497
912.633	4451
912.748	4360
912.862	4325
912.976	4196
913.09	4101
913.204	4166
913.318	4215
913.431	4367
913.545	4371
913.659	4462
913.772	4360
913.886	4234
914	4215
914.113	4344
914.226	4394
914.34	4390
914.453	4230
914.566	4409
914.68	4318
914.793	4325
914.906	4139
915.019	4139
915.132	4105
915.245	4211
915.358	4204
915.47	4215
915.583	4295
915.696	4291
915.809	4379
915.921	4398
916.034	4253
916.146	4223
916.259	4238
916.371	4352
916.483	4390
916.595	4238
916.708	4291
916.82	4299
916.932	4291
917.044	4333
917.156	4310
917.268	4227
917.38	4322
917.491	4249
917.603	4383
917.715	4436
917.826	4451
917.938	4344
918.049	4265
918.161	4379
918.272	4550
918.384	4558
918.495	4462
918.606	4306
918.717	4249
918.828	4367
918.939	4394
919.05	4246
919.161	4322
919.272	4173
919.383	4230
919.494	4424
919.604	4653
919.715	4405
919.826	4348
919.936	4386
920.047	4538
920.157	4485
920.267	4691
920.378	4584
920.488	4512
920.598	4698
920.708	4881
920.818	4717
920.928	4771
921.038	4911
921.148	4930
921.258	4660
921.368	4519
921.477	4466
921.587	4443
921.697	4402
921.806	4565
921.916	4443
922.025	4253
922.134	4249
922.244	4242
922.353	4344
922.462	4173
922.571	4116
922.68	4002
922.789	3953
922.898	4071
923.007	4010
923.116	4086
923.224	4074
923.333	4074
923.442	3972
923.55	3968
923.659	4040
923.767	4154
923.876	3968
923.984	4109
924.092	4025
924.201	4074
924.309	4059
924.417	4101
924.525	4101
924.633	4071
924.741	4870
924.849	3915
924.956	4150
925.064	3930
925.172	3930
925.279	3953
925.387	4013
925.494	4025
925.602	4238
925.709	4169
925.816	4071
925.924	4112
926.031	4230
926.138	4158
926.245	4227
926.352	4086
926.459	4272
926.566	4303
926.673	4177
926.779	4074
926.886	4090
926.993	4017
927.099	3915
927.206	3907
927.312	3918
927.419	4051
927.525	4048
927.631	4059
927.737	3983
927.843	3903
927.95	3831
928.056	3945
928.162	3991
928.267	4051
928.373	4698
928.479	4090
928.585	3846
928.69	3949
928.796	4086
928.901	3937
929.007	3819
929.112	4051
929.218	4017
929.323	3972
929.428	3949
929.533	4067
929.638	3915
929.743	3975
929.848	4059
929.953	4017
930.058	3876
930.163	3778
930.267	3846
930.372	3979
930.477	3800
930.581	4093
930.685	3945
930.79	3831
930.894	3869
930.998	3842
931.103	4025
931.207	3709
931.311	3686
931.415	3698
931.519	3496
931.623	3576
