Data from test_V78500241_75.txt Node
Date: Fri Mar 25 16:49:31 CST 2022
User: usil
Spectrometer: V785-0024
Trigger mode: 0
Integration Time (sec): 4.000000E-1
Scans to average: 1
Nonlinearity correction enabled: false
Boxcar width: 0
Storing dark spectrum: false
XAxis mode: Wavelengths
Number of Pixels in Spectrum: 1024
>>>>>Begin Spectral Data<<<<<
801.071	8103
801.214	8050
801.356	7940
801.499	7947
801.641	7860
801.783	7913
801.926	8043
802.068	7967
802.211	8046
802.353	8054
802.496	7917
802.638	7993
802.78	8058
802.923	7967
803.065	7860
803.208	7849
803.35	7955
803.492	8123
803.635	8065
803.777	8012
803.919	8088
804.061	8503
804.204	8111
804.346	8088
804.488	7936
804.63	8077
804.773	8046
804.915	8096
805.057	8309
805.199	8100
805.341	8275
805.483	8358
805.626	8279
805.768	8058
805.91	8195
806.052	8225
806.194	8142
806.336	8244
806.478	8214
806.62	8111
806.762	8256
806.904	8385
807.046	8476
807.188	8419
807.33	8343
807.472	8377
807.614	8195
807.756	8214
807.898	8012
808.04	7967
808.182	7883
808.324	7871
808.465	7970
808.607	8092
808.749	8103
808.891	8172
809.033	8320
809.174	8225
809.316	8103
809.458	8134
809.6	7970
809.741	8081
809.883	8054
810.025	8092
810.166	8100
810.308	7982
810.45	8065
810.591	7864
810.733	7799
810.875	7712
811.016	7601
811.158	7514
811.299	7685
811.441	7795
811.582	7719
811.724	7639
811.865	7601
812.007	7677
812.148	7685
812.29	7700
812.431	7833
812.573	7997
812.714	8012
812.855	8290
812.997	8328
813.138	8389
813.279	8233
813.421	8145
813.562	7986
813.703	7898
813.845	7788
813.986	7460
814.127	7350
814.268	7274
814.41	7259
814.551	7228
814.692	7278
814.833	7187
814.974	7145
815.115	7118
815.256	7046
815.397	6958
815.539	6935
815.68	6856
815.821	6863
815.962	6932
816.103	6935
816.244	6764
816.385	6688
816.526	6681
816.666	6525
816.807	6369
816.948	6490
817.089	6502
817.23	6479
817.371	6418
817.512	6388
817.653	6540
817.793	6342
817.934	6391
818.075	6460
818.216	6452
818.356	6475
818.497	6296
818.638	6152
818.778	6194
818.919	6148
819.06	6239
819.2	6384
819.341	6414
819.481	6391
819.622	6521
819.762	6738
819.903	6726
820.043	6616
820.184	6604
820.324	6654
820.465	6764
820.605	6745
820.746	6650
820.886	6570
821.026	6730
821.167	6757
821.307	6779
821.447	6791
821.588	6715
821.728	6631
821.868	6551
822.008	6346
822.149	6407
822.289	6399
822.429	6216
822.569	6155
822.709	6197
822.849	5939
822.99	5965
823.13	5999
823.27	5965
823.41	5832
823.55	5798
823.69	5809
823.83	5813
823.97	5680
824.11	5554
824.25	5585
824.389	5581
824.529	5608
824.669	5543
824.809	5710
824.949	5638
825.089	5661
825.228	5604
825.368	5395
825.508	5410
825.648	5383
825.787	5455
825.927	5440
826.067	5398
826.206	5349
826.346	5444
826.485	5463
826.625	5433
826.765	5535
826.904	5512
827.044	5292
827.183	5265
827.323	5166
827.462	5269
827.601	5220
827.741	5265
827.88	5273
828.02	5155
828.159	5337
828.298	5326
828.437	5406
828.577	5311
828.716	5463
828.855	5349
828.994	5208
829.134	5201
829.273	5265
829.412	5208
829.551	5162
829.69	5181
829.829	5265
829.968	5455
830.107	5242
830.246	5357
830.385	5204
830.524	5162
830.663	5094
830.802	5006
830.941	4919
831.08	4877
831.219	5014
831.357	5033
831.496	5231
831.635	4968
831.774	4885
831.913	4835
832.051	4755
832.19	4763
832.329	4919
832.467	4702
832.606	4691
832.744	4740
832.883	4729
833.022	4763
833.16	4824
833.299	4828
833.437	4911
833.576	4862
833.714	4919
833.852	4934
833.991	4923
834.129	5048
834.267	4949
834.406	4972
834.544	5025
834.682	5041
834.821	4995
834.959	5185
835.097	5037
835.235	5189
835.373	5121
835.511	5162
835.65	5117
835.788	5109
835.926	4953
836.064	4866
836.202	4938
836.34	5185
836.478	5284
836.615	5181
836.753	5273
836.891	5315
837.029	5303
837.167	5239
837.305	5132
837.443	5185
837.58	5083
837.718	5261
837.856	5189
837.993	5181
838.131	5315
838.269	5227
838.406	5227
838.544	5277
838.681	5067
838.819	5056
838.956	4919
839.094	4942
839.231	5003
839.369	5094
839.506	5452
839.643	5280
839.781	5056
839.918	5041
840.055	5098
840.193	5140
840.33	5151
840.467	5185
840.604	5220
840.742	5543
840.879	5098
841.016	5121
841.153	5220
841.29	5410
841.427	5379
841.564	5345
841.701	5398
841.838	5296
841.975	5296
842.112	5299
842.249	5178
842.385	5155
842.522	5326
842.659	5193
842.796	5181
842.933	5189
843.069	5155
843.206	5193
843.343	5307
843.479	5261
843.616	5303
843.752	4999
843.889	5041
844.025	5220
844.162	5052
844.298	5235
844.435	5136
844.571	5086
844.708	5208
844.844	5315
844.98	5357
845.117	5330
845.253	5136
845.389	5132
845.525	5174
845.661	5174
845.798	5113
845.934	5162
846.07	5109
846.206	5235
846.342	5334
846.478	5250
846.614	5067
846.75	4968
846.886	4980
847.022	5174
847.158	5109
847.294	5117
847.429	5151
847.565	5060
847.701	5391
847.837	4885
847.972	4809
848.108	5003
848.244	4995
848.379	4790
848.515	4740
848.65	4748
848.786	4805
848.921	4790
849.057	4892
849.192	4923
849.328	4812
849.463	4858
849.598	4812
849.734	4782
849.869	4714
850.004	4649
850.14	4714
850.275	4603
850.41	4588
850.545	4645
850.68	4626
850.815	4607
850.95	4653
851.085	4843
851.22	4736
851.355	4714
851.49	4588
851.625	4622
851.76	4626
851.895	4637
852.03	4573
852.165	4668
852.299	4797
852.434	4828
852.569	4744
852.703	4790
852.838	4889
852.973	4984
853.107	4968
853.242	4725
853.376	4691
853.511	4588
853.645	4698
853.78	4839
853.914	4763
854.048	4725
854.183	4653
854.317	4721
854.451	4934
854.585	4694
854.72	4664
854.854	4797
854.988	4649
855.122	4683
855.256	4538
855.39	4729
855.524	4816
855.658	4733
855.792	4714
855.926	4778
856.06	4793
856.194	4835
856.327	4694
856.461	4664
856.595	4675
856.729	4664
856.862	4771
856.996	4744
857.13	4805
857.263	4801
857.397	4790
857.53	4691
857.664	4759
857.797	4816
857.931	4843
858.064	4694
858.197	4820
858.331	4675
858.464	4656
858.597	4573
858.731	4660
858.864	4672
858.997	4592
859.13	4660
859.263	4710
859.396	4683
859.529	4611
859.662	4599
859.795	4550
859.928	4637
860.061	4805
860.194	4854
860.327	4649
860.46	4554
860.592	4752
860.725	4752
860.858	4736
860.99	4630
861.123	4531
861.256	4538
861.388	4653
861.521	5341
861.653	4550
861.786	4504
861.918	4481
862.05	4561
862.183	4535
862.315	4611
862.447	4691
862.58	4573
862.712	4424
862.844	4367
862.976	4489
863.108	4497
863.24	4915
863.372	4303
863.504	4413
863.636	4405
863.768	4516
863.9	4485
864.032	4398
864.164	4462
864.296	4489
864.428	4573
864.559	4592
864.691	4615
864.823	4599
864.954	4512
865.086	4516
865.217	4459
865.349	4402
865.48	4459
865.612	4504
865.743	4622
865.875	4474
866.006	4466
866.137	4481
866.269	4481
866.4	4474
866.531	4512
866.662	4405
866.793	4417
866.924	4451
867.055	4504
867.186	4470
867.317	4447
867.448	4424
867.579	4417
867.71	4398
867.841	4383
867.972	4512
868.103	4489
868.233	4447
868.364	4436
868.495	4497
868.625	4660
868.756	4812
868.886	4584
869.017	4626
869.147	4778
869.278	4831
869.408	4656
869.539	4691
869.669	4698
869.799	4710
869.929	4793
870.06	4793
870.19	5022
870.32	4919
870.45	4999
870.58	5079
870.71	5155
870.84	5136
870.97	4991
871.1	4930
871.23	5140
871.36	5140
871.489	5045
871.619	5132
871.749	5124
871.879	5174
872.008	5223
872.138	5105
872.267	5048
872.397	4881
872.526	4835
872.656	4790
872.785	4881
872.915	5056
873.044	5045
873.173	4984
873.303	4980
873.432	4946
873.561	5006
873.69	4877
873.819	4881
873.948	4965
874.077	4850
874.206	4771
874.335	4858
874.464	5003
874.593	5124
874.722	5010
874.851	5151
874.979	5090
875.108	5132
875.237	4953
875.365	4927
875.494	4911
875.623	4980
875.751	4873
875.88	4934
876.008	5014
876.136	5014
876.265	5223
876.393	5341
876.521	5288
876.65	5280
876.778	5181
876.906	5124
877.034	5037
877.162	5090
877.29	4972
877.418	5109
877.546	5079
877.674	5045
877.802	5037
877.93	5025
878.058	4995
878.185	4873
878.313	4942
878.441	4972
878.568	4843
878.696	4862
878.824	4995
878.951	4980
879.079	5159
879.206	5299
879.333	5151
879.461	5025
879.588	4999
879.715	5170
879.842	5204
879.97	5056
880.097	4877
880.224	4797
880.351	4831
880.478	4858
880.605	4866
880.732	4790
880.859	5060
880.986	4904
881.112	4930
881.239	4793
881.366	4714
881.493	4656
881.619	4599
881.746	4660
881.872	4675
881.999	4641
882.125	4721
882.252	4812
882.378	4866
882.505	4957
882.631	4828
882.757	4725
882.883	4748
883.01	4778
883.136	4740
883.262	4649
883.388	4641
883.514	4839
883.64	4870
883.766	4820
883.892	4710
884.018	4721
884.143	4965
884.269	5025
884.395	4740
884.52	4668
884.646	4675
884.772	4615
884.897	4573
885.023	4660
885.148	4801
885.274	4862
885.399	4854
885.524	4752
885.65	4721
885.775	4824
885.9	4733
886.025	4877
886.15	4839
886.275	4763
886.4	4653
886.525	4790
886.65	4767
886.775	4679
886.9	4946
887.025	5094
887.149	4870
887.274	4691
887.399	4577
887.523	4596
887.648	4596
887.773	4653
887.897	4801
888.021	4877
888.146	4725
888.27	4885
888.395	4930
888.519	4809
888.643	4885
888.767	4908
888.891	4664
889.015	4615
889.139	4626
889.263	4675
889.387	4812
889.511	4915
889.635	4843
889.759	4694
889.883	4683
890.006	4752
890.13	4881
890.254	4691
890.377	4733
890.501	4538
890.624	4538
890.748	4672
890.871	4504
890.995	4428
891.118	4421
891.241	4558
891.364	4607
891.488	4664
891.611	4508
891.734	4573
891.857	4645
891.98	4573
892.103	4668
892.226	4641
892.349	4573
892.471	4451
892.594	4527
892.717	4630
892.839	4618
892.962	4656
893.085	4733
893.207	4645
893.33	4497
893.452	4569
893.575	4672
893.697	4573
893.819	4824
893.941	4847
894.064	4797
894.186	4611
894.308	4599
894.43	4744
894.552	4839
894.674	4755
894.796	4668
894.918	4611
895.04	4603
895.161	4752
895.283	4683
895.405	4611
895.526	4649
895.648	4691
895.769	4668
895.891	4683
896.012	4786
896.134	4782
896.255	4675
896.376	4683
896.498	4668
896.619	4710
896.74	4603
896.861	4683
896.982	4965
897.103	5060
897.224	4820
897.345	4763
897.466	4748
897.587	4763
897.708	4900
897.828	4816
897.949	4668
898.07	4599
898.19	4637
898.311	4900
898.431	4778
898.552	4759
898.672	4816
898.792	4847
898.913	4771
899.033	4607
899.153	4542
899.273	4451
899.393	4527
899.513	4550
899.633	4542
899.753	4607
899.873	4580
899.993	4653
900.113	4584
900.232	4637
900.352	4596
900.472	4519
900.591	4447
900.711	4497
900.83	4424
900.95	4649
901.069	4740
901.189	4599
901.308	4398
901.427	4310
901.546	4390
901.665	4508
901.784	4516
901.904	4371
902.023	4310
902.141	4242
902.26	4211
902.379	4341
902.498	4295
902.617	4242
902.735	4383
902.854	4432
902.973	4394
903.091	4238
903.21	4303
903.328	4333
903.446	4363
903.565	4242
903.683	4409
903.801	4314
903.919	4394
904.038	4497
904.156	4356
904.274	4443
904.392	4413
904.51	4527
904.627	4459
904.745	4584
904.863	4641
904.981	4409
905.098	4344
905.216	4375
905.334	4474
905.451	4440
905.569	4478
905.686	4565
905.803	4599
905.921	4447
906.038	4580
906.155	4451
906.272	4413
906.389	4519
906.506	4375
906.623	4455
906.74	4424
906.857	4314
906.974	4455
907.091	4596
907.208	4694
907.324	4653
907.441	4462
907.557	4398
907.674	4405
907.79	4325
907.907	4383
908.023	4500
908.139	4538
908.256	4485
908.372	4493
908.488	4428
908.604	4371
908.72	4344
908.836	4409
908.952	4394
909.068	4440
909.184	4618
909.3	4523
909.415	4622
909.531	4558
909.647	4386
909.762	4402
909.878	4363
909.993	4489
910.108	4424
910.224	4428
910.339	4531
910.454	4409
910.57	4440
910.685	4318
910.8	4649
910.915	4615
911.03	4531
911.145	4367
911.259	4379
911.374	4375
911.489	4299
911.604	4276
911.718	4207
911.833	4188
911.947	4082
912.062	4059
912.176	4192
912.291	4284
912.405	4272
912.519	4500
912.633	4535
912.748	4451
912.862	4341
912.976	4215
913.09	4147
913.204	4234
913.318	4314
913.431	4409
913.545	4428
913.659	4497
913.772	4383
913.886	4280
914	4238
914.113	4417
914.226	4504
914.34	4432
914.453	4280
914.566	4462
914.68	4375
914.793	4344
914.906	4207
915.019	4158
915.132	4112
915.245	4147
915.358	4234
915.47	4253
915.583	4284
915.696	4287
915.809	4447
915.921	4455
916.034	4291
916.146	4299
916.259	4272
916.371	4371
916.483	4379
916.595	4344
916.708	4348
916.82	4363
916.932	4363
917.044	4356
917.156	4363
917.268	4287
917.38	4303
917.491	4257
917.603	4348
917.715	4428
917.826	4474
917.938	4363
918.049	4257
918.161	4417
918.272	4558
918.384	4565
918.495	4504
918.606	4356
918.717	4268
918.828	4402
918.939	4402
919.05	4276
919.161	4379
919.272	4169
919.383	4322
919.494	4478
919.604	4653
919.715	4466
919.826	4379
919.936	4424
920.047	4554
920.157	4516
920.267	4744
920.378	4592
920.488	4542
920.598	4782
920.708	4946
920.818	4774
920.928	4748
921.038	4980
921.148	4938
921.258	4607
921.368	4561
921.477	4493
921.587	4523
921.697	4398
921.806	4558
921.916	4470
922.025	4257
922.134	4284
922.244	4284
922.353	4318
922.462	4253
922.571	4154
922.68	4036
922.789	4048
922.898	4013
923.007	4017
923.116	4120
923.224	4135
923.333	4109
923.442	4032
923.55	4002
923.659	4055
923.767	4147
923.876	4006
923.984	4074
924.092	4021
924.201	4078
924.309	4101
924.417	4147
924.525	4093
924.633	4120
924.741	4942
924.849	3911
924.956	4154
925.064	3972
925.172	3915
925.279	4025
925.387	4055
925.494	4109
925.602	4242
925.709	4211
925.816	4036
925.924	4131
926.031	4272
926.138	4169
926.245	4295
926.352	4093
926.459	4310
926.566	4333
926.673	4188
926.779	4105
926.886	4112
926.993	4017
927.099	3945
927.206	3975
927.312	3960
927.419	4067
927.525	4093
927.631	4116
927.737	4002
927.843	3991
927.95	3876
928.056	3979
928.162	4017
928.267	4067
928.373	4752
928.479	4173
928.585	3941
928.69	4071
928.796	4059
928.901	3960
929.007	3873
929.112	4051
929.218	4040
929.323	3945
929.428	3991
929.533	4139
929.638	3941
929.743	3979
929.848	4074
929.953	4021
930.058	3949
930.163	3774
930.267	3888
930.372	4010
930.477	3850
930.581	4086
930.685	3987
930.79	3861
930.894	3922
930.998	3869
931.103	4078
931.207	3755
931.311	3736
931.415	3724
931.519	3584
931.623	3561
