Data from test_V78500241_2023.txt Node
Date: Fri Mar 25 17:03:04 CST 2022
User: usil
Spectrometer: V785-0024
Trigger mode: 0
Integration Time (sec): 4.000000E-1
Scans to average: 1
Nonlinearity correction enabled: false
Boxcar width: 0
Storing dark spectrum: false
XAxis mode: Wavelengths
Number of Pixels in Spectrum: 1024
>>>>>Begin Spectral Data<<<<<
801.071	7974
801.214	7963
801.356	7795
801.499	7852
801.641	7761
801.783	7860
801.926	8031
802.068	7879
802.211	8043
802.353	8024
802.496	7871
802.638	7894
802.78	7932
802.923	7860
803.065	7795
803.208	7883
803.35	7928
803.492	8115
803.635	8123
803.777	7989
803.919	8062
804.061	8423
804.204	8138
804.346	8081
804.488	7967
804.63	8081
804.773	8020
804.915	8077
805.057	8309
805.199	8229
805.341	8202
805.483	8248
805.626	8218
805.768	8161
805.91	8301
806.052	8214
806.194	8149
806.336	8320
806.478	8134
806.62	8088
806.762	8168
806.904	8339
807.046	8552
807.188	8412
807.33	8320
807.472	8313
807.614	8145
807.756	8138
807.898	7970
808.04	7849
808.182	7822
808.324	7875
808.465	7997
808.607	8043
808.749	8088
808.891	8164
809.033	8328
809.174	8210
809.316	8130
809.458	8050
809.6	8069
809.741	8077
809.883	8065
810.025	8084
810.166	8046
810.308	8050
810.45	8016
810.591	7868
810.733	7769
810.875	7689
811.016	7540
811.158	7483
811.299	7594
811.441	7719
811.582	7681
811.724	7632
811.865	7499
812.007	7651
812.148	7616
812.29	7575
812.431	7761
812.573	7917
812.714	7993
812.855	8161
812.997	8195
813.138	8294
813.279	8065
813.421	8088
813.562	7989
813.703	7849
813.845	7731
813.986	7453
814.127	7263
814.268	7240
814.41	7198
814.551	7118
814.692	7183
814.833	7110
814.974	7126
815.115	7122
815.256	6977
815.397	6973
815.539	6935
815.68	6772
815.821	6764
815.962	6844
816.103	6840
816.244	6738
816.385	6623
816.526	6620
816.666	6517
816.807	6281
816.948	6437
817.089	6517
817.23	6471
817.371	6357
817.512	6391
817.653	6452
817.793	6319
817.934	6319
818.075	6414
818.216	6498
818.356	6407
818.497	6277
818.638	6121
818.778	6155
818.919	6125
819.06	6159
819.2	6289
819.341	6342
819.481	6331
819.622	6532
819.762	6760
819.903	6738
820.043	6559
820.184	6528
820.324	6616
820.465	6650
820.605	6642
820.746	6646
820.886	6513
821.026	6665
821.167	6639
821.307	6791
821.447	6719
821.588	6688
821.728	6544
821.868	6525
822.008	6372
822.149	6365
822.289	6369
822.429	6213
822.569	6057
822.709	6155
822.849	5893
822.99	5923
823.13	5878
823.27	5885
823.41	5790
823.55	5737
823.69	5748
823.83	5767
823.97	5649
824.11	5520
824.25	5551
824.389	5581
824.529	5581
824.669	5486
824.809	5642
824.949	5657
825.089	5596
825.228	5539
825.368	5425
825.508	5322
825.648	5334
825.787	5364
825.927	5387
826.067	5330
826.206	5292
826.346	5414
826.485	5410
826.625	5379
826.765	5551
826.904	5486
827.044	5235
827.183	5162
827.323	5090
827.462	5258
827.601	5212
827.741	5193
827.88	5193
828.02	5117
828.159	5227
828.298	5311
828.437	5330
828.577	5315
828.716	5455
828.855	5345
828.994	5143
829.134	5121
829.273	5235
829.412	5128
829.551	5132
829.69	5128
829.829	5265
829.968	5360
830.107	5250
830.246	5254
830.385	5166
830.524	5159
830.663	5052
830.802	4991
830.941	4877
831.08	4911
831.219	4957
831.357	4987
831.496	5162
831.635	4915
831.774	4881
831.913	4820
832.051	4706
832.19	4683
832.329	4790
832.467	4691
832.606	4653
832.744	4721
832.883	4714
833.022	4702
833.16	4782
833.299	4835
833.437	4870
833.576	4831
833.714	4870
833.852	4858
833.991	4831
834.129	4957
834.267	4957
834.406	4889
834.544	4984
834.682	4957
834.821	4942
834.959	5178
835.097	4980
835.235	5174
835.373	5086
835.511	5090
835.65	5079
835.788	4976
835.926	4892
836.064	4881
836.202	4942
836.34	5136
836.478	5201
836.615	5159
836.753	5212
836.891	5258
837.029	5250
837.167	5235
837.305	5181
837.443	5147
837.58	4987
837.718	5239
837.856	5193
837.993	5136
838.131	5216
838.269	5193
838.406	5132
838.544	5212
838.681	5010
838.819	5037
838.956	4923
839.094	4900
839.231	4961
839.369	5109
839.506	5410
839.643	5265
839.781	5025
839.918	5037
840.055	5086
840.193	5086
840.33	5086
840.467	5136
840.604	5143
840.742	5452
840.879	5105
841.016	5117
841.153	5166
841.29	5379
841.427	5345
841.564	5250
841.701	5364
841.838	5280
841.975	5201
842.112	5258
842.249	5079
842.385	5079
842.522	5273
842.659	5201
842.796	5124
842.933	5201
843.069	5159
843.206	5155
843.343	5303
843.479	5239
843.616	5277
843.752	5025
843.889	4995
844.025	5254
844.162	5067
844.298	5231
844.435	5109
844.571	5079
844.708	5185
844.844	5334
844.98	5337
845.117	5254
845.253	5162
845.389	5060
845.525	5151
845.661	5159
845.798	5037
845.934	5109
846.07	5075
846.206	5151
846.342	5254
846.478	5178
846.614	4999
846.75	4976
846.886	4965
847.022	5113
847.158	4999
847.294	5094
847.429	5117
847.565	5071
847.701	5299
847.837	4896
847.972	4812
848.108	4953
848.244	4938
848.379	4744
848.515	4767
848.65	4668
848.786	4729
848.921	4763
849.057	4862
849.192	4904
849.328	4801
849.463	4866
849.598	4824
849.734	4786
849.869	4706
850.004	4596
850.14	4641
850.275	4546
850.41	4512
850.545	4554
850.68	4618
850.815	4558
850.95	4672
851.085	4843
851.22	4744
851.355	4694
851.49	4634
851.625	4645
851.76	4618
851.895	4561
852.03	4542
852.165	4660
852.299	4702
852.434	4793
852.569	4774
852.703	4767
852.838	4866
852.973	4972
853.107	4908
853.242	4763
853.376	4656
853.511	4596
853.645	4615
853.78	4824
853.914	4694
854.048	4656
854.183	4626
854.317	4717
854.451	4805
854.585	4664
854.72	4626
854.854	4782
854.988	4596
855.122	4656
855.256	4531
855.39	4645
855.524	4782
855.658	4752
855.792	4679
855.926	4744
856.06	4790
856.194	4839
856.327	4702
856.461	4622
856.595	4634
856.729	4649
856.862	4774
856.996	4679
857.13	4698
857.263	4763
857.397	4824
857.53	4603
857.664	4691
857.797	4767
857.931	4793
858.064	4702
858.197	4717
858.331	4653
858.464	4615
858.597	4531
858.731	4618
858.864	4649
858.997	4561
859.13	4637
859.263	4615
859.396	4687
859.529	4546
859.662	4523
859.795	4531
859.928	4630
860.061	4767
860.194	4714
860.327	4546
860.46	4569
860.592	4675
860.725	4714
860.858	4714
860.99	4542
861.123	4546
861.256	4493
861.388	4630
861.521	5337
861.653	4500
861.786	4451
861.918	4443
862.05	4516
862.183	4577
862.315	4573
862.447	4611
862.58	4550
862.712	4390
862.844	4318
862.976	4500
863.108	4474
863.24	4759
863.372	4291
863.504	4413
863.636	4451
863.768	4451
863.9	4440
864.032	4356
864.164	4386
864.296	4497
864.428	4565
864.559	4561
864.691	4546
864.823	4474
864.954	4489
865.086	4497
865.217	4489
865.349	4413
865.48	4493
865.612	4451
865.743	4630
865.875	4474
866.006	4402
866.137	4466
866.269	4428
866.4	4405
866.531	4398
866.662	4440
866.793	4402
866.924	4417
867.055	4455
867.186	4447
867.317	4352
867.448	4386
867.579	4337
867.71	4379
867.841	4360
867.972	4470
868.103	4432
868.233	4474
868.364	4459
868.495	4500
868.625	4714
868.756	4782
868.886	4592
869.017	4637
869.147	4793
869.278	4782
869.408	4694
869.539	4637
869.669	4752
869.799	4656
869.929	4717
870.06	4733
870.19	4885
870.32	4881
870.45	4934
870.58	5018
870.71	5094
870.84	5098
870.97	4930
871.1	4904
871.23	5079
871.36	5124
871.489	4999
871.619	5117
871.749	5124
871.879	5170
872.008	5151
872.138	5041
872.267	4976
872.397	4839
872.526	4801
872.656	4725
872.785	4797
872.915	4987
873.044	5010
873.173	4923
873.303	4923
873.432	4934
873.561	4930
873.69	4831
873.819	4877
873.948	4908
874.077	4824
874.206	4786
874.335	4793
874.464	4927
874.593	5041
874.722	5022
874.851	5109
874.979	5025
875.108	5018
875.237	4938
875.365	4900
875.494	4870
875.623	4953
875.751	4812
875.88	4854
876.008	4968
876.136	5018
876.265	5128
876.393	5303
876.521	5216
876.65	5242
876.778	5151
876.906	5037
877.034	5029
877.162	5086
877.29	5033
877.418	5071
877.546	5037
877.674	5105
877.802	5010
877.93	5022
878.058	4949
878.185	4949
878.313	4987
878.441	4984
878.568	4809
878.696	4889
878.824	4927
878.951	5014
879.079	5124
879.206	5330
879.333	5079
879.461	5014
879.588	5041
879.715	5166
879.842	5170
879.97	5014
880.097	4786
880.224	4698
880.351	4843
880.478	4843
880.605	4786
880.732	4763
880.859	5136
880.986	4881
881.112	4915
881.239	4812
881.366	4630
881.493	4599
881.619	4599
881.746	4637
881.872	4611
881.999	4641
882.125	4691
882.252	4748
882.378	4835
882.505	4965
882.631	4793
882.757	4653
882.883	4687
883.01	4714
883.136	4675
883.262	4660
883.388	4584
883.514	4828
883.64	4877
883.766	4752
883.892	4679
884.018	4736
884.143	4889
884.269	5033
884.395	4675
884.52	4577
884.646	4634
884.772	4637
884.897	4599
885.023	4672
885.148	4763
885.274	4900
885.399	4778
885.524	4710
885.65	4641
885.775	4748
885.9	4656
886.025	4896
886.15	4744
886.275	4725
886.4	4675
886.525	4687
886.65	4687
886.775	4748
886.9	4850
887.025	4995
887.149	4793
887.274	4622
887.399	4596
887.523	4596
887.648	4569
887.773	4580
887.897	4752
888.021	4816
888.146	4664
888.27	4774
888.395	4873
888.519	4820
888.643	4812
888.767	4847
888.891	4656
889.015	4618
889.139	4675
889.263	4630
889.387	4759
889.511	4885
889.635	4774
889.759	4588
889.883	4630
890.006	4725
890.13	4835
890.254	4615
890.377	4683
890.501	4569
890.624	4550
890.748	4637
890.871	4527
890.995	4409
891.118	4409
891.241	4500
891.364	4535
891.488	4588
891.611	4508
891.734	4535
891.857	4668
891.98	4489
892.103	4672
892.226	4569
892.349	4554
892.471	4398
892.594	4519
892.717	4592
892.839	4527
892.962	4599
893.085	4611
893.207	4569
893.33	4485
893.452	4531
893.575	4664
893.697	4580
893.819	4790
893.941	4797
894.064	4797
894.186	4596
894.308	4500
894.43	4733
894.552	4816
894.674	4763
894.796	4546
894.918	4596
895.04	4569
895.161	4641
895.283	4656
895.405	4573
895.526	4672
895.648	4668
895.769	4702
895.891	4702
896.012	4710
896.134	4691
896.255	4725
896.376	4577
896.498	4603
896.619	4683
896.74	4561
896.861	4664
896.982	4889
897.103	5025
897.224	4782
897.345	4717
897.466	4664
897.587	4694
897.708	4877
897.828	4752
897.949	4664
898.07	4546
898.19	4683
898.311	4797
898.431	4694
898.552	4725
898.672	4812
898.792	4763
898.913	4740
899.033	4660
899.153	4497
899.273	4421
899.393	4474
899.513	4485
899.633	4538
899.753	4523
899.873	4478
899.993	4565
900.113	4516
900.232	4550
900.352	4580
900.472	4485
900.591	4417
900.711	4512
900.83	4462
900.95	4596
901.069	4706
901.189	4538
901.308	4337
901.427	4314
901.546	4390
901.665	4485
901.784	4485
901.904	4402
902.023	4306
902.141	4185
902.26	4211
902.379	4261
902.498	4230
902.617	4158
902.735	4386
902.854	4356
902.973	4363
903.091	4246
903.21	4219
903.328	4276
903.446	4280
903.565	4306
903.683	4383
903.801	4272
903.919	4390
904.038	4398
904.156	4299
904.274	4417
904.392	4344
904.51	4447
904.627	4459
904.745	4577
904.863	4626
904.981	4409
905.098	4352
905.216	4360
905.334	4417
905.451	4409
905.569	4405
905.686	4554
905.803	4569
905.921	4432
906.038	4592
906.155	4474
906.272	4390
906.389	4466
906.506	4367
906.623	4360
906.74	4333
906.857	4306
906.974	4390
907.091	4558
907.208	4664
907.324	4592
907.441	4519
907.557	4322
907.674	4314
907.79	4287
907.907	4383
908.023	4466
908.139	4443
908.256	4413
908.372	4481
908.488	4470
908.604	4398
908.72	4322
908.836	4390
908.952	4383
909.068	4451
909.184	4542
909.3	4451
909.415	4554
909.531	4546
909.647	4284
909.762	4383
909.878	4375
909.993	4428
910.108	4443
910.224	4432
910.339	4493
910.454	4402
910.57	4360
910.685	4238
910.8	4626
910.915	4630
911.03	4508
911.145	4333
911.259	4337
911.374	4363
911.489	4261
911.604	4284
911.718	4181
911.833	4211
911.947	4040
912.062	4025
912.176	4177
912.291	4192
912.405	4242
912.519	4398
912.633	4489
912.748	4371
912.862	4325
912.976	4227
913.09	4078
913.204	4185
913.318	4261
913.431	4375
913.545	4409
913.659	4386
913.772	4390
913.886	4238
914	4204
914.113	4341
914.226	4398
914.34	4417
914.453	4177
914.566	4402
914.68	4291
914.793	4299
914.906	4188
915.019	4124
915.132	4090
915.245	4185
915.358	4230
915.47	4238
915.583	4291
915.696	4284
915.809	4398
915.921	4447
916.034	4219
916.146	4291
916.259	4227
916.371	4348
916.483	4360
916.595	4265
916.708	4303
916.82	4322
916.932	4314
917.044	4379
917.156	4356
917.268	4242
917.38	4272
917.491	4276
917.603	4329
917.715	4398
917.826	4451
917.938	4371
918.049	4211
918.161	4363
918.272	4573
918.384	4592
918.495	4436
918.606	4310
918.717	4242
918.828	4352
918.939	4379
919.05	4280
919.161	4329
919.272	4181
919.383	4242
919.494	4447
919.604	4607
919.715	4424
919.826	4375
919.936	4417
920.047	4500
920.157	4504
920.267	4752
920.378	4523
920.488	4512
920.598	4691
920.708	4862
920.818	4774
920.928	4736
921.038	4961
921.148	4923
921.258	4660
921.368	4554
921.477	4462
921.587	4455
921.697	4390
921.806	4565
921.916	4424
922.025	4287
922.134	4280
922.244	4211
922.353	4333
922.462	4158
922.571	4135
922.68	3998
922.789	3960
922.898	4090
923.007	3975
923.116	4067
923.224	4032
923.333	4059
923.442	4006
923.55	3953
923.659	4010
923.767	4097
923.876	3979
923.984	4120
924.092	3964
924.201	4048
924.309	4090
924.417	4105
924.525	4055
924.633	4097
924.741	5064
924.849	3930
924.956	4120
925.064	3979
925.172	3918
925.279	3968
925.387	4051
925.494	4036
925.602	4207
925.709	4169
925.816	4021
925.924	4135
926.031	4185
926.138	4150
926.245	4150
926.352	4112
926.459	4238
926.566	4291
926.673	4177
926.779	4082
926.886	4082
926.993	3975
927.099	3941
927.206	3953
927.312	3926
927.419	4029
927.525	4006
927.631	4051
927.737	3922
927.843	3975
927.95	3873
928.056	3937
928.162	3934
928.267	4071
928.373	4569
928.479	4124
928.585	3888
928.69	4021
928.796	4048
928.901	3968
929.007	3812
929.112	4029
929.218	3983
929.323	3975
929.428	3899
929.533	4116
929.638	3918
929.743	3979
929.848	4040
929.953	3987
930.058	3926
930.163	3812
930.267	3804
930.372	3956
930.477	3778
930.581	4059
930.685	3945
930.79	3861
930.894	3838
930.998	3827
931.103	4002
931.207	3698
931.311	3732
931.415	3675
931.519	3496
931.623	3523
