Data from test_V78500241_1391.txt Node
Date: Fri Mar 25 16:58:40 CST 2022
User: usil
Spectrometer: V785-0024
Trigger mode: 0
Integration Time (sec): 4.000000E-1
Scans to average: 1
Nonlinearity correction enabled: false
Boxcar width: 0
Storing dark spectrum: false
XAxis mode: Wavelengths
Number of Pixels in Spectrum: 1024
>>>>>Begin Spectral Data<<<<<
801.071	8031
801.214	8088
801.356	7909
801.499	7894
801.641	7833
801.783	7879
801.926	7963
802.068	7940
802.211	7951
802.353	7974
802.496	7818
802.638	7913
802.78	7940
802.923	8035
803.065	7898
803.208	7868
803.35	7944
803.492	8062
803.635	8115
803.777	8016
803.919	8050
804.061	8480
804.204	8096
804.346	8005
804.488	7959
804.63	8119
804.773	7997
804.915	8069
805.057	8328
805.199	8218
805.341	8263
805.483	8267
805.626	8176
805.768	8069
805.91	8195
806.052	8225
806.194	8084
806.336	8240
806.478	8145
806.62	8096
806.762	8096
806.904	8248
807.046	8560
807.188	8332
807.33	8324
807.472	8305
807.614	8103
807.756	8119
807.898	8062
808.04	7871
808.182	7852
808.324	7894
808.465	7932
808.607	8046
808.749	8126
808.891	8115
809.033	8317
809.174	8161
809.316	8092
809.458	8077
809.6	7997
809.741	8027
809.883	8001
810.025	8065
810.166	8096
810.308	7967
810.45	7974
810.591	7845
810.733	7765
810.875	7700
811.016	7529
811.158	7449
811.299	7689
811.441	7693
811.582	7639
811.724	7567
811.865	7529
812.007	7624
812.148	7586
812.29	7624
812.431	7696
812.573	7947
812.714	7902
812.855	8119
812.997	8233
813.138	8259
813.279	8221
813.421	8168
813.562	7986
813.703	7845
813.845	7807
813.986	7510
814.127	7282
814.268	7206
814.41	7168
814.551	7194
814.692	7232
814.833	7057
814.974	7107
815.115	7133
815.256	6939
815.397	6932
815.539	6935
815.68	6852
815.821	6814
815.962	6863
816.103	6886
816.244	6669
816.385	6620
816.526	6597
816.666	6464
816.807	6296
816.948	6452
817.089	6460
817.23	6483
817.371	6319
817.512	6315
817.653	6407
817.793	6395
817.934	6372
818.075	6456
818.216	6380
818.356	6372
818.497	6266
818.638	6068
818.778	6125
818.919	6148
819.06	6190
819.2	6327
819.341	6338
819.481	6361
819.622	6509
819.762	6703
819.903	6722
820.043	6570
820.184	6559
820.324	6532
820.465	6703
820.605	6707
820.746	6646
820.886	6490
821.026	6631
821.167	6646
821.307	6772
821.447	6760
821.588	6646
821.728	6570
821.868	6441
822.008	6315
822.149	6350
822.289	6334
822.429	6175
822.569	6136
822.709	6083
822.849	5939
822.99	5878
823.13	5942
823.27	5946
823.41	5798
823.55	5748
823.69	5752
823.83	5786
823.97	5649
824.11	5558
824.25	5551
824.389	5585
824.529	5611
824.669	5543
824.809	5627
824.949	5676
825.089	5608
825.228	5501
825.368	5417
825.508	5330
825.648	5315
825.787	5364
825.927	5349
826.067	5246
826.206	5250
826.346	5398
826.485	5360
826.625	5429
826.765	5505
826.904	5421
827.044	5239
827.183	5269
827.323	5136
827.462	5227
827.601	5166
827.741	5189
827.88	5212
828.02	5079
828.159	5212
828.298	5322
828.437	5376
828.577	5277
828.716	5467
828.855	5341
828.994	5132
829.134	5170
829.273	5189
829.412	5166
829.551	5140
829.69	5185
829.829	5220
829.968	5360
830.107	5220
830.246	5292
830.385	5128
830.524	5147
830.663	5075
830.802	4930
830.941	4900
831.08	4877
831.219	4999
831.357	4957
831.496	5117
831.635	4946
831.774	4835
831.913	4866
832.051	4782
832.19	4748
832.329	4850
832.467	4664
832.606	4603
832.744	4694
832.883	4714
833.022	4698
833.16	4752
833.299	4816
833.437	4828
833.576	4831
833.714	4877
833.852	4889
833.991	4915
834.129	4953
834.267	4942
834.406	4870
834.544	4949
834.682	4991
834.821	4995
834.959	5098
835.097	4991
835.235	5121
835.373	5064
835.511	5105
835.65	5018
835.788	4995
835.926	4896
836.064	4870
836.202	4892
836.34	5117
836.478	5223
836.615	5121
836.753	5181
836.891	5216
837.029	5254
837.167	5197
837.305	5170
837.443	5212
837.58	5128
837.718	5258
837.856	5185
837.993	5132
838.131	5235
838.269	5201
838.406	5216
838.544	5189
838.681	5041
838.819	5018
838.956	4843
839.094	4873
839.231	4957
839.369	5121
839.506	5395
839.643	5254
839.781	5075
839.918	5045
840.055	5094
840.193	5079
840.33	5090
840.467	5124
840.604	5250
840.742	5444
840.879	5064
841.016	5121
841.153	5178
841.29	5330
841.427	5322
841.564	5288
841.701	5372
841.838	5288
841.975	5227
842.112	5311
842.249	5121
842.385	5121
842.522	5322
842.659	5185
842.796	5117
842.933	5216
843.069	5155
843.206	5178
843.343	5299
843.479	5239
843.616	5277
843.752	4999
843.889	5022
844.025	5239
844.162	4938
844.298	5189
844.435	5067
844.571	5060
844.708	5212
844.844	5292
844.98	5345
845.117	5239
845.253	5162
845.389	5075
845.525	5178
845.661	5159
845.798	4991
845.934	5136
846.07	5033
846.206	5193
846.342	5296
846.478	5143
846.614	4995
846.75	4949
846.886	4927
847.022	5143
847.158	5014
847.294	5052
847.429	5113
847.565	5083
847.701	5261
847.837	4904
847.972	4824
848.108	4968
848.244	4938
848.379	4782
848.515	4691
848.65	4717
848.786	4721
848.921	4790
849.057	4847
849.192	4889
849.328	4828
849.463	4824
849.598	4782
849.734	4782
849.869	4759
850.004	4618
850.14	4702
850.275	4596
850.41	4550
850.545	4596
850.68	4558
850.815	4618
850.95	4641
851.085	4828
851.22	4744
851.355	4622
851.49	4645
851.625	4645
851.76	4653
851.895	4535
852.03	4538
852.165	4645
852.299	4710
852.434	4782
852.569	4660
852.703	4805
852.838	4805
852.973	4915
853.107	4839
853.242	4736
853.376	4641
853.511	4577
853.645	4637
853.78	4850
853.914	4683
854.048	4691
854.183	4641
854.317	4706
854.451	4850
854.585	4649
854.72	4641
854.854	4736
854.988	4565
855.122	4607
855.256	4538
855.39	4622
855.524	4790
855.658	4668
855.792	4714
855.926	4729
856.06	4752
856.194	4816
856.327	4706
856.461	4584
856.595	4554
856.729	4558
856.862	4740
856.996	4672
857.13	4752
857.263	4729
857.397	4839
857.53	4641
857.664	4706
857.797	4763
857.931	4755
858.064	4664
858.197	4706
858.331	4622
858.464	4664
858.597	4504
858.731	4641
858.864	4630
858.997	4569
859.13	4656
859.263	4687
859.396	4660
859.529	4577
859.662	4538
859.795	4527
859.928	4637
860.061	4748
860.194	4725
860.327	4592
860.46	4519
860.592	4740
860.725	4694
860.858	4702
860.99	4592
861.123	4512
861.256	4519
861.388	4611
861.521	5459
861.653	4497
861.786	4470
861.918	4451
862.05	4527
862.183	4573
862.315	4565
862.447	4675
862.58	4527
862.712	4424
862.844	4344
862.976	4493
863.108	4443
863.24	4877
863.372	4333
863.504	4398
863.636	4371
863.768	4436
863.9	4413
864.032	4356
864.164	4386
864.296	4466
864.428	4531
864.559	4546
864.691	4493
864.823	4523
864.954	4497
865.086	4554
865.217	4470
865.349	4436
865.48	4497
865.612	4519
865.743	4588
865.875	4424
866.006	4405
866.137	4421
866.269	4402
866.4	4432
866.531	4440
866.662	4390
866.793	4394
866.924	4421
867.055	4508
867.186	4440
867.317	4424
867.448	4394
867.579	4394
867.71	4417
867.841	4356
867.972	4462
868.103	4432
868.233	4432
868.364	4459
868.495	4527
868.625	4653
868.756	4744
868.886	4558
869.017	4588
869.147	4759
869.278	4782
869.408	4649
869.539	4622
869.669	4660
869.799	4664
869.929	4725
870.06	4733
870.19	4949
870.32	4934
870.45	4984
870.58	4957
870.71	5075
870.84	5102
870.97	4927
871.1	4923
871.23	5117
871.36	5064
871.489	5022
871.619	5090
871.749	5094
871.879	5113
872.008	5159
872.138	5003
872.267	5006
872.397	4850
872.526	4755
872.656	4748
872.785	4797
872.915	4927
873.044	4995
873.173	4934
873.303	5003
873.432	4972
873.561	4915
873.69	4835
873.819	4831
873.948	4885
874.077	4812
874.206	4748
874.335	4782
874.464	4938
874.593	5018
874.722	4938
874.851	5102
874.979	5060
875.108	5029
875.237	4927
875.365	4854
875.494	4816
875.623	4976
875.751	4790
875.88	4854
876.008	4980
876.136	4984
876.265	5212
876.393	5334
876.521	5189
876.65	5208
876.778	5124
876.906	5064
877.034	4900
877.162	5052
877.29	4946
877.418	5010
877.546	5045
877.674	5014
877.802	5045
877.93	5033
878.058	4881
878.185	4835
878.313	4934
878.441	4949
878.568	4759
878.696	4900
878.824	4946
878.951	5006
879.079	5162
879.206	5318
879.333	5079
879.461	4938
879.588	4987
879.715	5094
879.842	5235
879.97	5029
880.097	4809
880.224	4755
880.351	4809
880.478	4805
880.605	4816
880.732	4767
880.859	5025
880.986	4835
881.112	4896
881.239	4790
881.366	4653
881.493	4535
881.619	4550
881.746	4660
881.872	4622
881.999	4672
882.125	4714
882.252	4767
882.378	4740
882.505	4911
882.631	4797
882.757	4694
882.883	4717
883.01	4740
883.136	4672
883.262	4573
883.388	4649
883.514	4824
883.64	4896
883.766	4786
883.892	4664
884.018	4702
884.143	4896
884.269	4946
884.395	4656
884.52	4584
884.646	4656
884.772	4569
884.897	4561
885.023	4622
885.148	4755
885.274	4862
885.399	4774
885.524	4710
885.65	4683
885.775	4782
885.9	4721
886.025	4835
886.15	4790
886.275	4672
886.4	4691
886.525	4710
886.65	4653
886.775	4664
886.9	4911
887.025	4995
887.149	4858
887.274	4626
887.399	4577
887.523	4554
887.648	4584
887.773	4641
887.897	4717
888.021	4801
888.146	4630
888.27	4809
888.395	4908
888.519	4824
888.643	4812
888.767	4778
888.891	4721
889.015	4577
889.139	4679
889.263	4603
889.387	4725
889.511	4847
889.635	4748
889.759	4626
889.883	4634
890.006	4706
890.13	4847
890.254	4622
890.377	4618
890.501	4558
890.624	4504
890.748	4626
890.871	4481
890.995	4413
891.118	4341
891.241	4516
891.364	4527
891.488	4649
891.611	4485
891.734	4516
891.857	4577
891.98	4497
892.103	4634
892.226	4603
892.349	4485
892.471	4459
892.594	4615
892.717	4611
892.839	4538
892.962	4588
893.085	4656
893.207	4622
893.33	4424
893.452	4519
893.575	4653
893.697	4569
893.819	4797
893.941	4831
894.064	4755
894.186	4565
894.308	4577
894.43	4706
894.552	4831
894.674	4767
894.796	4527
894.918	4596
895.04	4558
895.161	4679
895.283	4649
895.405	4542
895.526	4660
895.648	4664
895.769	4683
895.891	4687
896.012	4706
896.134	4763
896.255	4618
896.376	4622
896.498	4599
896.619	4679
896.74	4577
896.861	4668
896.982	4919
897.103	5071
897.224	4831
897.345	4797
897.466	4694
897.587	4729
897.708	4870
897.828	4793
897.949	4622
898.07	4554
898.19	4618
898.311	4820
898.431	4702
898.552	4748
898.672	4797
898.792	4820
898.913	4740
899.033	4588
899.153	4523
899.273	4417
899.393	4485
899.513	4497
899.633	4508
899.753	4497
899.873	4531
899.993	4527
900.113	4485
900.232	4546
900.352	4527
900.472	4489
900.591	4367
900.711	4508
900.83	4459
900.95	4622
901.069	4679
901.189	4489
901.308	4383
901.427	4287
901.546	4398
901.665	4432
901.784	4512
901.904	4344
902.023	4322
902.141	4196
902.26	4173
902.379	4280
902.498	4207
902.617	4169
902.735	4333
902.854	4398
902.973	4348
903.091	4200
903.21	4223
903.328	4257
903.446	4257
903.565	4287
903.683	4356
903.801	4249
903.919	4413
904.038	4402
904.156	4371
904.274	4386
904.392	4424
904.51	4409
904.627	4428
904.745	4580
904.863	4630
904.981	4356
905.098	4367
905.216	4333
905.334	4421
905.451	4451
905.569	4436
905.686	4573
905.803	4599
905.921	4383
906.038	4577
906.155	4455
906.272	4421
906.389	4417
906.506	4360
906.623	4363
906.74	4375
906.857	4306
906.974	4383
907.091	4596
907.208	4649
907.324	4577
907.441	4451
907.557	4337
907.674	4291
907.79	4303
907.907	4375
908.023	4474
908.139	4440
908.256	4428
908.372	4504
908.488	4405
908.604	4337
908.72	4341
908.836	4348
908.952	4329
909.068	4428
909.184	4550
909.3	4440
909.415	4554
909.531	4535
909.647	4379
909.762	4344
909.878	4337
909.993	4432
910.108	4379
910.224	4413
910.339	4451
910.454	4417
910.57	4402
910.685	4230
910.8	4637
910.915	4535
911.03	4478
911.145	4325
911.259	4333
911.374	4299
911.489	4322
911.604	4276
911.718	4185
911.833	4200
911.947	4059
912.062	4063
912.176	4162
912.291	4287
912.405	4227
912.519	4508
912.633	4523
912.748	4367
912.862	4291
912.976	4192
913.09	4116
913.204	4200
913.318	4268
913.431	4386
913.545	4333
913.659	4424
913.772	4337
913.886	4249
914	4223
914.113	4375
914.226	4436
914.34	4363
914.453	4246
914.566	4432
914.68	4329
914.793	4322
914.906	4162
915.019	4147
915.132	4071
915.245	4169
915.358	4196
915.47	4253
915.583	4230
915.696	4253
915.809	4409
915.921	4394
916.034	4268
916.146	4223
916.259	4261
916.371	4394
916.483	4299
916.595	4246
916.708	4322
916.82	4272
916.932	4306
917.044	4352
917.156	4329
917.268	4211
917.38	4257
917.491	4291
917.603	4379
917.715	4413
917.826	4432
917.938	4352
918.049	4268
918.161	4386
918.272	4519
918.384	4504
918.495	4413
918.606	4291
918.717	4211
918.828	4344
918.939	4375
919.05	4253
919.161	4314
919.272	4135
919.383	4192
919.494	4424
919.604	4607
919.715	4405
919.826	4344
919.936	4375
920.047	4512
920.157	4489
920.267	4679
920.378	4542
920.488	4459
920.598	4721
920.708	4915
920.818	4759
920.928	4786
921.038	4908
921.148	4889
921.258	4637
921.368	4588
921.477	4504
921.587	4489
921.697	4379
921.806	4538
921.916	4424
922.025	4284
922.134	4295
922.244	4249
922.353	4314
922.462	4188
922.571	4150
922.68	4013
922.789	3960
922.898	4032
923.007	3934
923.116	4093
923.224	4032
923.333	4097
923.442	3979
923.55	3998
923.659	3991
923.767	4105
923.876	3972
923.984	4097
924.092	3934
924.201	4074
924.309	4078
924.417	4162
924.525	4067
924.633	4082
924.741	5045
924.849	3937
924.956	4120
925.064	3915
925.172	3896
925.279	3949
925.387	4032
925.494	4063
925.602	4223
925.709	4204
925.816	4017
925.924	4097
926.031	4234
926.138	4188
926.245	4188
926.352	4093
926.459	4291
926.566	4268
926.673	4158
926.779	4036
926.886	4071
926.993	3972
927.099	3915
927.206	3934
927.312	3945
927.419	4029
927.525	4036
927.631	4109
927.737	3945
927.843	3930
927.95	3861
928.056	3941
928.162	4002
928.267	4063
928.373	4656
928.479	4150
928.585	3903
928.69	4051
928.796	4051
928.901	4032
929.007	3850
929.112	4017
929.218	3972
929.323	3953
929.428	3926
929.533	4090
929.638	3903
929.743	3934
929.848	4032
929.953	4032
930.058	3953
930.163	3785
930.267	3838
930.372	3991
930.477	3793
930.581	4105
930.685	3953
930.79	3819
930.894	3876
930.998	3865
931.103	4013
931.207	3705
931.311	3705
931.415	3698
931.519	3538
931.623	3603
