Data from test_V78500241_300.txt Node
Date: Fri Mar 25 16:51:05 CST 2022
User: usil
Spectrometer: V785-0024
Trigger mode: 0
Integration Time (sec): 4.000000E-1
Scans to average: 1
Nonlinearity correction enabled: false
Boxcar width: 0
Storing dark spectrum: false
XAxis mode: Wavelengths
Number of Pixels in Spectrum: 1024
>>>>>Begin Spectral Data<<<<<
801.071	8050
801.214	8035
801.356	7879
801.499	7917
801.641	7742
801.783	7818
801.926	7997
802.068	7932
802.211	7955
802.353	8046
802.496	7894
802.638	7849
802.78	7947
802.923	7871
803.065	7883
803.208	7837
803.35	7951
803.492	8065
803.635	8088
803.777	8001
803.919	8103
804.061	8434
804.204	8142
804.346	8027
804.488	7940
804.63	8103
804.773	7959
804.915	7997
805.057	8275
805.199	8142
805.341	8145
805.483	8252
805.626	8210
805.768	8069
805.91	8161
806.052	8130
806.194	8096
806.336	8298
806.478	8164
806.62	8039
806.762	8142
806.904	8229
807.046	8400
807.188	8362
807.33	8290
807.472	8298
807.614	8100
807.756	8111
807.898	7986
808.04	7955
808.182	7955
808.324	7921
808.465	7970
808.607	8016
808.749	8077
808.891	8210
809.033	8305
809.174	8218
809.316	8039
809.458	8084
809.6	7982
809.741	8043
809.883	8005
810.025	8172
810.166	8084
810.308	8138
810.45	8054
810.591	7906
810.733	7750
810.875	7704
811.016	7552
811.158	7556
811.299	7685
811.441	7845
811.582	7670
811.724	7597
811.865	7613
812.007	7624
812.148	7651
812.29	7651
812.431	7852
812.573	7932
812.714	8031
812.855	8187
812.997	8294
813.138	8294
813.279	8225
813.421	8119
813.562	8096
813.703	7940
813.845	7765
813.986	7540
814.127	7270
814.268	7255
814.41	7305
814.551	7187
814.692	7236
814.833	7091
814.974	7084
815.115	7171
815.256	6973
815.397	6928
815.539	6932
815.68	6825
815.821	6878
815.962	6962
816.103	6894
816.244	6745
816.385	6684
816.526	6623
816.666	6570
816.807	6380
816.948	6426
817.089	6528
817.23	6513
817.371	6433
817.512	6407
817.653	6486
817.793	6388
817.934	6460
818.075	6513
818.216	6547
818.356	6433
818.497	6235
818.638	6171
818.778	6197
818.919	6159
819.06	6213
819.2	6365
819.341	6311
819.481	6391
819.622	6559
819.762	6806
819.903	6749
820.043	6597
820.184	6604
820.324	6623
820.465	6719
820.605	6692
820.746	6612
820.886	6559
821.026	6662
821.167	6616
821.307	6806
821.447	6825
821.588	6772
821.728	6593
821.868	6517
822.008	6357
822.149	6422
822.289	6384
822.429	6163
822.569	6110
822.709	6117
822.849	5950
822.99	5931
823.13	5961
823.27	5961
823.41	5889
823.55	5840
823.69	5817
823.83	5798
823.97	5653
824.11	5570
824.25	5532
824.389	5573
824.529	5585
824.669	5558
824.809	5668
824.949	5691
825.089	5638
825.228	5634
825.368	5433
825.508	5372
825.648	5391
825.787	5425
825.927	5372
826.067	5341
826.206	5337
826.346	5440
826.485	5402
826.625	5398
826.765	5547
826.904	5493
827.044	5242
827.183	5212
827.323	5189
827.462	5265
827.601	5220
827.741	5170
827.88	5227
828.02	5170
828.159	5239
828.298	5318
828.437	5349
828.577	5364
828.716	5547
828.855	5357
828.994	5216
829.134	5201
829.273	5178
829.412	5174
829.551	5170
829.69	5185
829.829	5273
829.968	5364
830.107	5235
830.246	5296
830.385	5162
830.524	5185
830.663	5086
830.802	4987
830.941	4961
831.08	4927
831.219	4984
831.357	5045
831.496	5155
831.635	4965
831.774	4927
831.913	4915
832.051	4793
832.19	4805
832.329	4843
832.467	4759
832.606	4675
832.744	4706
832.883	4755
833.022	4790
833.16	4858
833.299	4839
833.437	4816
833.576	4866
833.714	4919
833.852	4919
833.991	4930
834.129	4957
834.267	4968
834.406	5022
834.544	4995
834.682	5025
834.821	5003
834.959	5208
835.097	5037
835.235	5235
835.373	5147
835.511	5143
835.65	5113
835.788	5083
835.926	4991
836.064	4892
836.202	4938
836.34	5212
836.478	5307
836.615	5197
836.753	5280
836.891	5277
837.029	5288
837.167	5250
837.305	5227
837.443	5212
837.58	5170
837.718	5280
837.856	5239
837.993	5220
838.131	5296
838.269	5299
838.406	5284
838.544	5227
838.681	5075
838.819	5067
838.956	4965
839.094	4968
839.231	5045
839.369	5159
839.506	5478
839.643	5330
839.781	5086
839.918	5109
840.055	5193
840.193	5113
840.33	5105
840.467	5208
840.604	5280
840.742	5505
840.879	5102
841.016	5181
841.153	5181
841.29	5444
841.427	5376
841.564	5330
841.701	5368
841.838	5288
841.975	5273
842.112	5265
842.249	5185
842.385	5151
842.522	5417
842.659	5231
842.796	5193
842.933	5288
843.069	5136
843.206	5185
843.343	5288
843.479	5280
843.616	5330
843.752	5117
843.889	5048
844.025	5231
844.162	5064
844.298	5273
844.435	5086
844.571	5079
844.708	5223
844.844	5345
844.98	5341
845.117	5296
845.253	5140
845.389	5151
845.525	5185
845.661	5143
845.798	5056
845.934	5136
846.07	5105
846.206	5284
846.342	5288
846.478	5201
846.614	5056
846.75	5014
846.886	4957
847.022	5143
847.158	5060
847.294	5071
847.429	5098
847.565	5132
847.701	5376
847.837	4896
847.972	4858
848.108	4980
848.244	4976
848.379	4793
848.515	4740
848.65	4744
848.786	4725
848.921	4850
849.057	4870
849.192	4957
849.328	4847
849.463	4889
849.598	4809
849.734	4812
849.869	4702
850.004	4668
850.14	4694
850.275	4664
850.41	4584
850.545	4626
850.68	4634
850.815	4622
850.95	4626
851.085	4831
851.22	4748
851.355	4721
851.49	4634
851.625	4653
851.76	4660
851.895	4569
852.03	4569
852.165	4634
852.299	4752
852.434	4801
852.569	4763
852.703	4801
852.838	4881
852.973	4923
853.107	4965
853.242	4744
853.376	4691
853.511	4573
853.645	4653
853.78	4816
853.914	4733
854.048	4672
854.183	4679
854.317	4691
854.451	4862
854.585	4710
854.72	4626
854.854	4824
854.988	4573
855.122	4717
855.256	4527
855.39	4694
855.524	4812
855.658	4759
855.792	4717
855.926	4763
856.06	4771
856.194	4839
856.327	4706
856.461	4675
856.595	4675
856.729	4649
856.862	4790
856.996	4710
857.13	4752
857.263	4767
857.397	4759
857.53	4634
857.664	4725
857.797	4771
857.931	4866
858.064	4748
858.197	4744
858.331	4710
858.464	4653
858.597	4565
858.731	4660
858.864	4615
858.997	4622
859.13	4672
859.263	4683
859.396	4736
859.529	4653
859.662	4596
859.795	4573
859.928	4687
860.061	4790
860.194	4809
860.327	4634
860.46	4626
860.592	4733
860.725	4729
860.858	4763
860.99	4603
861.123	4565
861.256	4554
861.388	4649
861.521	5292
861.653	4546
861.786	4474
861.918	4440
862.05	4588
862.183	4535
862.315	4634
862.447	4698
862.58	4622
862.712	4440
862.844	4325
862.976	4500
863.108	4474
863.24	4881
863.372	4390
863.504	4424
863.636	4432
863.768	4519
863.9	4405
864.032	4417
864.164	4440
864.296	4508
864.428	4535
864.559	4630
864.691	4588
864.823	4523
864.954	4523
865.086	4558
865.217	4432
865.349	4489
865.48	4462
865.612	4554
865.743	4637
865.875	4508
866.006	4436
866.137	4519
866.269	4413
866.4	4478
866.531	4481
866.662	4405
866.793	4455
866.924	4508
867.055	4523
867.186	4459
867.317	4485
867.448	4394
867.579	4424
867.71	4409
867.841	4409
867.972	4489
868.103	4485
868.233	4443
868.364	4440
868.495	4474
868.625	4656
868.756	4786
868.886	4599
869.017	4592
869.147	4755
869.278	4740
869.408	4683
869.539	4664
869.669	4740
869.799	4691
869.929	4824
870.06	4786
870.19	4968
870.32	4919
870.45	4968
870.58	5041
870.71	5098
870.84	5121
870.97	4991
871.1	4995
871.23	5136
871.36	5140
871.489	5033
871.619	5086
871.749	5147
871.879	5113
872.008	5204
872.138	5102
872.267	5018
872.397	4850
872.526	4812
872.656	4729
872.785	4850
872.915	4968
873.044	5052
873.173	4949
873.303	4995
873.432	5003
873.561	4995
873.69	4930
873.819	4862
873.948	4980
874.077	4824
874.206	4793
874.335	4820
874.464	4942
874.593	5102
874.722	4984
874.851	5128
874.979	5117
875.108	5079
875.237	4965
875.365	4797
875.494	4892
875.623	5003
875.751	4847
875.88	4930
876.008	4984
876.136	5090
876.265	5265
876.393	5387
876.521	5303
876.65	5246
876.778	5105
876.906	5094
877.034	4999
877.162	5064
877.29	5006
877.418	5060
877.546	5086
877.674	5025
877.802	5083
877.93	5045
878.058	4946
878.185	4908
878.313	4980
878.441	4987
878.568	4812
878.696	4957
878.824	4995
878.951	5067
879.079	5159
879.206	5311
879.333	5105
879.461	5006
879.588	5056
879.715	5220
879.842	5246
879.97	5025
880.097	4805
880.224	4820
880.351	4843
880.478	4847
880.605	4831
880.732	4805
880.859	5102
880.986	4938
881.112	4938
881.239	4797
881.366	4717
881.493	4637
881.619	4679
881.746	4660
881.872	4675
881.999	4675
882.125	4714
882.252	4854
882.378	4877
882.505	5033
882.631	4877
882.757	4759
882.883	4839
883.01	4793
883.136	4679
883.262	4634
883.388	4645
883.514	4850
883.64	4889
883.766	4881
883.892	4752
884.018	4828
884.143	4923
884.269	5041
884.395	4740
884.52	4687
884.646	4714
884.772	4622
884.897	4656
885.023	4691
885.148	4820
885.274	4930
885.399	4866
885.524	4736
885.65	4729
885.775	4774
885.9	4767
886.025	4930
886.15	4786
886.275	4759
886.4	4729
886.525	4778
886.65	4774
886.775	4736
886.9	4904
887.025	5151
887.149	4892
887.274	4668
887.399	4645
887.523	4656
887.648	4603
887.773	4664
887.897	4816
888.021	4843
888.146	4714
888.27	4847
888.395	4938
888.519	4904
888.643	4850
888.767	4824
888.891	4691
889.015	4660
889.139	4691
889.263	4649
889.387	4816
889.511	4919
889.635	4847
889.759	4691
889.883	4702
890.006	4790
890.13	4900
890.254	4683
890.377	4736
890.501	4554
890.624	4565
890.748	4672
890.871	4561
890.995	4474
891.118	4447
891.241	4569
891.364	4603
891.488	4679
891.611	4569
891.734	4550
891.857	4683
891.98	4611
892.103	4702
892.226	4615
892.349	4573
892.471	4462
892.594	4599
892.717	4634
892.839	4626
892.962	4641
893.085	4672
893.207	4653
893.33	4550
893.452	4558
893.575	4725
893.697	4622
893.819	4820
893.941	4900
894.064	4809
894.186	4622
894.308	4672
894.43	4786
894.552	4854
894.674	4759
894.796	4603
894.918	4634
895.04	4626
895.161	4736
895.283	4706
895.405	4615
895.526	4725
895.648	4714
895.769	4778
895.891	4782
896.012	4755
896.134	4744
896.255	4717
896.376	4691
896.498	4675
896.619	4691
896.74	4675
896.861	4687
896.982	4949
897.103	5208
897.224	4866
897.345	4835
897.466	4706
897.587	4801
897.708	4911
897.828	4854
897.949	4752
898.07	4607
898.19	4630
898.311	4877
898.431	4729
898.552	4782
898.672	4850
898.792	4824
898.913	4771
899.033	4729
899.153	4542
899.273	4481
899.393	4550
899.513	4569
899.633	4500
899.753	4615
899.873	4558
899.993	4607
900.113	4588
900.232	4626
900.352	4577
900.472	4573
900.591	4428
900.711	4558
900.83	4478
900.95	4656
901.069	4786
901.189	4615
901.308	4421
901.427	4375
901.546	4405
901.665	4497
901.784	4527
901.904	4371
902.023	4337
902.141	4249
902.26	4200
902.379	4348
902.498	4299
902.617	4238
902.735	4432
902.854	4455
902.973	4398
903.091	4280
903.21	4284
903.328	4333
903.446	4318
903.565	4272
903.683	4383
903.801	4329
903.919	4443
904.038	4481
904.156	4356
904.274	4512
904.392	4417
904.51	4432
904.627	4527
904.745	4599
904.863	4687
904.981	4443
905.098	4322
905.216	4417
905.334	4451
905.451	4512
905.569	4485
905.686	4615
905.803	4634
905.921	4474
906.038	4592
906.155	4508
906.272	4409
906.389	4504
906.506	4417
906.623	4417
906.74	4428
906.857	4394
906.974	4405
907.091	4584
907.208	4706
907.324	4634
907.441	4485
907.557	4402
907.674	4367
907.79	4322
907.907	4428
908.023	4531
908.139	4523
908.256	4474
908.372	4577
908.488	4451
908.604	4413
908.72	4367
908.836	4405
908.952	4379
909.068	4466
909.184	4653
909.3	4527
909.415	4630
909.531	4615
909.647	4344
909.762	4398
909.878	4413
909.993	4459
910.108	4440
910.224	4497
910.339	4523
910.454	4432
910.57	4409
910.685	4363
910.8	4687
910.915	4634
911.03	4516
911.145	4367
911.259	4363
911.374	4394
911.489	4383
911.604	4322
911.718	4188
911.833	4253
911.947	4154
912.062	4086
912.176	4291
912.291	4310
912.405	4257
912.519	4443
912.633	4554
912.748	4363
912.862	4352
912.976	4272
913.09	4109
913.204	4196
913.318	4268
913.431	4428
913.545	4428
913.659	4504
913.772	4451
913.886	4306
914	4253
914.113	4402
914.226	4497
914.34	4424
914.453	4284
914.566	4421
914.68	4386
914.793	4360
914.906	4185
915.019	4173
915.132	4128
915.245	4211
915.358	4249
915.47	4249
915.583	4303
915.696	4325
915.809	4405
915.921	4470
916.034	4310
916.146	4306
916.259	4234
916.371	4478
916.483	4443
916.595	4303
916.708	4371
916.82	4375
916.932	4390
917.044	4341
917.156	4375
917.268	4318
917.38	4322
917.491	4322
917.603	4417
917.715	4485
917.826	4481
917.938	4405
918.049	4287
918.161	4447
918.272	4580
918.384	4611
918.495	4508
918.606	4371
918.717	4303
918.828	4367
918.939	4405
919.05	4261
919.161	4356
919.272	4188
919.383	4249
919.494	4504
919.604	4645
919.715	4481
919.826	4421
919.936	4447
920.047	4569
920.157	4523
920.267	4721
920.378	4577
920.488	4565
920.598	4755
920.708	4904
920.818	4763
920.928	4828
921.038	4949
921.148	4961
921.258	4668
921.368	4607
921.477	4561
921.587	4466
921.697	4409
921.806	4535
921.916	4413
922.025	4352
922.134	4322
922.244	4257
922.353	4394
922.462	4200
922.571	4169
922.68	4067
922.789	4013
922.898	4063
923.007	3994
923.116	4139
923.224	4086
923.333	4105
923.442	4013
923.55	4021
923.659	4029
923.767	4139
923.876	4017
923.984	4116
924.092	4029
924.201	4093
924.309	4131
924.417	4150
924.525	4093
924.633	4131
924.741	5071
924.849	3964
924.956	4154
925.064	4002
925.172	3930
925.279	4021
925.387	4048
925.494	4051
925.602	4265
925.709	4230
925.816	4086
925.924	4154
926.031	4249
926.138	4207
926.245	4219
926.352	4112
926.459	4299
926.566	4329
926.673	4196
926.779	4139
926.886	4128
926.993	4017
927.099	3983
927.206	3968
927.312	3964
927.419	4021
927.525	4051
927.631	4093
927.737	3979
927.843	3926
927.95	3842
928.056	4002
928.162	4055
928.267	4120
928.373	4740
928.479	4169
928.585	3911
928.69	4067
928.796	4093
928.901	4017
929.007	3876
929.112	4090
929.218	4021
929.323	3949
929.428	3972
929.533	4101
929.638	3918
929.743	4002
929.848	4093
929.953	4040
930.058	3979
930.163	3835
930.267	3861
930.372	4025
930.477	3812
930.581	4105
930.685	4006
930.79	3861
930.894	3896
930.998	3876
931.103	4059
931.207	3732
931.311	3724
931.415	3732
931.519	3584
931.623	3591
