Data from test_V78500241_2744.txt Node
Date: Fri Mar 25 17:08:04 CST 2022
User: usil
Spectrometer: V785-0024
Trigger mode: 0
Integration Time (sec): 4.000000E-1
Scans to average: 1
Nonlinearity correction enabled: false
Boxcar width: 0
Storing dark spectrum: false
XAxis mode: Wavelengths
Number of Pixels in Spectrum: 1024
>>>>>Begin Spectral Data<<<<<
801.071	8111
801.214	8062
801.356	7951
801.499	7887
801.641	7871
801.783	7830
801.926	8012
802.068	7974
802.211	7936
802.353	8077
802.496	7879
802.638	7887
802.78	7940
802.923	7970
803.065	7913
803.208	7864
803.35	8062
803.492	8107
803.635	8161
803.777	8012
803.919	8157
804.061	8465
804.204	8275
804.346	8088
804.488	8016
804.63	8164
804.773	8069
804.915	8138
805.057	8324
805.199	8126
805.341	8157
805.483	8279
805.626	8206
805.768	8164
805.91	8237
806.052	8218
806.194	8096
806.336	8358
806.478	8138
806.62	8035
806.762	8187
806.904	8271
807.046	8503
807.188	8377
807.33	8377
807.472	8347
807.614	8191
807.756	8161
807.898	8039
808.04	7955
808.182	7883
808.324	7947
808.465	7944
808.607	8103
808.749	8107
808.891	8298
809.033	8336
809.174	8176
809.316	8081
809.458	8065
809.6	7978
809.741	8031
809.883	8096
810.025	8123
810.166	8134
810.308	8046
810.45	8027
810.591	7951
810.733	7780
810.875	7681
811.016	7575
811.158	7514
811.299	7620
811.441	7704
811.582	7708
811.724	7525
811.865	7575
812.007	7575
812.148	7594
812.29	7734
812.431	7772
812.573	7830
812.714	8012
812.855	8195
812.997	8290
813.138	8366
813.279	8183
813.421	8142
813.562	8084
813.703	7849
813.845	7818
813.986	7491
814.127	7320
814.268	7278
814.41	7164
814.551	7179
814.692	7164
814.833	7118
814.974	7069
815.115	7114
815.256	6958
815.397	6897
815.539	6932
815.68	6806
815.821	6745
815.962	6890
816.103	6844
816.244	6726
816.385	6639
816.526	6658
816.666	6498
816.807	6285
816.948	6433
817.089	6506
817.23	6407
817.371	6331
817.512	6391
817.653	6380
817.793	6399
817.934	6407
818.075	6479
818.216	6399
818.356	6429
818.497	6254
818.638	6106
818.778	6178
818.919	6083
819.06	6190
819.2	6369
819.341	6334
819.481	6365
819.622	6559
819.762	6738
819.903	6707
820.043	6646
820.184	6597
820.324	6570
820.465	6681
820.605	6635
820.746	6593
820.886	6521
821.026	6642
821.167	6734
821.307	6829
821.447	6795
821.588	6688
821.728	6528
821.868	6612
822.008	6338
822.149	6384
822.289	6338
822.429	6171
822.569	6129
822.709	6144
822.849	5916
822.99	5931
823.13	5908
823.27	5889
823.41	5718
823.55	5813
823.69	5726
823.83	5756
823.97	5726
824.11	5520
824.25	5520
824.389	5566
824.529	5600
824.669	5520
824.809	5627
824.949	5649
825.089	5665
825.228	5570
825.368	5414
825.508	5288
825.648	5337
825.787	5353
825.927	5334
826.067	5318
826.206	5318
826.346	5398
826.485	5444
826.625	5372
826.765	5547
826.904	5467
827.044	5201
827.183	5204
827.323	5159
827.462	5292
827.601	5189
827.741	5193
827.88	5235
828.02	5121
828.159	5223
828.298	5296
828.437	5360
828.577	5284
828.716	5474
828.855	5353
828.994	5140
829.134	5170
829.273	5166
829.412	5208
829.551	5140
829.69	5197
829.829	5250
829.968	5353
830.107	5284
830.246	5280
830.385	5212
830.524	5140
830.663	5056
830.802	4961
830.941	4877
831.08	4847
831.219	5029
831.357	4968
831.496	5124
831.635	4934
831.774	4850
831.913	4828
832.051	4744
832.19	4755
832.329	4820
832.467	4649
832.606	4653
832.744	4736
832.883	4717
833.022	4672
833.16	4744
833.299	4862
833.437	4858
833.576	4820
833.714	4824
833.852	4900
833.991	4843
834.129	4980
834.267	4930
834.406	4923
834.544	4980
834.682	4953
834.821	4930
834.959	5151
835.097	5018
835.235	5128
835.373	5052
835.511	5045
835.65	4987
835.788	5045
835.926	4904
836.064	4904
836.202	4889
836.34	5159
836.478	5235
836.615	5075
836.753	5204
836.891	5280
837.029	5235
837.167	5178
837.305	5201
837.443	5151
837.58	5041
837.718	5235
837.856	5174
837.993	5159
838.131	5216
838.269	5216
838.406	5143
838.544	5124
838.681	5037
838.819	4991
838.956	4870
839.094	4911
839.231	5003
839.369	5086
839.506	5372
839.643	5296
839.781	5083
839.918	5006
840.055	5094
840.193	5109
840.33	5113
840.467	5193
840.604	5197
840.742	5429
840.879	5064
841.016	5056
841.153	5128
841.29	5353
841.427	5307
841.564	5330
841.701	5364
841.838	5246
841.975	5250
842.112	5273
842.249	5204
842.385	5094
842.522	5349
842.659	5212
842.796	5132
842.933	5204
843.069	5113
843.206	5132
843.343	5303
843.479	5201
843.616	5250
843.752	5014
843.889	5006
844.025	5235
844.162	5014
844.298	5166
844.435	5121
844.571	5022
844.708	5140
844.844	5277
844.98	5330
845.117	5299
845.253	5109
845.389	5102
845.525	5147
845.661	5174
845.798	5098
845.934	5162
846.07	5018
846.206	5204
846.342	5242
846.478	5159
846.614	5006
846.75	4968
846.886	4949
847.022	5117
847.158	5018
847.294	5083
847.429	5079
847.565	5010
847.701	5280
847.837	4820
847.972	4809
848.108	4934
848.244	4930
848.379	4763
848.515	4744
848.65	4733
848.786	4771
848.921	4752
849.057	4862
849.192	4938
849.328	4790
849.463	4812
849.598	4790
849.734	4702
849.869	4656
850.004	4622
850.14	4672
850.275	4573
850.41	4558
850.545	4596
850.68	4641
850.815	4596
850.95	4622
851.085	4812
851.22	4782
851.355	4668
851.49	4626
851.625	4611
851.76	4611
851.895	4565
852.03	4538
852.165	4672
852.299	4706
852.434	4752
852.569	4774
852.703	4740
852.838	4847
852.973	4915
853.107	4938
853.242	4706
853.376	4717
853.511	4535
853.645	4656
853.78	4805
853.914	4733
854.048	4675
854.183	4641
854.317	4710
854.451	4835
854.585	4683
854.72	4641
854.854	4771
854.988	4588
855.122	4634
855.256	4481
855.39	4702
855.524	4786
855.658	4733
855.792	4710
855.926	4736
856.06	4782
856.194	4850
856.327	4694
856.461	4626
856.595	4573
856.729	4592
856.862	4706
856.996	4710
857.13	4698
857.263	4725
857.397	4797
857.53	4691
857.664	4748
857.797	4748
857.931	4767
858.064	4668
858.197	4729
858.331	4653
858.464	4584
858.597	4535
858.731	4596
858.864	4664
858.997	4607
859.13	4645
859.263	4668
859.396	4664
859.529	4596
859.662	4588
859.795	4527
859.928	4626
860.061	4767
860.194	4752
860.327	4546
860.46	4580
860.592	4694
860.725	4755
860.858	4698
860.99	4573
861.123	4538
861.256	4519
861.388	4596
861.521	5296
861.653	4512
861.786	4440
861.918	4440
862.05	4489
862.183	4508
862.315	4573
862.447	4683
862.58	4512
862.712	4405
862.844	4329
862.976	4474
863.108	4470
863.24	4763
863.372	4314
863.504	4402
863.636	4409
863.768	4516
863.9	4459
864.032	4375
864.164	4386
864.296	4455
864.428	4554
864.559	4546
864.691	4546
864.823	4561
864.954	4535
865.086	4497
865.217	4500
865.349	4409
865.48	4447
865.612	4512
865.743	4611
865.875	4504
866.006	4428
866.137	4481
866.269	4394
866.4	4394
866.531	4402
866.662	4398
866.793	4371
866.924	4421
867.055	4519
867.186	4462
867.317	4379
867.448	4356
867.579	4375
867.71	4333
867.841	4341
867.972	4466
868.103	4436
868.233	4489
868.364	4390
868.495	4440
868.625	4687
868.756	4790
868.886	4542
869.017	4645
869.147	4835
869.278	4782
869.408	4637
869.539	4675
869.669	4748
869.799	4649
869.929	4733
870.06	4721
870.19	4942
870.32	4934
870.45	4938
870.58	5014
870.71	5117
870.84	5075
870.97	4942
871.1	4854
871.23	5147
871.36	5102
871.489	5033
871.619	5045
871.749	5071
871.879	5128
872.008	5181
872.138	5010
872.267	4961
872.397	4854
872.526	4828
872.656	4759
872.785	4740
872.915	4930
873.044	5037
873.173	4923
873.303	4934
873.432	4980
873.561	4965
873.69	4885
873.819	4866
873.948	4949
874.077	4771
874.206	4725
874.335	4790
874.464	4911
874.593	5064
874.722	4965
874.851	5098
874.979	5025
875.108	5025
875.237	4900
875.365	4900
875.494	4828
875.623	4984
875.751	4824
875.88	4866
876.008	4957
876.136	5041
876.265	5197
876.393	5326
876.521	5269
876.65	5258
876.778	5155
876.906	5075
877.034	5006
877.162	5075
877.29	4984
877.418	5025
877.546	5025
877.674	5052
877.802	5048
877.93	5025
878.058	4889
878.185	4949
878.313	4980
878.441	5010
878.568	4843
878.696	4881
878.824	5033
878.951	4984
879.079	5113
879.206	5311
879.333	5090
879.461	4972
879.588	4980
879.715	5102
879.842	5174
879.97	4995
880.097	4831
880.224	4710
880.351	4820
880.478	4854
880.605	4767
880.732	4793
880.859	5056
880.986	4923
881.112	4908
881.239	4771
881.366	4725
881.493	4596
881.619	4611
881.746	4641
881.872	4702
881.999	4634
882.125	4687
882.252	4786
882.378	4839
882.505	4972
882.631	4782
882.757	4668
882.883	4706
883.01	4725
883.136	4645
883.262	4569
883.388	4580
883.514	4786
883.64	4862
883.766	4797
883.892	4729
884.018	4714
884.143	4881
884.269	4976
884.395	4698
884.52	4660
884.646	4637
884.772	4596
884.897	4565
885.023	4668
885.148	4790
885.274	4866
885.399	4835
885.524	4698
885.65	4679
885.775	4725
885.9	4778
886.025	4850
886.15	4752
886.275	4736
886.4	4615
886.525	4748
886.65	4694
886.775	4721
886.9	4908
887.025	5041
887.149	4805
887.274	4649
887.399	4565
887.523	4588
887.648	4599
887.773	4626
887.897	4755
888.021	4763
888.146	4702
888.27	4820
888.395	4930
888.519	4828
888.643	4809
888.767	4809
888.891	4710
889.015	4618
889.139	4656
889.263	4618
889.387	4771
889.511	4885
889.635	4793
889.759	4622
889.883	4668
890.006	4740
890.13	4816
890.254	4630
890.377	4653
890.501	4569
890.624	4531
890.748	4653
890.871	4531
890.995	4447
891.118	4398
891.241	4516
891.364	4523
891.488	4653
891.611	4535
891.734	4542
891.857	4592
891.98	4569
892.103	4599
892.226	4550
892.349	4546
892.471	4409
892.594	4519
892.717	4588
892.839	4580
892.962	4588
893.085	4679
893.207	4618
893.33	4470
893.452	4546
893.575	4626
893.697	4561
893.819	4797
893.941	4828
894.064	4812
894.186	4573
894.308	4588
894.43	4740
894.552	4850
894.674	4797
894.796	4546
894.918	4634
895.04	4580
895.161	4755
895.283	4622
895.405	4584
895.526	4634
895.648	4656
895.769	4653
895.891	4710
896.012	4759
896.134	4717
896.255	4656
896.376	4645
896.498	4641
896.619	4649
896.74	4622
896.861	4618
896.982	4911
897.103	5060
897.224	4854
897.345	4774
897.466	4626
897.587	4706
897.708	4831
897.828	4733
897.949	4660
898.07	4569
898.19	4653
898.311	4805
898.431	4683
898.552	4687
898.672	4816
898.792	4824
898.913	4748
899.033	4607
899.153	4550
899.273	4417
899.393	4462
899.513	4527
899.633	4519
899.753	4577
899.873	4535
899.993	4561
900.113	4577
900.232	4596
900.352	4546
900.472	4512
900.591	4466
900.711	4497
900.83	4367
900.95	4599
901.069	4683
901.189	4519
901.308	4371
901.427	4276
901.546	4386
901.665	4451
901.784	4508
901.904	4440
902.023	4253
902.141	4211
902.26	4181
902.379	4272
902.498	4272
902.617	4238
902.735	4379
902.854	4405
902.973	4360
903.091	4192
903.21	4200
903.328	4303
903.446	4268
903.565	4230
903.683	4348
903.801	4329
903.919	4363
904.038	4432
904.156	4348
904.274	4489
904.392	4443
904.51	4447
904.627	4451
904.745	4584
904.863	4626
904.981	4421
905.098	4299
905.216	4360
905.334	4421
905.451	4451
905.569	4394
905.686	4523
905.803	4550
905.921	4428
906.038	4550
906.155	4447
906.272	4348
906.389	4432
906.506	4360
906.623	4390
906.74	4329
906.857	4295
906.974	4363
907.091	4558
907.208	4668
907.324	4573
907.441	4485
907.557	4344
907.674	4348
907.79	4314
907.907	4360
908.023	4500
908.139	4451
908.256	4440
908.372	4527
908.488	4455
908.604	4352
908.72	4367
908.836	4367
908.952	4329
909.068	4421
909.184	4550
909.3	4424
909.415	4554
909.531	4584
909.647	4360
909.762	4325
909.878	4287
909.993	4440
910.108	4402
910.224	4497
910.339	4466
910.454	4413
910.57	4333
910.685	4341
910.8	4641
910.915	4584
911.03	4516
911.145	4322
911.259	4337
911.374	4402
911.489	4306
911.604	4265
911.718	4204
911.833	4162
911.947	4055
912.062	4006
912.176	4230
912.291	4246
912.405	4249
912.519	4447
912.633	4462
912.748	4356
912.862	4329
912.976	4169
913.09	4116
913.204	4150
913.318	4215
913.431	4402
913.545	4375
913.659	4474
913.772	4341
913.886	4265
914	4242
914.113	4394
914.226	4440
914.34	4424
914.453	4257
914.566	4413
914.68	4268
914.793	4322
914.906	4135
915.019	4150
915.132	4055
915.245	4200
915.358	4268
915.47	4200
915.583	4234
915.696	4284
915.809	4379
915.921	4402
916.034	4265
916.146	4272
916.259	4284
916.371	4356
916.483	4371
916.595	4242
916.708	4322
916.82	4299
916.932	4291
917.044	4314
917.156	4299
917.268	4238
917.38	4227
917.491	4276
917.603	4325
917.715	4443
917.826	4421
917.938	4333
918.049	4230
918.161	4424
918.272	4558
918.384	4542
918.495	4470
918.606	4246
918.717	4207
918.828	4306
918.939	4398
919.05	4257
919.161	4318
919.272	4162
919.383	4234
919.494	4481
919.604	4660
919.715	4409
919.826	4329
919.936	4424
920.047	4554
920.157	4478
920.267	4717
920.378	4561
920.488	4527
920.598	4702
920.708	4862
920.818	4698
920.928	4767
921.038	4896
921.148	4870
921.258	4637
921.368	4580
921.477	4466
921.587	4402
921.697	4379
921.806	4546
921.916	4367
922.025	4272
922.134	4280
922.244	4242
922.353	4379
922.462	4181
922.571	4139
922.68	4036
922.789	3941
922.898	4044
923.007	3998
923.116	4055
923.224	4074
923.333	4055
923.442	3960
923.55	3960
923.659	4067
923.767	4063
923.876	3991
923.984	4097
924.092	3983
924.201	4055
924.309	4112
924.417	4097
924.525	4082
924.633	4055
924.741	5090
924.849	3903
924.956	4093
925.064	3949
925.172	3907
925.279	3899
925.387	4021
925.494	4029
925.602	4257
925.709	4200
925.816	4021
925.924	4158
926.031	4204
926.138	4196
926.245	4196
926.352	4097
926.459	4272
926.566	4325
926.673	4139
926.779	4090
926.886	4055
926.993	3949
927.099	3941
927.206	3972
927.312	3941
927.419	4048
927.525	4055
927.631	4051
927.737	3922
927.843	3907
927.95	3842
928.056	3941
928.162	3994
928.267	4067
928.373	4687
928.479	4124
928.585	3892
928.69	4010
928.796	4074
928.901	3949
929.007	3842
929.112	3930
929.218	3945
929.323	3960
929.428	3888
929.533	4074
929.638	3907
929.743	3945
929.848	4074
929.953	4006
930.058	3949
930.163	3800
930.267	3819
930.372	4006
930.477	3740
930.581	4101
930.685	3953
930.79	3838
930.894	3880
930.998	3816
931.103	4048
931.207	3686
931.311	3690
931.415	3671
931.519	3504
931.623	3530
