Data from test_V78500241_157.txt Node
Date: Fri Mar 25 16:50:05 CST 2022
User: usil
Spectrometer: V785-0024
Trigger mode: 0
Integration Time (sec): 4.000000E-1
Scans to average: 1
Nonlinearity correction enabled: false
Boxcar width: 0
Storing dark spectrum: false
XAxis mode: Wavelengths
Number of Pixels in Spectrum: 1024
>>>>>Begin Spectral Data<<<<<
801.071	7997
801.214	8005
801.356	7906
801.499	7837
801.641	7830
801.783	7795
801.926	7917
802.068	7959
802.211	7951
802.353	8016
802.496	7841
802.638	7856
802.78	7909
802.923	7909
803.065	7780
803.208	7925
803.35	7906
803.492	8039
803.635	8134
803.777	7951
803.919	8084
804.061	8343
804.204	8084
804.346	7997
804.488	7936
804.63	8043
804.773	7986
804.915	8050
805.057	8290
805.199	8058
805.341	8210
805.483	8225
805.626	8187
805.768	8062
805.91	8115
806.052	8191
806.194	8096
806.336	8309
806.478	8100
806.62	8050
806.762	8096
806.904	8244
807.046	8389
807.188	8389
807.33	8237
807.472	8286
807.614	8126
807.756	8123
807.898	8016
808.04	7925
808.182	7932
808.324	7883
808.465	7894
808.607	8050
808.749	8126
808.891	8263
809.033	8328
809.174	8164
809.316	8039
809.458	8077
809.6	7951
809.741	8008
809.883	8031
810.025	8069
810.166	8119
810.308	8126
810.45	8005
810.591	7925
810.733	7727
810.875	7696
811.016	7460
811.158	7552
811.299	7567
811.441	7784
811.582	7734
811.724	7597
811.865	7605
812.007	7624
812.148	7636
812.29	7677
812.431	7784
812.573	7944
812.714	8039
812.855	8240
812.997	8309
813.138	8415
813.279	8206
813.421	8134
813.562	8031
813.703	7921
813.845	7811
813.986	7476
814.127	7327
814.268	7213
814.41	7164
814.551	7232
814.692	7217
814.833	7107
814.974	7152
815.115	7187
815.256	6932
815.397	6920
815.539	6977
815.68	6810
815.821	6863
815.962	6772
816.103	6802
816.244	6715
816.385	6608
816.526	6635
816.666	6544
816.807	6315
816.948	6441
817.089	6456
817.23	6456
817.371	6395
817.512	6388
817.653	6494
817.793	6308
817.934	6452
818.075	6471
818.216	6418
818.356	6357
818.497	6213
818.638	6121
818.778	6163
818.919	6178
819.06	6133
819.2	6311
819.341	6289
819.481	6388
819.622	6544
819.762	6745
819.903	6753
820.043	6642
820.184	6593
820.324	6570
820.465	6760
820.605	6665
820.746	6639
820.886	6544
821.026	6673
821.167	6707
821.307	6798
821.447	6711
821.588	6681
821.728	6597
821.868	6460
822.008	6308
822.149	6414
822.289	6391
822.429	6175
822.569	6125
822.709	6148
822.849	5977
822.99	5961
823.13	5874
823.27	5908
823.41	5794
823.55	5798
823.69	5805
823.83	5855
823.97	5684
824.11	5562
824.25	5554
824.389	5558
824.529	5577
824.669	5596
824.809	5649
824.949	5699
825.089	5695
825.228	5581
825.368	5429
825.508	5368
825.648	5311
825.787	5410
825.927	5433
826.067	5322
826.206	5322
826.346	5417
826.485	5444
826.625	5482
826.765	5562
826.904	5516
827.044	5288
827.183	5284
827.323	5227
827.462	5280
827.601	5220
827.741	5280
827.88	5246
828.02	5181
828.159	5315
828.298	5315
828.437	5414
828.577	5288
828.716	5535
828.855	5391
828.994	5242
829.134	5246
829.273	5292
829.412	5227
829.551	5193
829.69	5216
829.829	5303
829.968	5444
830.107	5318
830.246	5337
830.385	5212
830.524	5204
830.663	5143
830.802	5064
830.941	4961
831.08	4965
831.219	4999
831.357	5048
831.496	5311
831.635	4980
831.774	4953
831.913	4915
832.051	4801
832.19	4820
832.329	4896
832.467	4782
832.606	4668
832.744	4805
832.883	4744
833.022	4767
833.16	4790
833.299	4850
833.437	4896
833.576	4877
833.714	4957
833.852	4904
833.991	4957
834.129	5052
834.267	5014
834.406	4957
834.544	5056
834.682	5010
834.821	5045
834.959	5193
835.097	5048
835.235	5220
835.373	5185
835.511	5147
835.65	5052
835.788	5045
835.926	4968
836.064	4938
836.202	4953
836.34	5181
836.478	5273
836.615	5216
836.753	5296
836.891	5311
837.029	5280
837.167	5250
837.305	5231
837.443	5166
837.58	5117
837.718	5296
837.856	5227
837.993	5181
838.131	5303
838.269	5265
838.406	5231
838.544	5235
838.681	5060
838.819	5086
838.956	4946
839.094	4930
839.231	5083
839.369	5124
839.506	5471
839.643	5322
839.781	5098
839.918	5006
840.055	5155
840.193	5075
840.33	5155
840.467	5197
840.604	5239
840.742	5486
840.879	5124
841.016	5159
841.153	5258
841.29	5429
841.427	5452
841.564	5402
841.701	5406
841.838	5360
841.975	5280
842.112	5273
842.249	5189
842.385	5166
842.522	5349
842.659	5204
842.796	5201
842.933	5235
843.069	5140
843.206	5155
843.343	5330
843.479	5284
843.616	5307
843.752	5105
843.889	5052
844.025	5258
844.162	5071
844.298	5254
844.435	5121
844.571	5090
844.708	5216
844.844	5337
844.98	5402
845.117	5341
845.253	5193
845.389	5162
845.525	5197
845.661	5201
845.798	5086
845.934	5212
846.07	5090
846.206	5261
846.342	5330
846.478	5258
846.614	5113
846.75	5056
846.886	5018
847.022	5189
847.158	5086
847.294	5124
847.429	5193
847.565	5151
847.701	5383
847.837	4919
847.972	4885
848.108	5041
848.244	4987
848.379	4824
848.515	4778
848.65	4805
848.786	4828
848.921	4847
849.057	4904
849.192	4968
849.328	4858
849.463	4911
849.598	4835
849.734	4858
849.869	4759
850.004	4649
850.14	4691
850.275	4634
850.41	4618
850.545	4607
850.68	4641
850.815	4660
850.95	4668
851.085	4877
851.22	4843
851.355	4691
851.49	4706
851.625	4641
851.76	4683
851.895	4573
852.03	4577
852.165	4672
852.299	4786
852.434	4896
852.569	4839
852.703	4809
852.838	4892
852.973	4995
853.107	4930
853.242	4778
853.376	4721
853.511	4611
853.645	4656
853.78	4858
853.914	4672
854.048	4691
854.183	4706
854.317	4774
854.451	4885
854.585	4721
854.72	4748
854.854	4809
854.988	4588
855.122	4641
855.256	4512
855.39	4721
855.524	4786
855.658	4752
855.792	4725
855.926	4805
856.06	4793
856.194	4858
856.327	4714
856.461	4618
856.595	4630
856.729	4641
856.862	4790
856.996	4736
857.13	4793
857.263	4797
857.397	4870
857.53	4660
857.664	4740
857.797	4828
857.931	4828
858.064	4706
858.197	4790
858.331	4653
858.464	4683
858.597	4596
858.731	4698
858.864	4672
858.997	4649
859.13	4721
859.263	4725
859.396	4793
859.529	4641
859.662	4618
859.795	4615
859.928	4653
860.061	4771
860.194	4801
860.327	4641
860.46	4596
860.592	4725
860.725	4786
860.858	4843
860.99	4637
861.123	4584
861.256	4615
861.388	4717
861.521	5459
861.653	4546
861.786	4512
861.918	4531
862.05	4580
862.183	4577
862.315	4691
862.447	4675
862.58	4599
862.712	4432
862.844	4367
862.976	4508
863.108	4508
863.24	4953
863.372	4390
863.504	4455
863.636	4474
863.768	4508
863.9	4451
864.032	4379
864.164	4432
864.296	4516
864.428	4561
864.559	4588
864.691	4592
864.823	4569
864.954	4508
865.086	4577
865.217	4500
865.349	4447
865.48	4516
865.612	4580
865.743	4630
865.875	4523
866.006	4417
866.137	4516
866.269	4459
866.4	4440
866.531	4459
866.662	4455
866.793	4474
866.924	4443
867.055	4554
867.186	4500
867.317	4451
867.448	4402
867.579	4424
867.71	4459
867.841	4417
867.972	4516
868.103	4504
868.233	4512
868.364	4535
868.495	4565
868.625	4744
868.756	4763
868.886	4577
869.017	4664
869.147	4847
869.278	4820
869.408	4698
869.539	4714
869.669	4763
869.799	4733
869.929	4786
870.06	4752
870.19	4953
870.32	4942
870.45	5010
870.58	5060
870.71	5124
870.84	5124
870.97	4987
871.1	4919
871.23	5185
871.36	5197
871.489	5094
871.619	5159
871.749	5128
871.879	5151
872.008	5201
872.138	5105
872.267	5022
872.397	4942
872.526	4862
872.656	4797
872.785	4877
872.915	5018
873.044	5086
873.173	5025
873.303	4938
873.432	5010
873.561	5006
873.69	4881
873.819	4881
873.948	4911
874.077	4828
874.206	4744
874.335	4793
874.464	4949
874.593	5098
874.722	5041
874.851	5132
874.979	5041
875.108	5033
875.237	4911
875.365	4885
875.494	4915
875.623	4976
875.751	4839
875.88	4927
876.008	5033
876.136	5045
876.265	5204
876.393	5345
876.521	5311
876.65	5227
876.778	5208
876.906	5159
877.034	5079
877.162	5056
877.29	4995
877.418	5090
877.546	5105
877.674	5102
877.802	5045
877.93	5048
878.058	5033
878.185	4911
878.313	4991
878.441	4946
878.568	4835
878.696	4915
878.824	4995
878.951	5022
879.079	5140
879.206	5337
879.333	5136
879.461	5041
879.588	5083
879.715	5121
879.842	5277
879.97	5037
880.097	4805
880.224	4771
880.351	4847
880.478	4850
880.605	4831
880.732	4858
880.859	5162
880.986	4908
881.112	4965
881.239	4793
881.366	4729
881.493	4645
881.619	4634
881.746	4660
881.872	4668
881.999	4691
882.125	4729
882.252	4809
882.378	4904
882.505	4984
882.631	4801
882.757	4672
882.883	4790
883.01	4824
883.136	4759
883.262	4679
883.388	4675
883.514	4831
883.64	4900
883.766	4877
883.892	4748
884.018	4763
884.143	4927
884.269	5037
884.395	4733
884.52	4672
884.646	4714
884.772	4694
884.897	4561
885.023	4721
885.148	4782
885.274	4904
885.399	4793
885.524	4786
885.65	4740
885.775	4771
885.9	4698
886.025	4870
886.15	4805
886.275	4778
886.4	4702
886.525	4774
886.65	4721
886.775	4744
886.9	4908
887.025	5045
887.149	4866
887.274	4679
887.399	4645
887.523	4637
887.648	4618
887.773	4607
887.897	4782
888.021	4805
888.146	4710
888.27	4870
888.395	4938
888.519	4896
888.643	4820
888.767	4816
888.891	4675
889.015	4626
889.139	4694
889.263	4622
889.387	4839
889.511	4919
889.635	4786
889.759	4717
889.883	4698
890.006	4736
890.13	4866
890.254	4664
890.377	4725
890.501	4546
890.624	4546
890.748	4656
890.871	4535
890.995	4462
891.118	4424
891.241	4573
891.364	4607
891.488	4641
891.611	4531
891.734	4580
891.857	4615
891.98	4622
892.103	4683
892.226	4592
892.349	4550
892.471	4466
892.594	4641
892.717	4660
892.839	4596
892.962	4626
893.085	4679
893.207	4649
893.33	4516
893.452	4573
893.575	4733
893.697	4592
893.819	4839
893.941	4873
894.064	4793
894.186	4649
894.308	4630
894.43	4748
894.552	4877
894.674	4790
894.796	4584
894.918	4599
895.04	4592
895.161	4748
895.283	4653
895.405	4607
895.526	4653
895.648	4675
895.769	4702
895.891	4755
896.012	4778
896.134	4725
896.255	4702
896.376	4645
896.498	4683
896.619	4698
896.74	4656
896.861	4664
896.982	4942
897.103	5124
897.224	4896
897.345	4786
897.466	4752
897.587	4725
897.708	4896
897.828	4820
897.949	4694
898.07	4580
898.19	4672
898.311	4870
898.431	4744
898.552	4809
898.672	4839
898.792	4820
898.913	4778
899.033	4649
899.153	4538
899.273	4478
899.393	4527
899.513	4523
899.633	4531
899.753	4584
899.873	4523
899.993	4618
900.113	4554
900.232	4607
900.352	4565
900.472	4535
900.591	4398
900.711	4508
900.83	4493
900.95	4675
901.069	4740
901.189	4542
901.308	4390
901.427	4348
901.546	4409
901.665	4519
901.784	4519
901.904	4398
902.023	4367
902.141	4211
902.26	4219
902.379	4325
902.498	4242
902.617	4238
902.735	4363
902.854	4432
902.973	4390
903.091	4211
903.21	4249
903.328	4379
903.446	4299
903.565	4284
903.683	4413
903.801	4299
903.919	4417
904.038	4474
904.156	4318
904.274	4443
904.392	4383
904.51	4432
904.627	4523
904.745	4603
904.863	4630
904.981	4424
905.098	4356
905.216	4379
905.334	4516
905.451	4500
905.569	4462
905.686	4618
905.803	4584
905.921	4474
906.038	4596
906.155	4481
906.272	4447
906.389	4531
906.506	4360
906.623	4417
906.74	4394
906.857	4303
906.974	4405
907.091	4626
907.208	4740
907.324	4622
907.441	4485
907.557	4394
907.674	4348
907.79	4363
907.907	4363
908.023	4504
908.139	4535
908.256	4390
908.372	4527
908.488	4504
908.604	4405
908.72	4371
908.836	4421
908.952	4386
909.068	4504
909.184	4592
909.3	4531
909.415	4580
909.531	4558
909.647	4379
909.762	4379
909.878	4390
909.993	4447
910.108	4478
910.224	4436
910.339	4481
910.454	4428
910.57	4402
910.685	4360
910.8	4710
910.915	4630
911.03	4500
911.145	4329
911.259	4352
911.374	4402
911.489	4284
911.604	4306
911.718	4207
911.833	4215
911.947	4109
912.062	4055
912.176	4192
912.291	4268
912.405	4265
912.519	4493
912.633	4500
912.748	4405
912.862	4303
912.976	4249
913.09	4128
913.204	4204
913.318	4242
913.431	4432
913.545	4375
913.659	4421
913.772	4379
913.886	4291
914	4280
914.113	4371
914.226	4485
914.34	4402
914.453	4234
914.566	4432
914.68	4329
914.793	4333
914.906	4177
915.019	4131
915.132	4074
915.245	4249
915.358	4249
915.47	4284
915.583	4352
915.696	4310
915.809	4402
915.921	4512
916.034	4268
916.146	4284
916.259	4238
916.371	4405
916.483	4432
916.595	4299
916.708	4325
916.82	4341
916.932	4363
917.044	4341
917.156	4390
917.268	4291
917.38	4287
917.491	4306
917.603	4367
917.715	4440
917.826	4470
917.938	4363
918.049	4291
918.161	4478
918.272	4584
918.384	4519
918.495	4455
918.606	4291
918.717	4219
918.828	4371
918.939	4459
919.05	4344
919.161	4348
919.272	4166
919.383	4280
919.494	4436
919.604	4630
919.715	4481
919.826	4390
919.936	4451
920.047	4554
920.157	4535
920.267	4759
920.378	4546
920.488	4512
920.598	4748
920.708	4892
920.818	4805
920.928	4793
921.038	5022
921.148	4889
921.258	4694
921.368	4569
921.477	4516
921.587	4470
921.697	4371
921.806	4542
921.916	4462
922.025	4341
922.134	4295
922.244	4223
922.353	4379
922.462	4211
922.571	4181
922.68	4059
922.789	3998
922.898	4093
923.007	4059
923.116	4101
923.224	4101
923.333	4143
923.442	4013
923.55	4036
923.659	4055
923.767	4147
923.876	4078
923.984	4131
924.092	3994
924.201	4067
924.309	4116
924.417	4188
924.525	4105
924.633	4109
924.741	4900
924.849	3960
924.956	4150
925.064	3994
925.172	3930
925.279	4025
925.387	4032
925.494	4090
925.602	4238
925.709	4207
925.816	4010
925.924	4139
926.031	4310
926.138	4196
926.245	4276
926.352	4112
926.459	4268
926.566	4360
926.673	4223
926.779	4166
926.886	4074
926.993	3998
927.099	3975
927.206	3987
927.312	3972
927.419	4078
927.525	4067
927.631	4173
927.737	4013
927.843	4025
927.95	3876
928.056	3987
928.162	4044
928.267	4051
928.373	4736
928.479	4169
928.585	3941
928.69	4017
928.796	4128
928.901	4071
929.007	3857
929.112	4029
929.218	3994
929.323	3960
929.428	3979
929.533	4112
929.638	3960
929.743	4017
929.848	4109
929.953	4010
930.058	3956
930.163	3804
930.267	3831
930.372	4025
930.477	3835
930.581	4116
930.685	3991
930.79	3861
930.894	3903
930.998	3873
931.103	4067
931.207	3766
931.311	3701
931.415	3701
931.519	3549
931.623	3614
