Data from test_V78500241_1975.txt Node
Date: Fri Mar 25 17:02:43 CST 2022
User: usil
Spectrometer: V785-0024
Trigger mode: 0
Integration Time (sec): 4.000000E-1
Scans to average: 1
Nonlinearity correction enabled: false
Boxcar width: 0
Storing dark spectrum: false
XAxis mode: Wavelengths
Number of Pixels in Spectrum: 1024
>>>>>Begin Spectral Data<<<<<
801.071	7921
801.214	7974
801.356	7780
801.499	7875
801.641	7799
801.783	7761
801.926	7932
802.068	7925
802.211	7947
802.353	7974
802.496	7818
802.638	7852
802.78	7902
802.923	7913
803.065	7780
803.208	7860
803.35	7928
803.492	8142
803.635	8046
803.777	8031
803.919	8096
804.061	8530
804.204	8126
804.346	7974
804.488	7917
804.63	8035
804.773	7989
804.915	8145
805.057	8309
805.199	8153
805.341	8233
805.483	8271
805.626	8138
805.768	8126
805.91	8149
806.052	8248
806.194	8073
806.336	8233
806.478	8088
806.62	8115
806.762	8088
806.904	8149
807.046	8442
807.188	8309
807.33	8240
807.472	8294
807.614	8221
807.756	8157
807.898	8012
808.04	7860
808.182	7909
808.324	7860
808.465	7959
808.607	7989
808.749	8119
808.891	8180
809.033	8279
809.174	8180
809.316	8065
809.458	8111
809.6	7959
809.741	7997
809.883	8024
810.025	8096
810.166	8050
810.308	7986
810.45	7963
810.591	7883
810.733	7674
810.875	7643
811.016	7533
811.158	7502
811.299	7552
811.441	7632
811.582	7696
811.724	7578
811.865	7556
812.007	7559
812.148	7582
812.29	7651
812.431	7780
812.573	7898
812.714	7936
812.855	8161
812.997	8176
813.138	8248
813.279	8149
813.421	8046
813.562	7982
813.703	7826
813.845	7780
813.986	7400
814.127	7198
814.268	7232
814.41	7244
814.551	7198
814.692	7156
814.833	7076
814.974	7118
815.115	7110
815.256	6985
815.397	6897
815.539	6848
815.68	6810
815.821	6726
815.962	6810
816.103	6730
816.244	6741
816.385	6635
816.526	6627
816.666	6486
816.807	6346
816.948	6426
817.089	6414
817.23	6445
817.371	6418
817.512	6410
817.653	6395
817.793	6372
817.934	6395
818.075	6471
818.216	6407
818.356	6395
818.497	6254
818.638	6140
818.778	6106
818.919	6159
819.06	6155
819.2	6327
819.341	6323
819.481	6350
819.622	6513
819.762	6623
819.903	6715
820.043	6589
820.184	6566
820.324	6597
820.465	6703
820.605	6669
820.746	6642
820.886	6498
821.026	6658
821.167	6741
821.307	6818
821.447	6814
821.588	6646
821.728	6498
821.868	6475
822.008	6296
822.149	6315
822.289	6376
822.429	6148
822.569	6022
822.709	6041
822.849	5893
822.99	5885
823.13	5954
823.27	5878
823.41	5783
823.55	5798
823.69	5767
823.83	5767
823.97	5615
824.11	5589
824.25	5520
824.389	5539
824.529	5577
824.669	5509
824.809	5623
824.949	5592
825.089	5604
825.228	5501
825.368	5444
825.508	5345
825.648	5372
825.787	5459
825.927	5364
826.067	5322
826.206	5284
826.346	5398
826.485	5364
826.625	5433
826.765	5539
826.904	5448
827.044	5265
827.183	5208
827.323	5220
827.462	5204
827.601	5166
827.741	5166
827.88	5220
828.02	5075
828.159	5280
828.298	5299
828.437	5383
828.577	5280
828.716	5501
828.855	5280
828.994	5155
829.134	5162
829.273	5181
829.412	5109
829.551	5159
829.69	5155
829.829	5220
829.968	5326
830.107	5258
830.246	5292
830.385	5178
830.524	5071
830.663	5029
830.802	4953
830.941	4801
831.08	4854
831.219	4961
831.357	4965
831.496	5151
831.635	4919
831.774	4847
831.913	4877
832.051	4763
832.19	4714
832.329	4809
832.467	4694
832.606	4687
832.744	4710
832.883	4691
833.022	4687
833.16	4782
833.299	4812
833.437	4828
833.576	4809
833.714	4816
833.852	4889
833.991	4831
834.129	4942
834.267	4946
834.406	4919
834.544	4965
834.682	5006
834.821	4953
834.959	5143
835.097	4991
835.235	5124
835.373	5075
835.511	5117
835.65	4999
835.788	4995
835.926	4919
836.064	4881
836.202	4892
836.34	5181
836.478	5208
836.615	5094
836.753	5204
836.891	5269
837.029	5284
837.167	5166
837.305	5181
837.443	5162
837.58	5083
837.718	5254
837.856	5166
837.993	5132
838.131	5231
838.269	5208
838.406	5220
838.544	5147
838.681	5003
838.819	4984
838.956	4877
839.094	4911
839.231	4999
839.369	5075
839.506	5417
839.643	5250
839.781	5033
839.918	4980
840.055	5109
840.193	5090
840.33	5140
840.467	5166
840.604	5193
840.742	5448
840.879	5079
841.016	5079
841.153	5162
841.29	5387
841.427	5311
841.564	5334
841.701	5296
841.838	5284
841.975	5220
842.112	5273
842.249	5113
842.385	5048
842.522	5341
842.659	5132
842.796	5124
842.933	5178
843.069	5151
843.206	5159
843.343	5269
843.479	5147
843.616	5235
843.752	5018
843.889	4980
844.025	5193
844.162	5037
844.298	5147
844.435	5064
844.571	5010
844.708	5246
844.844	5345
844.98	5307
845.117	5258
845.253	5128
845.389	5056
845.525	5128
845.661	5094
845.798	5071
845.934	5151
846.07	5022
846.206	5162
846.342	5284
846.478	5201
846.614	5025
846.75	4938
846.886	4927
847.022	5094
847.158	4991
847.294	5083
847.429	5067
847.565	5048
847.701	5265
847.837	4820
847.972	4831
848.108	4953
848.244	4953
848.379	4755
848.515	4721
848.65	4683
848.786	4755
848.921	4763
849.057	4892
849.192	4892
849.328	4831
849.463	4839
849.598	4755
849.734	4740
849.869	4691
850.004	4607
850.14	4668
850.275	4580
850.41	4489
850.545	4531
850.68	4546
850.815	4630
850.95	4630
851.085	4812
851.22	4740
851.355	4668
851.49	4653
851.625	4672
851.76	4615
851.895	4550
852.03	4561
852.165	4649
852.299	4710
852.434	4782
852.569	4763
852.703	4748
852.838	4812
852.973	4843
853.107	4930
853.242	4710
853.376	4672
853.511	4519
853.645	4596
853.78	4744
853.914	4710
854.048	4630
854.183	4577
854.317	4668
854.451	4831
854.585	4634
854.72	4641
854.854	4805
854.988	4641
855.122	4630
855.256	4523
855.39	4660
855.524	4763
855.658	4755
855.792	4710
855.926	4698
856.06	4774
856.194	4752
856.327	4752
856.461	4599
856.595	4634
856.729	4618
856.862	4744
856.996	4672
857.13	4725
857.263	4759
857.397	4850
857.53	4660
857.664	4771
857.797	4793
857.931	4767
858.064	4679
858.197	4763
858.331	4607
858.464	4607
858.597	4516
858.731	4618
858.864	4649
858.997	4569
859.13	4626
859.263	4641
859.396	4710
859.529	4615
859.662	4561
859.795	4542
859.928	4584
860.061	4767
860.194	4763
860.327	4569
860.46	4512
860.592	4672
860.725	4714
860.858	4733
860.99	4561
861.123	4523
861.256	4531
861.388	4611
861.521	5128
861.653	4497
861.786	4421
861.918	4474
862.05	4500
862.183	4561
862.315	4535
862.447	4653
862.58	4584
862.712	4363
862.844	4295
862.976	4497
863.108	4489
863.24	4725
863.372	4276
863.504	4436
863.636	4394
863.768	4443
863.9	4390
864.032	4409
864.164	4379
864.296	4474
864.428	4516
864.559	4577
864.691	4546
864.823	4497
864.954	4470
865.086	4451
865.217	4512
865.349	4383
865.48	4417
865.612	4470
865.743	4599
865.875	4424
866.006	4424
866.137	4474
866.269	4447
866.4	4462
866.531	4405
866.662	4318
866.793	4402
866.924	4390
867.055	4478
867.186	4447
867.317	4402
867.448	4352
867.579	4356
867.71	4394
867.841	4390
867.972	4474
868.103	4466
868.233	4462
868.364	4409
868.495	4417
868.625	4584
868.756	4778
868.886	4550
869.017	4603
869.147	4733
869.278	4786
869.408	4641
869.539	4656
869.669	4679
869.799	4637
869.929	4702
870.06	4721
870.19	4915
870.32	4930
870.45	4942
870.58	5022
870.71	5136
870.84	5113
870.97	4934
871.1	4923
871.23	5136
871.36	5124
871.489	5045
871.619	5067
871.749	5029
871.879	5075
872.008	5181
872.138	5079
872.267	4949
872.397	4809
872.526	4809
872.656	4702
872.785	4782
872.915	4934
873.044	4980
873.173	4927
873.303	4976
873.432	4946
873.561	4976
873.69	4854
873.819	4824
873.948	4877
874.077	4778
874.206	4763
874.335	4828
874.464	4919
874.593	5060
874.722	4885
874.851	5075
874.979	5060
875.108	5003
875.237	4934
875.365	4854
875.494	4885
875.623	4938
875.751	4767
875.88	4923
876.008	4980
876.136	4987
876.265	5223
876.393	5318
876.521	5273
876.65	5185
876.778	5181
876.906	5067
877.034	4965
877.162	5018
877.29	5006
877.418	4999
877.546	5025
877.674	5006
877.802	5052
877.93	5056
878.058	4877
878.185	4870
878.313	4927
878.441	4965
878.568	4816
878.696	4885
878.824	4957
878.951	4965
879.079	5128
879.206	5315
879.333	5136
879.461	4965
879.588	5018
879.715	5102
879.842	5231
879.97	5003
880.097	4763
880.224	4782
880.351	4816
880.478	4801
880.605	4801
880.732	4835
880.859	5075
880.986	4858
881.112	4892
881.239	4702
881.366	4694
881.493	4596
881.619	4577
881.746	4599
881.872	4645
881.999	4596
882.125	4694
882.252	4782
882.378	4870
882.505	4980
882.631	4839
882.757	4641
882.883	4767
883.01	4736
883.136	4691
883.262	4634
883.388	4630
883.514	4839
883.64	4816
883.766	4786
883.892	4645
884.018	4740
884.143	4870
884.269	4949
884.395	4710
884.52	4622
884.646	4569
884.772	4596
884.897	4531
885.023	4603
885.148	4759
885.274	4885
885.399	4790
885.524	4755
885.65	4656
885.775	4771
885.9	4694
886.025	4904
886.15	4721
886.275	4706
886.4	4649
886.525	4687
886.65	4717
886.775	4691
886.9	4889
887.025	5022
887.149	4797
887.274	4603
887.399	4561
887.523	4615
887.648	4618
887.773	4588
887.897	4740
888.021	4767
888.146	4653
888.27	4805
888.395	4835
888.519	4786
888.643	4828
888.767	4809
888.891	4683
889.015	4672
889.139	4675
889.263	4588
889.387	4736
889.511	4843
889.635	4774
889.759	4687
889.883	4656
890.006	4740
890.13	4797
890.254	4577
890.377	4675
890.501	4558
890.624	4523
890.748	4653
890.871	4546
890.995	4478
891.118	4337
891.241	4535
891.364	4519
891.488	4668
891.611	4535
891.734	4596
891.857	4584
891.98	4535
892.103	4698
892.226	4592
892.349	4485
892.471	4428
892.594	4558
892.717	4592
892.839	4592
892.962	4607
893.085	4641
893.207	4607
893.33	4462
893.452	4470
893.575	4656
893.697	4577
893.819	4767
893.941	4839
894.064	4774
894.186	4584
894.308	4561
894.43	4736
894.552	4839
894.674	4748
894.796	4538
894.918	4637
895.04	4580
895.161	4694
895.283	4675
895.405	4561
895.526	4603
895.648	4683
895.769	4679
895.891	4698
896.012	4687
896.134	4714
896.255	4668
896.376	4668
896.498	4630
896.619	4664
896.74	4622
896.861	4664
896.982	4866
897.103	5083
897.224	4866
897.345	4771
897.466	4664
897.587	4733
897.708	4889
897.828	4733
897.949	4694
898.07	4542
898.19	4641
898.311	4854
898.431	4615
898.552	4721
898.672	4835
898.792	4793
898.913	4714
899.033	4641
899.153	4519
899.273	4443
899.393	4531
899.513	4497
899.633	4531
899.753	4538
899.873	4489
899.993	4584
900.113	4497
900.232	4558
900.352	4523
900.472	4466
900.591	4443
900.711	4535
900.83	4440
900.95	4626
901.069	4634
901.189	4542
901.308	4333
901.427	4303
901.546	4371
901.665	4421
901.784	4546
901.904	4390
902.023	4333
902.141	4234
902.26	4131
902.379	4322
902.498	4253
902.617	4162
902.735	4379
902.854	4390
902.973	4322
903.091	4188
903.21	4211
903.328	4322
903.446	4284
903.565	4249
903.683	4329
903.801	4284
903.919	4375
904.038	4428
904.156	4299
904.274	4405
904.392	4413
904.51	4443
904.627	4493
904.745	4546
904.863	4630
904.981	4383
905.098	4310
905.216	4367
905.334	4421
905.451	4417
905.569	4436
905.686	4508
905.803	4519
905.921	4405
906.038	4565
906.155	4424
906.272	4440
906.389	4432
906.506	4348
906.623	4363
906.74	4363
906.857	4318
906.974	4390
907.091	4607
907.208	4698
907.324	4527
907.441	4519
907.557	4360
907.674	4322
907.79	4356
907.907	4402
908.023	4470
908.139	4493
908.256	4440
908.372	4459
908.488	4443
908.604	4363
908.72	4318
908.836	4413
908.952	4394
909.068	4451
909.184	4611
909.3	4470
909.415	4584
909.531	4569
909.647	4322
909.762	4405
909.878	4341
909.993	4417
910.108	4390
910.224	4402
910.339	4485
910.454	4383
910.57	4325
910.685	4306
910.8	4573
910.915	4584
911.03	4523
911.145	4299
911.259	4310
911.374	4356
911.489	4329
911.604	4280
911.718	4131
911.833	4188
911.947	4112
912.062	4032
912.176	4211
912.291	4234
912.405	4227
912.519	4481
912.633	4489
912.748	4341
912.862	4284
912.976	4185
913.09	4059
913.204	4166
913.318	4280
913.431	4344
913.545	4322
913.659	4394
913.772	4405
913.886	4230
914	4204
914.113	4375
914.226	4451
914.34	4375
914.453	4215
914.566	4402
914.68	4265
914.793	4284
914.906	4188
915.019	4177
915.132	4074
915.245	4185
915.358	4196
915.47	4230
915.583	4249
915.696	4295
915.809	4379
915.921	4390
916.034	4234
916.146	4280
916.259	4268
916.371	4379
916.483	4379
916.595	4211
916.708	4306
916.82	4329
916.932	4337
917.044	4322
917.156	4348
917.268	4257
917.38	4238
917.491	4242
917.603	4356
917.715	4432
917.826	4459
917.938	4352
918.049	4211
918.161	4398
918.272	4512
918.384	4512
918.495	4474
918.606	4287
918.717	4238
918.828	4325
918.939	4405
919.05	4295
919.161	4329
919.272	4120
919.383	4238
919.494	4402
919.604	4641
919.715	4436
919.826	4314
919.936	4375
920.047	4512
920.157	4538
920.267	4687
920.378	4538
920.488	4504
920.598	4729
920.708	4889
920.818	4729
920.928	4763
921.038	4991
921.148	4927
921.258	4603
921.368	4565
921.477	4470
921.587	4462
921.697	4371
921.806	4569
921.916	4459
922.025	4253
922.134	4249
922.244	4181
922.353	4329
922.462	4185
922.571	4128
922.68	3979
922.789	3953
922.898	4040
923.007	3987
923.116	4044
923.224	4067
923.333	4040
923.442	3987
923.55	3972
923.659	3991
923.767	4071
923.876	3987
923.984	4078
924.092	3968
924.201	4040
924.309	4078
924.417	4147
924.525	4040
924.633	4101
924.741	4999
924.849	3911
924.956	4082
925.064	3911
925.172	3903
925.279	3972
925.387	4093
925.494	4093
925.602	4242
925.709	4166
925.816	4040
925.924	4135
926.031	4204
926.138	4166
926.245	4200
926.352	4105
926.459	4242
926.566	4344
926.673	4196
926.779	4116
926.886	4101
926.993	3975
927.099	3975
927.206	3911
927.312	3918
927.419	4036
927.525	4074
927.631	4071
927.737	3972
927.843	3968
927.95	3827
928.056	3956
928.162	4013
928.267	4013
928.373	4565
928.479	4124
928.585	3873
928.69	4029
928.796	4086
928.901	4006
929.007	3835
929.112	4025
929.218	3964
929.323	3987
929.428	3975
929.533	4143
929.638	3918
929.743	3987
929.848	4036
929.953	3991
930.058	3892
930.163	3778
930.267	3816
930.372	3949
930.477	3816
930.581	4105
930.685	3930
930.79	3846
930.894	3850
930.998	3831
931.103	4067
931.207	3682
931.311	3720
931.415	3713
931.519	3507
931.623	3572
