Data from test_V78500241_1255.txt Node
Date: Fri Mar 25 16:57:43 CST 2022
User: usil
Spectrometer: V785-0024
Trigger mode: 0
Integration Time (sec): 4.000000E-1
Scans to average: 1
Nonlinearity correction enabled: false
Boxcar width: 0
Storing dark spectrum: false
XAxis mode: Wavelengths
Number of Pixels in Spectrum: 1024
>>>>>Begin Spectral Data<<<<<
801.071	8084
801.214	8031
801.356	7963
801.499	7868
801.641	7845
801.783	7830
801.926	7989
802.068	7902
802.211	7989
802.353	7894
802.496	7845
802.638	7833
802.78	8001
802.923	7970
803.065	7951
803.208	7841
803.35	7970
803.492	8107
803.635	8138
803.777	8043
803.919	8142
804.061	8549
804.204	8195
804.346	8111
804.488	7997
804.63	8115
804.773	8012
804.915	8111
805.057	8298
805.199	8199
805.341	8214
805.483	8317
805.626	8221
805.768	8149
805.91	8259
806.052	8237
806.194	8161
806.336	8244
806.478	8027
806.62	8039
806.762	8088
806.904	8339
807.046	8530
807.188	8385
807.33	8301
807.472	8320
807.614	8123
807.756	8134
807.898	7997
808.04	7917
808.182	7906
808.324	7913
808.465	7947
808.607	8054
808.749	8187
808.891	8199
809.033	8271
809.174	8164
809.316	8027
809.458	8027
809.6	8031
809.741	8065
809.883	8031
810.025	8088
810.166	8115
810.308	8088
810.45	8031
810.591	7871
810.733	7738
810.875	7731
811.016	7590
811.158	7518
811.299	7613
811.441	7719
811.582	7799
811.724	7620
811.865	7552
812.007	7582
812.148	7586
812.29	7658
812.431	7814
812.573	7894
812.714	8020
812.855	8081
812.997	8157
813.138	8328
813.279	8210
813.421	8119
813.562	7974
813.703	7814
813.845	7765
813.986	7438
814.127	7316
814.268	7206
814.41	7263
814.551	7149
814.692	7259
814.833	7133
814.974	7118
815.115	7133
815.256	7012
815.397	6920
815.539	6928
815.68	6818
815.821	6806
815.962	6863
816.103	6844
816.244	6753
816.385	6639
816.526	6608
816.666	6498
816.807	6338
816.948	6490
817.089	6467
817.23	6403
817.371	6445
817.512	6380
817.653	6441
817.793	6353
817.934	6426
818.075	6471
818.216	6426
818.356	6426
818.497	6194
818.638	6117
818.778	6171
818.919	6155
819.06	6129
819.2	6331
819.341	6323
819.481	6361
819.622	6532
819.762	6768
819.903	6734
820.043	6669
820.184	6593
820.324	6570
820.465	6703
820.605	6700
820.746	6650
820.886	6540
821.026	6703
821.167	6696
821.307	6764
821.447	6764
821.588	6646
821.728	6506
821.868	6517
822.008	6289
822.149	6357
822.289	6353
822.429	6155
822.569	6133
822.709	6129
822.849	5912
822.99	5908
823.13	5889
823.27	5912
823.41	5745
823.55	5783
823.69	5798
823.83	5775
823.97	5638
824.11	5486
824.25	5505
824.389	5551
824.529	5623
824.669	5505
824.809	5653
824.949	5699
825.089	5623
825.228	5524
825.368	5417
825.508	5303
825.648	5395
825.787	5406
825.927	5357
826.067	5303
826.206	5288
826.346	5387
826.485	5372
826.625	5391
826.765	5535
826.904	5490
827.044	5269
827.183	5223
827.323	5147
827.462	5216
827.601	5174
827.741	5220
827.88	5216
828.02	5136
828.159	5204
828.298	5277
828.437	5353
828.577	5284
828.716	5520
828.855	5311
828.994	5155
829.134	5121
829.273	5166
829.412	5204
829.551	5159
829.69	5098
829.829	5178
829.968	5395
830.107	5258
830.246	5235
830.385	5181
830.524	5083
830.663	5102
830.802	5014
830.941	4904
831.08	4885
831.219	5003
831.357	4942
831.496	5189
831.635	4923
831.774	4858
831.913	4850
832.051	4774
832.19	4774
832.329	4831
832.467	4702
832.606	4664
832.744	4717
832.883	4691
833.022	4778
833.16	4748
833.299	4801
833.437	4793
833.576	4812
833.714	4847
833.852	4881
833.991	4908
834.129	4961
834.267	4946
834.406	4953
834.544	4980
834.682	4968
834.821	4972
834.959	5132
835.097	5052
835.235	5162
835.373	5060
835.511	5124
835.65	5029
835.788	5067
835.926	4927
836.064	4904
836.202	4923
836.34	5140
836.478	5197
836.615	5132
836.753	5201
836.891	5280
837.029	5277
837.167	5174
837.305	5201
837.443	5170
837.58	5136
837.718	5235
837.856	5220
837.993	5197
838.131	5231
838.269	5231
838.406	5185
838.544	5151
838.681	5025
838.819	5029
838.956	4885
839.094	4915
839.231	4946
839.369	5102
839.506	5436
839.643	5353
839.781	5060
839.918	5037
840.055	5117
840.193	5083
840.33	5109
840.467	5162
840.604	5204
840.742	5436
840.879	5048
841.016	5064
841.153	5143
841.29	5307
841.427	5296
841.564	5280
841.701	5376
841.838	5265
841.975	5223
842.112	5269
842.249	5159
842.385	5067
842.522	5322
842.659	5151
842.796	5132
842.933	5227
843.069	5170
843.206	5117
843.343	5303
843.479	5193
843.616	5284
843.752	4987
843.889	4991
844.025	5258
844.162	4972
844.298	5193
844.435	5052
844.571	5029
844.708	5204
844.844	5277
844.98	5318
845.117	5261
845.253	5105
845.389	5048
845.525	5140
845.661	5132
845.798	5086
845.934	5136
846.07	5048
846.206	5204
846.342	5277
846.478	5185
846.614	5048
846.75	5060
846.886	4976
847.022	5162
847.158	5048
847.294	5098
847.429	5098
847.565	5048
847.701	5318
847.837	4847
847.972	4812
848.108	4942
848.244	4934
848.379	4816
848.515	4725
848.65	4683
848.786	4771
848.921	4755
849.057	4862
849.192	4843
849.328	4824
849.463	4831
849.598	4805
849.734	4763
849.869	4683
850.004	4660
850.14	4637
850.275	4615
850.41	4554
850.545	4588
850.68	4573
850.815	4630
850.95	4603
851.085	4824
851.22	4687
851.355	4607
851.49	4649
851.625	4634
851.76	4645
851.895	4573
852.03	4512
852.165	4618
852.299	4714
852.434	4782
852.569	4721
852.703	4733
852.838	4873
852.973	4930
853.107	4900
853.242	4740
853.376	4649
853.511	4592
853.645	4622
853.78	4809
853.914	4679
854.048	4675
854.183	4603
854.317	4660
854.451	4854
854.585	4668
854.72	4649
854.854	4748
854.988	4607
855.122	4584
855.256	4512
855.39	4630
855.524	4774
855.658	4653
855.792	4714
855.926	4729
856.06	4748
856.194	4828
856.327	4664
856.461	4607
856.595	4626
856.729	4626
856.862	4748
856.996	4660
857.13	4714
857.263	4725
857.397	4778
857.53	4607
857.664	4706
857.797	4748
857.931	4759
858.064	4672
858.197	4710
858.331	4660
858.464	4592
858.597	4535
858.731	4599
858.864	4603
858.997	4542
859.13	4656
859.263	4645
859.396	4721
859.529	4580
859.662	4535
859.795	4538
859.928	4653
860.061	4721
860.194	4748
860.327	4607
860.46	4603
860.592	4687
860.725	4660
860.858	4706
860.99	4535
861.123	4466
861.256	4481
861.388	4622
861.521	5284
861.653	4466
861.786	4481
861.918	4455
862.05	4519
862.183	4550
862.315	4622
862.447	4618
862.58	4546
862.712	4367
862.844	4325
862.976	4462
863.108	4443
863.24	4908
863.372	4322
863.504	4398
863.636	4413
863.768	4497
863.9	4455
864.032	4390
864.164	4394
864.296	4432
864.428	4531
864.559	4573
864.691	4497
864.823	4523
864.954	4436
865.086	4535
865.217	4516
865.349	4394
865.48	4508
865.612	4493
865.743	4592
865.875	4470
866.006	4386
866.137	4443
866.269	4447
866.4	4481
866.531	4383
866.662	4386
866.793	4409
866.924	4409
867.055	4436
867.186	4455
867.317	4436
867.448	4402
867.579	4413
867.71	4440
867.841	4341
867.972	4470
868.103	4451
868.233	4432
868.364	4474
868.495	4474
868.625	4645
868.756	4755
868.886	4565
869.017	4558
869.147	4740
869.278	4778
869.408	4660
869.539	4584
869.669	4698
869.799	4656
869.929	4748
870.06	4714
870.19	4919
870.32	4923
870.45	4930
870.58	5025
870.71	5090
870.84	5094
870.97	4949
871.1	4908
871.23	5136
871.36	5113
871.489	5090
871.619	5048
871.749	5083
871.879	5090
872.008	5189
872.138	5045
872.267	4915
872.397	4820
872.526	4778
872.656	4752
872.785	4793
872.915	4919
873.044	5052
873.173	4934
873.303	4942
873.432	4923
873.561	4946
873.69	4862
873.819	4858
873.948	4915
874.077	4816
874.206	4721
874.335	4736
874.464	4900
874.593	4965
874.722	4949
874.851	5102
874.979	5010
875.108	5018
875.237	4892
875.365	4858
875.494	4889
875.623	4946
875.751	4854
875.88	4858
876.008	4972
876.136	5052
876.265	5143
876.393	5315
876.521	5189
876.65	5212
876.778	5189
876.906	5056
877.034	5003
877.162	5045
877.29	5006
877.418	5052
877.546	5037
877.674	5060
877.802	5014
877.93	4972
878.058	4915
878.185	4858
878.313	4923
878.441	4949
878.568	4809
878.696	4843
878.824	4927
878.951	4991
879.079	5128
879.206	5239
879.333	5079
879.461	4968
879.588	4953
879.715	5090
879.842	5178
879.97	5006
880.097	4790
880.224	4733
880.351	4805
880.478	4816
880.605	4805
880.732	4812
880.859	5067
880.986	4911
881.112	4881
881.239	4759
881.366	4656
881.493	4546
881.619	4603
881.746	4664
881.872	4637
881.999	4645
882.125	4683
882.252	4748
882.378	4771
882.505	5025
882.631	4774
882.757	4679
882.883	4752
883.01	4733
883.136	4656
883.262	4611
883.388	4592
883.514	4824
883.64	4847
883.766	4820
883.892	4683
884.018	4672
884.143	4904
884.269	4984
884.395	4660
884.52	4653
884.646	4630
884.772	4592
884.897	4481
885.023	4691
885.148	4733
885.274	4881
885.399	4778
885.524	4755
885.65	4675
885.775	4778
885.9	4729
886.025	4850
886.15	4801
886.275	4717
886.4	4634
886.525	4736
886.65	4714
886.775	4717
886.9	4873
887.025	5045
887.149	4801
887.274	4660
887.399	4626
887.523	4588
887.648	4535
887.773	4535
887.897	4755
888.021	4771
888.146	4656
888.27	4816
888.395	4858
888.519	4786
888.643	4778
888.767	4812
888.891	4668
889.015	4558
889.139	4649
889.263	4645
889.387	4759
889.511	4786
889.635	4759
889.759	4622
889.883	4615
890.006	4710
890.13	4774
890.254	4580
890.377	4706
890.501	4573
890.624	4546
890.748	4599
890.871	4546
890.995	4432
891.118	4390
891.241	4462
891.364	4504
891.488	4683
891.611	4531
891.734	4565
891.857	4596
891.98	4531
892.103	4615
892.226	4618
892.349	4558
892.471	4409
892.594	4592
892.717	4584
892.839	4550
892.962	4554
893.085	4649
893.207	4599
893.33	4459
893.452	4512
893.575	4675
893.697	4554
893.819	4774
893.941	4812
894.064	4729
894.186	4565
894.308	4577
894.43	4752
894.552	4774
894.674	4767
894.796	4580
894.918	4565
895.04	4577
895.161	4736
895.283	4698
895.405	4538
895.526	4634
895.648	4653
895.769	4694
895.891	4717
896.012	4698
896.134	4706
896.255	4641
896.376	4588
896.498	4596
896.619	4679
896.74	4580
896.861	4672
896.982	4953
897.103	5075
897.224	4824
897.345	4774
897.466	4622
897.587	4710
897.708	4870
897.828	4767
897.949	4687
898.07	4535
898.19	4607
898.311	4820
898.431	4694
898.552	4733
898.672	4759
898.792	4744
898.913	4748
899.033	4558
899.153	4500
899.273	4455
899.393	4447
899.513	4584
899.633	4531
899.753	4577
899.873	4466
899.993	4523
900.113	4527
900.232	4599
900.352	4592
900.472	4516
900.591	4390
900.711	4478
900.83	4459
900.95	4611
901.069	4668
901.189	4538
901.308	4383
901.427	4337
901.546	4386
901.665	4504
901.784	4455
901.904	4363
902.023	4310
902.141	4188
902.26	4093
902.379	4344
902.498	4227
902.617	4223
902.735	4375
902.854	4375
902.973	4337
903.091	4215
903.21	4215
903.328	4325
903.446	4261
903.565	4272
903.683	4310
903.801	4272
903.919	4352
904.038	4436
904.156	4310
904.274	4432
904.392	4394
904.51	4436
904.627	4440
904.745	4607
904.863	4649
904.981	4390
905.098	4268
905.216	4329
905.334	4398
905.451	4451
905.569	4390
905.686	4531
905.803	4573
905.921	4386
906.038	4512
906.155	4497
906.272	4379
906.389	4497
906.506	4367
906.623	4386
906.74	4409
906.857	4314
906.974	4363
907.091	4569
907.208	4660
907.324	4569
907.441	4550
907.557	4337
907.674	4337
907.79	4363
907.907	4363
908.023	4428
908.139	4413
908.256	4451
908.372	4424
908.488	4489
908.604	4337
908.72	4314
908.836	4352
908.952	4367
909.068	4394
909.184	4622
909.3	4497
909.415	4565
909.531	4550
909.647	4379
909.762	4386
909.878	4356
909.993	4390
910.108	4371
910.224	4413
910.339	4459
910.454	4413
910.57	4303
910.685	4344
910.8	4649
910.915	4603
911.03	4512
911.145	4314
911.259	4318
911.374	4390
911.489	4318
911.604	4287
911.718	4177
911.833	4215
911.947	4090
912.062	4044
912.176	4204
912.291	4246
912.405	4261
912.519	4417
912.633	4478
912.748	4356
912.862	4314
912.976	4230
913.09	4105
913.204	4158
913.318	4272
913.431	4394
913.545	4352
913.659	4417
913.772	4344
913.886	4265
914	4272
914.113	4360
914.226	4432
914.34	4379
914.453	4223
914.566	4398
914.68	4265
914.793	4329
914.906	4158
915.019	4120
915.132	4040
915.245	4204
915.358	4265
915.47	4230
915.583	4268
915.696	4287
915.809	4352
915.921	4390
916.034	4287
916.146	4223
916.259	4268
916.371	4295
916.483	4352
916.595	4242
916.708	4272
916.82	4306
916.932	4314
917.044	4306
917.156	4352
917.268	4234
917.38	4310
917.491	4306
917.603	4344
917.715	4375
917.826	4443
917.938	4344
918.049	4234
918.161	4363
918.272	4508
918.384	4554
918.495	4443
918.606	4261
918.717	4234
918.828	4287
918.939	4363
919.05	4230
919.161	4310
919.272	4116
919.383	4196
919.494	4459
919.604	4668
919.715	4455
919.826	4322
919.936	4440
920.047	4535
920.157	4497
920.267	4710
920.378	4584
920.488	4497
920.598	4675
920.708	4904
920.818	4721
920.928	4733
921.038	4919
921.148	4930
921.258	4592
921.368	4554
921.477	4443
921.587	4436
921.697	4375
921.806	4580
921.916	4383
922.025	4234
922.134	4257
922.244	4234
922.353	4291
922.462	4185
922.571	4090
922.68	3975
922.789	3983
922.898	4048
923.007	3987
923.116	4105
923.224	4010
923.333	4074
923.442	3987
923.55	3964
923.659	4013
923.767	4139
923.876	3979
923.984	4139
924.092	3983
924.201	4124
924.309	4059
924.417	4135
924.525	4067
924.633	4109
924.741	5006
924.849	3934
924.956	4124
925.064	3956
925.172	3937
925.279	3960
925.387	4097
925.494	4017
925.602	4181
925.709	4173
925.816	4017
925.924	4093
926.031	4219
926.138	4188
926.245	4227
926.352	4078
926.459	4291
926.566	4329
926.673	4135
926.779	4059
926.886	4090
926.993	3960
927.099	4010
927.206	3907
927.312	3911
927.419	4074
927.525	4025
927.631	4063
927.737	3983
927.843	3922
927.95	3819
928.056	3949
928.162	3987
928.267	4086
928.373	4618
928.479	4097
928.585	3880
928.69	4025
928.796	4109
928.901	3922
929.007	3827
929.112	4006
929.218	3934
929.323	3907
929.428	3934
929.533	4116
929.638	3922
929.743	3930
929.848	4040
929.953	4017
930.058	3930
930.163	3808
930.267	3835
930.372	3960
930.477	3835
930.581	4109
930.685	3884
930.79	3835
930.894	3888
930.998	3854
931.103	4032
931.207	3675
931.311	3728
931.415	3682
931.519	3519
931.623	3545
