Data from test_V78500241_852.txt Node
Date: Fri Mar 25 16:54:55 CST 2022
User: usil
Spectrometer: V785-0024
Trigger mode: 0
Integration Time (sec): 4.000000E-1
Scans to average: 1
Nonlinearity correction enabled: false
Boxcar width: 0
Storing dark spectrum: false
XAxis mode: Wavelengths
Number of Pixels in Spectrum: 1024
>>>>>Begin Spectral Data<<<<<
801.071	8024
801.214	7997
801.356	7909
801.499	7871
801.641	7784
801.783	7845
801.926	7963
802.068	7978
802.211	7868
802.353	7913
802.496	7830
802.638	7879
802.78	7906
802.923	7986
803.065	7864
803.208	7849
803.35	8027
803.492	8096
803.635	8153
803.777	8031
803.919	8206
804.061	8434
804.204	8145
804.346	7959
804.488	7947
804.63	8157
804.773	8054
804.915	8043
805.057	8279
805.199	8130
805.341	8206
805.483	8202
805.626	8191
805.768	8119
805.91	8145
806.052	8187
806.194	8050
806.336	8290
806.478	8134
806.62	8081
806.762	8183
806.904	8263
807.046	8480
807.188	8282
807.33	8275
807.472	8355
807.614	8126
807.756	8111
807.898	7970
808.04	7898
808.182	7944
808.324	7811
808.465	7925
808.607	7997
808.749	8119
808.891	8259
809.033	8225
809.174	8240
809.316	7986
809.458	7947
809.6	7982
809.741	8050
809.883	8024
810.025	8126
810.166	7974
810.308	7993
810.45	7963
810.591	7921
810.733	7750
810.875	7685
811.016	7506
811.158	7464
811.299	7586
811.441	7708
811.582	7738
811.724	7548
811.865	7552
812.007	7590
812.148	7548
812.29	7540
812.431	7727
812.573	7883
812.714	7890
812.855	8138
812.997	8225
813.138	8259
813.279	8115
813.421	8069
813.562	8035
813.703	7856
813.845	7704
813.986	7426
814.127	7285
814.268	7179
814.41	7175
814.551	7133
814.692	7072
814.833	7050
814.974	7015
815.115	7110
815.256	6951
815.397	6939
815.539	6966
815.68	6798
815.821	6787
815.962	6859
816.103	6852
816.244	6688
816.385	6631
816.526	6608
816.666	6494
816.807	6251
816.948	6353
817.089	6460
817.23	6460
817.371	6361
817.512	6372
817.653	6399
817.793	6372
817.934	6353
818.075	6467
818.216	6433
818.356	6380
818.497	6197
818.638	6133
818.778	6106
818.919	6152
819.06	6030
819.2	6281
819.341	6327
819.481	6357
819.622	6479
819.762	6745
819.903	6669
820.043	6559
820.184	6517
820.324	6559
820.465	6673
820.605	6627
820.746	6620
820.886	6513
821.026	6635
821.167	6662
821.307	6768
821.447	6806
821.588	6703
821.728	6551
821.868	6498
822.008	6342
822.149	6357
822.289	6319
822.429	6152
822.569	6095
822.709	6083
822.849	5931
822.99	5897
823.13	5954
823.27	5927
823.41	5821
823.55	5828
823.69	5726
823.83	5783
823.97	5684
824.11	5524
824.25	5535
824.389	5596
824.529	5634
824.669	5524
824.809	5676
824.949	5657
825.089	5600
825.228	5551
825.368	5433
825.508	5326
825.648	5368
825.787	5391
825.927	5414
826.067	5326
826.206	5364
826.346	5444
826.485	5391
826.625	5436
826.765	5577
826.904	5509
827.044	5303
827.183	5223
827.323	5181
827.462	5299
827.601	5220
827.741	5170
827.88	5231
828.02	5136
828.159	5261
828.298	5277
828.437	5391
828.577	5284
828.716	5539
828.855	5349
828.994	5197
829.134	5189
829.273	5246
829.412	5185
829.551	5159
829.69	5189
829.829	5258
829.968	5379
830.107	5258
830.246	5288
830.385	5208
830.524	5181
830.663	5140
830.802	4972
830.941	4892
831.08	4908
831.219	5071
831.357	5010
831.496	5185
831.635	4949
831.774	4885
831.913	4839
832.051	4797
832.19	4752
832.329	4934
832.467	4714
832.606	4660
832.744	4759
832.883	4721
833.022	4752
833.16	4843
833.299	4809
833.437	4812
833.576	4820
833.714	4904
833.852	4892
833.991	4873
834.129	4984
834.267	4968
834.406	4984
834.544	5003
834.682	4938
834.821	5014
834.959	5162
835.097	5010
835.235	5204
835.373	5128
835.511	5124
835.65	5052
835.788	5064
835.926	4908
836.064	4927
836.202	4908
836.34	5185
836.478	5212
836.615	5140
836.753	5250
836.891	5311
837.029	5299
837.167	5254
837.305	5136
837.443	5132
837.58	5113
837.718	5239
837.856	5220
837.993	5204
838.131	5265
838.269	5204
838.406	5235
838.544	5235
838.681	5025
838.819	5052
838.956	4862
839.094	4930
839.231	5025
839.369	5143
839.506	5467
839.643	5341
839.781	5060
839.918	5029
840.055	5151
840.193	5132
840.33	5117
840.467	5117
840.604	5216
840.742	5452
840.879	5117
841.016	5083
841.153	5174
841.29	5421
841.427	5414
841.564	5357
841.701	5459
841.838	5284
841.975	5284
842.112	5250
842.249	5174
842.385	5140
842.522	5353
842.659	5212
842.796	5132
842.933	5220
843.069	5181
843.206	5159
843.343	5326
843.479	5223
843.616	5284
843.752	5064
843.889	5041
844.025	5273
844.162	5056
844.298	5246
844.435	5098
844.571	5105
844.708	5250
844.844	5379
844.98	5364
845.117	5307
845.253	5170
845.389	5102
845.525	5197
845.661	5197
845.798	5094
845.934	5159
846.07	5124
846.206	5250
846.342	5258
846.478	5162
846.614	5041
846.75	4991
846.886	4972
847.022	5204
847.158	5094
847.294	5098
847.429	5136
847.565	5060
847.701	5349
847.837	4858
847.972	4809
848.108	4968
848.244	4949
848.379	4790
848.515	4767
848.65	4729
848.786	4736
848.921	4801
849.057	4870
849.192	4927
849.328	4816
849.463	4862
849.598	4835
849.734	4793
849.869	4672
850.004	4660
850.14	4717
850.275	4664
850.41	4569
850.545	4607
850.68	4626
850.815	4694
850.95	4660
851.085	4816
851.22	4752
851.355	4679
851.49	4599
851.625	4675
851.76	4649
851.895	4546
852.03	4580
852.165	4660
852.299	4721
852.434	4828
852.569	4828
852.703	4767
852.838	4831
852.973	4980
853.107	4995
853.242	4740
853.376	4653
853.511	4546
853.645	4641
853.78	4835
853.914	4672
854.048	4691
854.183	4653
854.317	4706
854.451	4870
854.585	4656
854.72	4683
854.854	4797
854.988	4599
855.122	4664
855.256	4538
855.39	4691
855.524	4755
855.658	4752
855.792	4706
855.926	4729
856.06	4733
856.194	4824
856.327	4748
856.461	4607
856.595	4637
856.729	4626
856.862	4774
856.996	4706
857.13	4733
857.263	4820
857.397	4850
857.53	4672
857.664	4752
857.797	4816
857.931	4812
858.064	4706
858.197	4763
858.331	4698
858.464	4580
858.597	4516
858.731	4634
858.864	4664
858.997	4580
859.13	4729
859.263	4694
859.396	4774
859.529	4554
859.662	4561
859.795	4596
859.928	4649
860.061	4767
860.194	4759
860.327	4611
860.46	4592
860.592	4786
860.725	4710
860.858	4763
860.99	4561
861.123	4573
861.256	4542
861.388	4592
861.521	5311
861.653	4527
861.786	4512
861.918	4497
862.05	4497
862.183	4538
862.315	4618
862.447	4664
862.58	4599
862.712	4417
862.844	4322
862.976	4558
863.108	4500
863.24	4801
863.372	4318
863.504	4417
863.636	4447
863.768	4462
863.9	4440
864.032	4363
864.164	4440
864.296	4497
864.428	4565
864.559	4565
864.691	4550
864.823	4577
864.954	4535
865.086	4508
865.217	4493
865.349	4417
865.48	4489
865.612	4485
865.743	4641
865.875	4531
866.006	4459
866.137	4485
866.269	4523
866.4	4451
866.531	4432
866.662	4436
866.793	4413
866.924	4451
867.055	4504
867.186	4462
867.317	4421
867.448	4371
867.579	4417
867.71	4478
867.841	4386
867.972	4447
868.103	4390
868.233	4478
868.364	4504
868.495	4485
868.625	4694
868.756	4790
868.886	4561
869.017	4626
869.147	4774
869.278	4805
869.408	4668
869.539	4664
869.669	4752
869.799	4710
869.929	4820
870.06	4683
870.19	4976
870.32	4946
870.45	4946
870.58	5045
870.71	5136
870.84	5060
870.97	5014
871.1	4904
871.23	5109
871.36	5147
871.489	5048
871.619	5029
871.749	5090
871.879	5147
872.008	5204
872.138	5056
872.267	4904
872.397	4835
872.526	4877
872.656	4717
872.785	4816
872.915	4961
873.044	5018
873.173	4911
873.303	5014
873.432	4984
873.561	4972
873.69	4881
873.819	4847
873.948	4938
874.077	4805
874.206	4778
874.335	4809
874.464	4927
874.593	5018
874.722	4927
874.851	5140
874.979	5033
875.108	5064
875.237	4892
875.365	4896
875.494	4885
875.623	4938
875.751	4889
875.88	4953
876.008	4991
876.136	5006
876.265	5231
876.393	5322
876.521	5227
876.65	5284
876.778	5166
876.906	5018
877.034	5003
877.162	5025
877.29	5029
877.418	5010
877.546	5079
877.674	5022
877.802	5041
877.93	5010
878.058	4915
878.185	4908
878.313	4957
878.441	4957
878.568	4809
878.696	4870
878.824	4984
878.951	4980
879.079	5140
879.206	5364
879.333	5124
879.461	5029
879.588	5025
879.715	5193
879.842	5239
879.97	5014
880.097	4778
880.224	4736
880.351	4797
880.478	4839
880.605	4831
880.732	4767
880.859	5006
880.986	4934
881.112	4911
881.239	4793
881.366	4694
881.493	4653
881.619	4580
881.746	4618
881.872	4687
881.999	4687
882.125	4725
882.252	4816
882.378	4816
882.505	4965
882.631	4805
882.757	4660
882.883	4736
883.01	4763
883.136	4672
883.262	4561
883.388	4618
883.514	4797
883.64	4892
883.766	4812
883.892	4641
884.018	4679
884.143	4881
884.269	5033
884.395	4679
884.52	4660
884.646	4618
884.772	4531
884.897	4550
885.023	4691
885.148	4816
885.274	4862
885.399	4828
885.524	4694
885.65	4679
885.775	4755
885.9	4782
886.025	4923
886.15	4801
886.275	4714
886.4	4694
886.525	4698
886.65	4694
886.775	4702
886.9	4911
887.025	5079
887.149	4873
887.274	4691
887.399	4596
887.523	4588
887.648	4599
887.773	4637
887.897	4763
888.021	4812
888.146	4717
888.27	4816
888.395	4904
888.519	4816
888.643	4835
888.767	4820
888.891	4679
889.015	4641
889.139	4675
889.263	4599
889.387	4725
889.511	4889
889.635	4778
889.759	4653
889.883	4645
890.006	4744
890.13	4831
890.254	4603
890.377	4706
890.501	4558
890.624	4500
890.748	4649
890.871	4497
890.995	4428
891.118	4394
891.241	4535
891.364	4577
891.488	4653
891.611	4481
891.734	4519
891.857	4603
891.98	4565
892.103	4660
892.226	4653
892.349	4512
892.471	4432
892.594	4485
892.717	4554
892.839	4565
892.962	4584
893.085	4679
893.207	4626
893.33	4428
893.452	4580
893.575	4668
893.697	4561
893.819	4786
893.941	4862
894.064	4771
894.186	4561
894.308	4565
894.43	4744
894.552	4858
894.674	4759
894.796	4554
894.918	4630
895.04	4565
895.161	4740
895.283	4675
895.405	4596
895.526	4645
895.648	4649
895.769	4702
895.891	4744
896.012	4752
896.134	4736
896.255	4691
896.376	4675
896.498	4656
896.619	4691
896.74	4611
896.861	4660
896.982	4911
897.103	5022
897.224	4824
897.345	4782
897.466	4645
897.587	4759
897.708	4866
897.828	4763
897.949	4634
898.07	4607
898.19	4645
898.311	4767
898.431	4717
898.552	4729
898.672	4824
898.792	4793
898.913	4729
899.033	4630
899.153	4497
899.273	4402
899.393	4481
899.513	4519
899.633	4550
899.753	4584
899.873	4546
899.993	4599
900.113	4542
900.232	4565
900.352	4573
900.472	4493
900.591	4455
900.711	4493
900.83	4447
900.95	4550
901.069	4645
901.189	4531
901.308	4348
901.427	4337
901.546	4371
901.665	4443
901.784	4516
901.904	4432
902.023	4276
902.141	4227
902.26	4177
902.379	4329
902.498	4238
902.617	4223
902.735	4363
902.854	4356
902.973	4348
903.091	4238
903.21	4204
903.328	4314
903.446	4272
903.565	4268
903.683	4348
903.801	4287
903.919	4409
904.038	4455
904.156	4303
904.274	4432
904.392	4379
904.51	4485
904.627	4481
904.745	4573
904.863	4653
904.981	4398
905.098	4287
905.216	4371
905.334	4440
905.451	4428
905.569	4440
905.686	4577
905.803	4577
905.921	4413
906.038	4542
906.155	4481
906.272	4428
906.389	4455
906.506	4325
906.623	4367
906.74	4390
906.857	4257
906.974	4367
907.091	4527
907.208	4706
907.324	4573
907.441	4462
907.557	4363
907.674	4280
907.79	4303
907.907	4390
908.023	4428
908.139	4497
908.256	4440
908.372	4497
908.488	4459
908.604	4371
908.72	4344
908.836	4383
908.952	4379
909.068	4402
909.184	4516
909.3	4512
909.415	4588
909.531	4550
909.647	4363
909.762	4379
909.878	4360
909.993	4436
910.108	4398
910.224	4367
910.339	4409
910.454	4383
910.57	4344
910.685	4284
910.8	4653
910.915	4599
911.03	4466
911.145	4348
911.259	4306
911.374	4409
911.489	4303
911.604	4284
911.718	4181
911.833	4162
911.947	4124
912.062	4032
912.176	4238
912.291	4238
912.405	4238
912.519	4409
912.633	4493
912.748	4379
912.862	4318
912.976	4215
913.09	4086
913.204	4211
913.318	4268
913.431	4367
913.545	4337
913.659	4421
913.772	4367
913.886	4238
914	4230
914.113	4413
914.226	4428
914.34	4405
914.453	4253
914.566	4428
914.68	4314
914.793	4314
914.906	4188
915.019	4082
915.132	4101
915.245	4162
915.358	4173
915.47	4230
915.583	4295
915.696	4299
915.809	4409
915.921	4443
916.034	4227
916.146	4295
916.259	4200
916.371	4344
916.483	4348
916.595	4291
916.708	4367
916.82	4333
916.932	4325
917.044	4322
917.156	4348
917.268	4238
917.38	4310
917.491	4238
917.603	4322
917.715	4417
917.826	4405
917.938	4341
918.049	4230
918.161	4417
918.272	4478
918.384	4500
918.495	4470
918.606	4272
918.717	4227
918.828	4341
918.939	4424
919.05	4246
919.161	4318
919.272	4139
919.383	4265
919.494	4447
919.604	4580
919.715	4440
919.826	4333
919.936	4405
920.047	4512
920.157	4500
920.267	4710
920.378	4577
920.488	4466
920.598	4721
920.708	4885
920.818	4763
920.928	4790
921.038	4953
921.148	4889
921.258	4611
921.368	4573
921.477	4497
921.587	4432
921.697	4360
921.806	4531
921.916	4386
922.025	4299
922.134	4265
922.244	4200
922.353	4299
922.462	4169
922.571	4059
922.68	4048
922.789	3964
922.898	4078
923.007	3964
923.116	4097
923.224	4078
923.333	4082
923.442	3945
923.55	3991
923.659	4044
923.767	4128
923.876	4010
923.984	4131
924.092	3945
924.201	4040
924.309	4067
924.417	4120
924.525	4032
924.633	4074
924.741	4866
924.849	3930
924.956	4166
925.064	3949
925.172	3930
925.279	3972
925.387	4051
925.494	4112
925.602	4215
925.709	4211
925.816	4051
925.924	4143
926.031	4207
926.138	4154
926.245	4173
926.352	4078
926.459	4246
926.566	4227
926.673	4120
926.779	4074
926.886	4116
926.993	3975
927.099	3956
927.206	3994
927.312	3949
927.419	4086
927.525	3987
927.631	4093
927.737	3945
927.843	3949
927.95	3857
928.056	3987
928.162	3998
928.267	4044
928.373	4611
928.479	4109
928.585	3842
928.69	4025
928.796	4074
928.901	3998
929.007	3819
929.112	4021
929.218	3953
929.323	3937
929.428	3907
929.533	4078
929.638	3854
929.743	3922
929.848	4040
929.953	4010
930.058	3930
930.163	3778
930.267	3808
930.372	3979
930.477	3797
930.581	4109
930.685	3918
930.79	3808
930.894	3907
930.998	3854
931.103	4025
931.207	3705
931.311	3694
931.415	3660
931.519	3507
931.623	3568
