Data from test_V78500241_462.txt Node
Date: Fri Mar 25 16:52:12 CST 2022
User: usil
Spectrometer: V785-0024
Trigger mode: 0
Integration Time (sec): 4.000000E-1
Scans to average: 1
Nonlinearity correction enabled: false
Boxcar width: 0
Storing dark spectrum: false
XAxis mode: Wavelengths
Number of Pixels in Spectrum: 1024
>>>>>Begin Spectral Data<<<<<
801.071	7974
801.214	7993
801.356	7826
801.499	7894
801.641	7772
801.783	7849
801.926	8065
802.068	7944
802.211	8001
802.353	7986
802.496	7898
802.638	7955
802.78	7921
802.923	7963
803.065	7788
803.208	7803
803.35	7936
803.492	8016
803.635	8164
803.777	7986
803.919	8077
804.061	8427
804.204	8096
804.346	7963
804.488	7944
804.63	8058
804.773	7963
804.915	8103
805.057	8275
805.199	8142
805.341	8229
805.483	8317
805.626	8123
805.768	8005
805.91	8126
806.052	8130
806.194	8119
806.336	8313
806.478	8157
806.62	8062
806.762	8119
806.904	8206
807.046	8476
807.188	8256
807.33	8191
807.472	8343
807.614	8031
807.756	8161
807.898	7963
808.04	7902
808.182	7978
808.324	7925
808.465	7913
808.607	8039
808.749	8027
808.891	8183
809.033	8286
809.174	8180
809.316	8065
809.458	8039
809.6	8020
809.741	8058
809.883	8065
810.025	8103
810.166	8077
810.308	8145
810.45	8031
810.591	7921
810.733	7685
810.875	7658
811.016	7506
811.158	7491
811.299	7609
811.441	7746
811.582	7723
811.724	7613
811.865	7495
812.007	7586
812.148	7601
812.29	7620
812.431	7788
812.573	7902
812.714	8050
812.855	8206
812.997	8263
813.138	8355
813.279	8221
813.421	8180
813.562	8027
813.703	7936
813.845	7807
813.986	7525
814.127	7422
814.268	7278
814.41	7213
814.551	7137
814.692	7213
814.833	7122
814.974	7107
815.115	7057
815.256	6954
815.397	6932
815.539	6916
815.68	6776
815.821	6821
815.962	6947
816.103	6848
816.244	6741
816.385	6658
816.526	6635
816.666	6536
816.807	6361
816.948	6486
817.089	6502
817.23	6445
817.371	6422
817.512	6350
817.653	6372
817.793	6418
817.934	6422
818.075	6395
818.216	6376
818.356	6395
818.497	6266
818.638	6110
818.778	6121
818.919	6144
819.06	6159
819.2	6304
819.341	6300
819.481	6331
819.622	6490
819.762	6696
819.903	6738
820.043	6604
820.184	6623
820.324	6597
820.465	6768
820.605	6681
820.746	6623
820.886	6441
821.026	6585
821.167	6681
821.307	6734
821.447	6738
821.588	6616
821.728	6563
821.868	6490
822.008	6308
822.149	6388
822.289	6334
822.429	6205
822.569	6087
822.709	6136
822.849	5927
822.99	5904
823.13	5897
823.27	5878
823.41	5802
823.55	5805
823.69	5790
823.83	5809
823.97	5608
824.11	5551
824.25	5547
824.389	5509
824.529	5589
824.669	5524
824.809	5649
824.949	5680
825.089	5589
825.228	5554
825.368	5387
825.508	5318
825.648	5353
825.787	5353
825.927	5349
826.067	5273
826.206	5341
826.346	5337
826.485	5357
826.625	5406
826.765	5558
826.904	5429
827.044	5273
827.183	5227
827.323	5132
827.462	5265
827.601	5174
827.741	5193
827.88	5231
828.02	5170
828.159	5204
828.298	5277
828.437	5311
828.577	5299
828.716	5478
828.855	5288
828.994	5140
829.134	5140
829.273	5181
829.412	5113
829.551	5086
829.69	5140
829.829	5277
829.968	5364
830.107	5299
830.246	5239
830.385	5151
830.524	5086
830.663	5064
830.802	4949
830.941	4889
831.08	4858
831.219	4938
831.357	4949
831.496	5159
831.635	4927
831.774	4889
831.913	4862
832.051	4782
832.19	4717
832.329	4870
832.467	4763
832.606	4660
832.744	4721
832.883	4702
833.022	4771
833.16	4847
833.299	4858
833.437	4881
833.576	4881
833.714	4862
833.852	4870
833.991	4904
834.129	4927
834.267	4965
834.406	4934
834.544	4984
834.682	5033
834.821	5010
834.959	5197
835.097	5067
835.235	5170
835.373	5113
835.511	5113
835.65	5029
835.788	5071
835.926	4980
836.064	4866
836.202	4930
836.34	5231
836.478	5246
836.615	5155
836.753	5239
836.891	5318
837.029	5261
837.167	5265
837.305	5197
837.443	5170
837.58	5143
837.718	5315
837.856	5197
837.993	5189
838.131	5254
838.269	5250
838.406	5208
838.544	5208
838.681	5079
838.819	5037
838.956	4915
839.094	4953
839.231	4995
839.369	5197
839.506	5493
839.643	5379
839.781	5117
839.918	5052
840.055	5170
840.193	5140
840.33	5174
840.467	5220
840.604	5246
840.742	5520
840.879	5166
841.016	5128
841.153	5166
841.29	5421
841.427	5330
841.564	5376
841.701	5368
841.838	5349
841.975	5258
842.112	5292
842.249	5208
842.385	5166
842.522	5341
842.659	5231
842.796	5174
842.933	5280
843.069	5231
843.206	5197
843.343	5376
843.479	5322
843.616	5315
843.752	5052
843.889	5048
844.025	5258
844.162	5041
844.298	5254
844.435	5083
844.571	5105
844.708	5322
844.844	5383
844.98	5349
845.117	5330
845.253	5201
845.389	5181
845.525	5220
845.661	5162
845.798	5102
845.934	5250
846.07	5079
846.206	5227
846.342	5315
846.478	5216
846.614	5048
846.75	5018
846.886	4987
847.022	5162
847.158	5071
847.294	5155
847.429	5151
847.565	5124
847.701	5357
847.837	4915
847.972	4816
848.108	4987
848.244	4976
848.379	4801
848.515	4774
848.65	4763
848.786	4805
848.921	4828
849.057	4877
849.192	4915
849.328	4866
849.463	4881
849.598	4843
849.734	4763
849.869	4736
850.004	4714
850.14	4744
850.275	4645
850.41	4599
850.545	4603
850.68	4603
850.815	4675
850.95	4706
851.085	4900
851.22	4847
851.355	4694
851.49	4637
851.625	4668
851.76	4675
851.895	4607
852.03	4542
852.165	4664
852.299	4744
852.434	4839
852.569	4755
852.703	4835
852.838	4877
852.973	4961
853.107	4957
853.242	4740
853.376	4694
853.511	4607
853.645	4656
853.78	4812
853.914	4740
854.048	4698
854.183	4660
854.317	4721
854.451	4889
854.585	4714
854.72	4675
854.854	4801
854.988	4668
855.122	4691
855.256	4542
855.39	4714
855.524	4809
855.658	4793
855.792	4710
855.926	4790
856.06	4797
856.194	4812
856.327	4763
856.461	4653
856.595	4668
856.729	4656
856.862	4790
856.996	4759
857.13	4767
857.263	4767
857.397	4858
857.53	4656
857.664	4759
857.797	4816
857.931	4831
858.064	4691
858.197	4782
858.331	4691
858.464	4630
858.597	4592
858.731	4668
858.864	4645
858.997	4618
859.13	4664
859.263	4698
859.396	4763
859.529	4588
859.662	4599
859.795	4607
859.928	4656
860.061	4862
860.194	4736
860.327	4630
860.46	4599
860.592	4774
860.725	4763
860.858	4729
860.99	4596
861.123	4504
861.256	4542
861.388	4641
861.521	5349
861.653	4527
861.786	4474
861.918	4459
862.05	4546
862.183	4561
862.315	4641
862.447	4694
862.58	4558
862.712	4443
862.844	4390
862.976	4504
863.108	4519
863.24	4839
863.372	4394
863.504	4466
863.636	4481
863.768	4504
863.9	4500
864.032	4447
864.164	4459
864.296	4443
864.428	4508
864.559	4649
864.691	4531
864.823	4558
864.954	4508
865.086	4519
865.217	4523
865.349	4436
865.48	4466
865.612	4531
865.743	4649
865.875	4527
866.006	4497
866.137	4508
866.269	4478
866.4	4474
866.531	4542
866.662	4413
866.793	4413
866.924	4440
867.055	4512
867.186	4485
867.317	4455
867.448	4375
867.579	4443
867.71	4443
867.841	4462
867.972	4489
868.103	4493
868.233	4508
868.364	4485
868.495	4523
868.625	4706
868.756	4767
868.886	4546
869.017	4672
869.147	4805
869.278	4801
869.408	4717
869.539	4717
869.669	4736
869.799	4683
869.929	4759
870.06	4755
870.19	4987
870.32	4980
870.45	4991
870.58	5033
870.71	5075
870.84	5147
870.97	5029
871.1	4949
871.23	5121
871.36	5166
871.489	5048
871.619	5105
871.749	5098
871.879	5128
872.008	5235
872.138	5136
872.267	5006
872.397	4896
872.526	4835
872.656	4740
872.785	4866
872.915	4976
873.044	5056
873.173	4984
873.303	4980
873.432	4976
873.561	5003
873.69	4904
873.819	4919
873.948	4927
874.077	4889
874.206	4793
874.335	4828
874.464	4911
874.593	5094
874.722	4995
874.851	5136
874.979	5102
875.108	5086
875.237	4942
875.365	4911
875.494	4873
875.623	5033
875.751	4919
875.88	4908
876.008	5010
876.136	5048
876.265	5220
876.393	5406
876.521	5273
876.65	5246
876.778	5128
876.906	5056
877.034	5121
877.162	5094
877.29	5102
877.418	5079
877.546	5064
877.674	5064
877.802	5075
877.93	5056
878.058	4961
878.185	4892
878.313	4961
878.441	4987
878.568	4816
878.696	4915
878.824	5006
878.951	4976
879.079	5166
879.206	5330
879.333	5128
879.461	5022
879.588	5033
879.715	5143
879.842	5231
879.97	5071
880.097	4843
880.224	4755
880.351	4843
880.478	4843
880.605	4824
880.732	4793
880.859	5117
880.986	4927
881.112	4930
881.239	4828
881.366	4694
881.493	4622
881.619	4626
881.746	4641
881.872	4618
881.999	4706
882.125	4729
882.252	4801
882.378	4843
882.505	5003
882.631	4820
882.757	4687
882.883	4748
883.01	4767
883.136	4668
883.262	4626
883.388	4607
883.514	4797
883.64	4896
883.766	4809
883.892	4618
884.018	4729
884.143	4949
884.269	5041
884.395	4702
884.52	4649
884.646	4611
884.772	4611
884.897	4599
885.023	4698
885.148	4809
885.274	4919
885.399	4831
885.524	4790
885.65	4714
885.775	4801
885.9	4714
886.025	4881
886.15	4816
886.275	4744
886.4	4736
886.525	4744
886.65	4675
886.775	4721
886.9	4987
887.025	5124
887.149	4824
887.274	4660
887.399	4592
887.523	4630
887.648	4603
887.773	4596
887.897	4793
888.021	4782
888.146	4672
888.27	4816
888.395	4976
888.519	4870
888.643	4843
888.767	4866
888.891	4763
889.015	4645
889.139	4698
889.263	4615
889.387	4767
889.511	4908
889.635	4748
889.759	4630
889.883	4649
890.006	4786
890.13	4858
890.254	4603
890.377	4710
890.501	4577
890.624	4588
890.748	4672
890.871	4516
890.995	4432
891.118	4405
891.241	4508
891.364	4584
891.488	4679
891.611	4504
891.734	4565
891.857	4637
891.98	4535
892.103	4637
892.226	4584
892.349	4535
892.471	4466
892.594	4584
892.717	4641
892.839	4535
892.962	4641
893.085	4714
893.207	4653
893.33	4497
893.452	4550
893.575	4683
893.697	4622
893.819	4828
893.941	4812
894.064	4771
894.186	4546
894.308	4580
894.43	4744
894.552	4866
894.674	4801
894.796	4542
894.918	4626
895.04	4588
895.161	4698
895.283	4687
895.405	4653
895.526	4668
895.648	4721
895.769	4740
895.891	4752
896.012	4774
896.134	4725
896.255	4679
896.376	4683
896.498	4687
896.619	4740
896.74	4592
896.861	4679
896.982	4904
897.103	5140
897.224	4824
897.345	4721
897.466	4691
897.587	4767
897.708	4866
897.828	4797
897.949	4675
898.07	4596
898.19	4645
898.311	4870
898.431	4698
898.552	4774
898.672	4812
898.792	4847
898.913	4744
899.033	4641
899.153	4527
899.273	4428
899.393	4500
899.513	4558
899.633	4531
899.753	4577
899.873	4565
899.993	4592
900.113	4546
900.232	4618
900.352	4546
900.472	4523
900.591	4436
900.711	4561
900.83	4462
900.95	4596
901.069	4672
901.189	4558
901.308	4386
901.427	4367
901.546	4402
901.665	4497
901.784	4561
901.904	4440
902.023	4352
902.141	4181
902.26	4188
902.379	4356
902.498	4261
902.617	4211
902.735	4371
902.854	4440
902.973	4398
903.091	4227
903.21	4272
903.328	4306
903.446	4299
903.565	4253
903.683	4341
903.801	4299
903.919	4440
904.038	4436
904.156	4325
904.274	4432
904.392	4363
904.51	4424
904.627	4462
904.745	4561
904.863	4637
904.981	4417
905.098	4295
905.216	4371
905.334	4413
905.451	4455
905.569	4459
905.686	4569
905.803	4519
905.921	4413
906.038	4504
906.155	4474
906.272	4390
906.389	4432
906.506	4318
906.623	4428
906.74	4447
906.857	4314
906.974	4390
907.091	4599
907.208	4694
907.324	4634
907.441	4527
907.557	4375
907.674	4409
907.79	4341
907.907	4394
908.023	4546
908.139	4493
908.256	4466
908.372	4504
908.488	4500
908.604	4409
908.72	4375
908.836	4424
908.952	4417
909.068	4466
909.184	4630
909.3	4504
909.415	4565
909.531	4592
909.647	4409
909.762	4413
909.878	4451
909.993	4519
910.108	4462
910.224	4432
910.339	4527
910.454	4428
910.57	4417
910.685	4367
910.8	4679
910.915	4641
911.03	4497
911.145	4390
911.259	4405
911.374	4394
911.489	4363
911.604	4348
911.718	4192
911.833	4219
911.947	4101
912.062	4074
912.176	4284
912.291	4314
912.405	4306
912.519	4516
912.633	4573
912.748	4390
912.862	4371
912.976	4284
913.09	4177
913.204	4257
913.318	4337
913.431	4459
913.545	4417
913.659	4462
913.772	4383
913.886	4310
914	4276
914.113	4405
914.226	4447
914.34	4455
914.453	4295
914.566	4459
914.68	4383
914.793	4390
914.906	4177
915.019	4169
915.132	4135
915.245	4188
915.358	4314
915.47	4272
915.583	4352
915.696	4329
915.809	4470
915.921	4478
916.034	4287
916.146	4295
916.259	4242
916.371	4409
916.483	4367
916.595	4280
916.708	4371
916.82	4356
916.932	4348
917.044	4383
917.156	4375
917.268	4295
917.38	4322
917.491	4325
917.603	4428
917.715	4455
917.826	4478
917.938	4394
918.049	4291
918.161	4443
918.272	4588
918.384	4584
918.495	4489
918.606	4322
918.717	4280
918.828	4367
918.939	4379
919.05	4303
919.161	4348
919.272	4147
919.383	4261
919.494	4523
919.604	4691
919.715	4455
919.826	4428
919.936	4455
920.047	4569
920.157	4538
920.267	4691
920.378	4592
920.488	4504
920.598	4736
920.708	4911
920.818	4767
920.928	4801
921.038	4930
921.148	4961
921.258	4630
921.368	4615
921.477	4531
921.587	4512
921.697	4436
921.806	4622
921.916	4459
922.025	4337
922.134	4295
922.244	4310
922.353	4394
922.462	4230
922.571	4147
922.68	4021
922.789	4006
922.898	4040
923.007	4044
923.116	4173
923.224	4082
923.333	4105
923.442	4093
923.55	4006
923.659	4097
923.767	4135
923.876	4021
923.984	4139
924.092	3994
924.201	4128
924.309	4131
924.417	4192
924.525	4097
924.633	4116
924.741	5083
924.849	3949
924.956	4154
925.064	4006
925.172	3915
925.279	4013
925.387	4109
925.494	4071
925.602	4215
925.709	4219
925.816	4051
925.924	4173
926.031	4227
926.138	4257
926.245	4215
926.352	4112
926.459	4272
926.566	4356
926.673	4207
926.779	4112
926.886	4097
926.993	4040
927.099	4002
927.206	3964
927.312	3960
927.419	4112
927.525	4082
927.631	4112
927.737	3991
927.843	3983
927.95	3918
928.056	3991
928.162	4017
928.267	4082
928.373	4691
928.479	4177
928.585	3945
928.69	4063
928.796	4109
928.901	4010
929.007	3842
929.112	4021
929.218	4002
929.323	4002
929.428	3975
929.533	4143
929.638	3983
929.743	4025
929.848	4044
929.953	4040
930.058	3930
930.163	3804
930.267	3873
930.372	4010
930.477	3838
930.581	4169
930.685	3991
930.79	3816
930.894	3934
930.998	3911
931.103	4048
931.207	3759
931.311	3736
931.415	3698
931.519	3587
931.623	3599
