Data from test_V78500241_2567.txt Node
Date: Fri Mar 25 17:06:51 CST 2022
User: usil
Spectrometer: V785-0024
Trigger mode: 0
Integration Time (sec): 4.000000E-1
Scans to average: 1
Nonlinearity correction enabled: false
Boxcar width: 0
Storing dark spectrum: false
XAxis mode: Wavelengths
Number of Pixels in Spectrum: 1024
>>>>>Begin Spectral Data<<<<<
801.071	8039
801.214	8077
801.356	7902
801.499	7811
801.641	7837
801.783	7833
801.926	7993
802.068	7932
802.211	7986
802.353	8058
802.496	7871
802.638	7890
802.78	7875
802.923	7902
803.065	7875
803.208	7822
803.35	7940
803.492	8069
803.635	8153
803.777	8065
803.919	8134
804.061	8423
804.204	8183
804.346	8084
804.488	8008
804.63	8092
804.773	8054
804.915	8077
805.057	8279
805.199	8096
805.341	8233
805.483	8301
805.626	8252
805.768	8058
805.91	8199
806.052	8237
806.194	8058
806.336	8336
806.478	8050
806.62	8065
806.762	8126
806.904	8240
807.046	8473
807.188	8347
807.33	8328
807.472	8275
807.614	8145
807.756	8111
807.898	8058
808.04	7852
808.182	7871
808.324	7845
808.465	7932
808.607	8054
808.749	8142
808.891	8240
809.033	8320
809.174	8237
809.316	8069
809.458	8050
809.6	7982
809.741	8008
809.883	8012
810.025	8050
810.166	8084
810.308	8008
810.45	8020
810.591	7864
810.733	7727
810.875	7731
811.016	7594
811.158	7476
811.299	7563
811.441	7803
811.582	7734
811.724	7548
811.865	7563
812.007	7620
812.148	7597
812.29	7616
812.431	7757
812.573	7818
812.714	7997
812.855	8145
812.997	8248
813.138	8343
813.279	8183
813.421	7982
813.562	7967
813.703	7864
813.845	7772
813.986	7445
814.127	7278
814.268	7194
814.41	7213
814.551	7183
814.692	7175
814.833	7099
814.974	7076
815.115	7168
815.256	6993
815.397	6977
815.539	6909
815.68	6798
815.821	6779
815.962	6810
816.103	6749
816.244	6760
816.385	6642
816.526	6673
816.666	6467
816.807	6327
816.948	6464
817.089	6475
817.23	6399
817.371	6361
817.512	6407
817.653	6410
817.793	6300
817.934	6445
818.075	6517
818.216	6452
818.356	6437
818.497	6224
818.638	6057
818.778	6175
818.919	6129
819.06	6216
819.2	6365
819.341	6380
819.481	6403
819.622	6528
819.762	6711
819.903	6684
820.043	6623
820.184	6597
820.324	6627
820.465	6745
820.605	6673
820.746	6662
820.886	6540
821.026	6730
821.167	6700
821.307	6859
821.447	6829
821.588	6650
821.728	6654
821.868	6486
822.008	6342
822.149	6372
822.289	6300
822.429	6167
822.569	6114
822.709	6178
822.849	5961
822.99	5851
823.13	5920
823.27	5946
823.41	5760
823.55	5775
823.69	5752
823.83	5764
823.97	5611
824.11	5520
824.25	5520
824.389	5539
824.529	5592
824.669	5535
824.809	5638
824.949	5699
825.089	5623
825.228	5570
825.368	5482
825.508	5376
825.648	5387
825.787	5391
825.927	5429
826.067	5322
826.206	5292
826.346	5402
826.485	5421
826.625	5425
826.765	5566
826.904	5463
827.044	5273
827.183	5204
827.323	5117
827.462	5223
827.601	5223
827.741	5212
827.88	5254
828.02	5227
828.159	5280
828.298	5307
828.437	5379
828.577	5307
828.716	5493
828.855	5360
828.994	5227
829.134	5178
829.273	5227
829.412	5170
829.551	5102
829.69	5162
829.829	5296
829.968	5444
830.107	5299
830.246	5311
830.385	5239
830.524	5220
830.663	5159
830.802	5022
830.941	4877
831.08	4870
831.219	5003
831.357	4965
831.496	5162
831.635	4934
831.774	4866
831.913	4847
832.051	4805
832.19	4809
832.329	4828
832.467	4668
832.606	4672
832.744	4805
832.883	4797
833.022	4748
833.16	4797
833.299	4858
833.437	4854
833.576	4919
833.714	4889
833.852	4953
833.991	4885
834.129	4987
834.267	4991
834.406	4980
834.544	4976
834.682	5033
834.821	4995
834.959	5193
835.097	5033
835.235	5242
835.373	5159
835.511	5117
835.65	5067
835.788	5067
835.926	4915
836.064	4908
836.202	5003
836.34	5227
836.478	5269
836.615	5189
836.753	5235
836.891	5330
837.029	5246
837.167	5246
837.305	5216
837.443	5159
837.58	5128
837.718	5277
837.856	5235
837.993	5162
838.131	5250
838.269	5181
838.406	5227
838.544	5204
838.681	5094
838.819	5029
838.956	4961
839.094	4949
839.231	5048
839.369	5105
839.506	5509
839.643	5322
839.781	5102
839.918	5067
840.055	5174
840.193	5136
840.33	5121
840.467	5189
840.604	5204
840.742	5459
840.879	5136
841.016	5098
841.153	5155
841.29	5417
841.427	5383
841.564	5395
841.701	5315
841.838	5292
841.975	5235
842.112	5326
842.249	5170
842.385	5128
842.522	5360
842.659	5174
842.796	5181
842.933	5227
843.069	5181
843.206	5189
843.343	5326
843.479	5250
843.616	5258
843.752	5086
843.889	5022
844.025	5299
844.162	5075
844.298	5201
844.435	5067
844.571	5064
844.708	5193
844.844	5311
844.98	5414
845.117	5299
845.253	5185
845.389	5098
845.525	5193
845.661	5204
845.798	5071
845.934	5132
846.07	5113
846.206	5201
846.342	5273
846.478	5231
846.614	5060
846.75	5056
846.886	4927
847.022	5208
847.158	5025
847.294	5094
847.429	5117
847.565	5064
847.701	5326
847.837	4919
847.972	4847
848.108	5022
848.244	4942
848.379	4843
848.515	4763
848.65	4706
848.786	4752
848.921	4786
849.057	4877
849.192	4946
849.328	4797
849.463	4946
849.598	4812
849.734	4805
849.869	4793
850.004	4660
850.14	4702
850.275	4649
850.41	4580
850.545	4596
850.68	4656
850.815	4649
850.95	4687
851.085	4873
851.22	4786
851.355	4725
851.49	4588
851.625	4694
851.76	4637
851.895	4550
852.03	4599
852.165	4664
852.299	4694
852.434	4816
852.569	4790
852.703	4824
852.838	4877
852.973	4972
853.107	4965
853.242	4790
853.376	4733
853.511	4615
853.645	4656
853.78	4835
853.914	4752
854.048	4687
854.183	4706
854.317	4710
854.451	4850
854.585	4721
854.72	4656
854.854	4767
854.988	4615
855.122	4706
855.256	4550
855.39	4664
855.524	4767
855.658	4729
855.792	4706
855.926	4729
856.06	4812
856.194	4850
856.327	4691
856.461	4630
856.595	4664
856.729	4668
856.862	4759
856.996	4763
857.13	4793
857.263	4774
857.397	4847
857.53	4694
857.664	4717
857.797	4839
857.931	4843
858.064	4733
858.197	4790
858.331	4714
858.464	4664
858.597	4561
858.731	4641
858.864	4656
858.997	4615
859.13	4672
859.263	4714
859.396	4721
859.529	4615
859.662	4569
859.795	4538
859.928	4660
860.061	4752
860.194	4797
860.327	4596
860.46	4573
860.592	4744
860.725	4752
860.858	4729
860.99	4573
861.123	4516
861.256	4550
861.388	4622
861.521	5315
861.653	4538
861.786	4481
861.918	4519
862.05	4577
862.183	4596
862.315	4649
862.447	4702
862.58	4554
862.712	4409
862.844	4379
862.976	4470
863.108	4481
863.24	4786
863.372	4386
863.504	4470
863.636	4394
863.768	4504
863.9	4489
864.032	4394
864.164	4443
864.296	4478
864.428	4603
864.559	4573
864.691	4565
864.823	4516
864.954	4508
865.086	4500
865.217	4478
865.349	4402
865.48	4489
865.612	4493
865.743	4725
865.875	4519
866.006	4478
866.137	4493
866.269	4459
866.4	4462
866.531	4459
866.662	4409
866.793	4478
866.924	4432
867.055	4531
867.186	4493
867.317	4409
867.448	4462
867.579	4466
867.71	4421
867.841	4402
867.972	4504
868.103	4504
868.233	4508
868.364	4512
868.495	4462
868.625	4691
868.756	4786
868.886	4573
869.017	4656
869.147	4843
869.278	4782
869.408	4687
869.539	4687
869.669	4736
869.799	4672
869.929	4786
870.06	4763
870.19	4984
870.32	4953
870.45	5006
870.58	5041
870.71	5155
870.84	5128
870.97	4961
871.1	4946
871.23	5204
871.36	5155
871.489	5079
871.619	5136
871.749	5094
871.879	5166
872.008	5170
872.138	5086
872.267	5010
872.397	4870
872.526	4812
872.656	4702
872.785	4843
872.915	5003
873.044	5033
873.173	4991
873.303	5010
873.432	4984
873.561	4999
873.69	4919
873.819	4847
873.948	4942
874.077	4824
874.206	4771
874.335	4873
874.464	4965
874.593	5117
874.722	5006
874.851	5136
874.979	5098
875.108	5140
875.237	4968
875.365	4919
875.494	4938
875.623	5022
875.751	4843
875.88	4927
876.008	4991
876.136	5018
876.265	5201
876.393	5364
876.521	5280
876.65	5254
876.778	5201
876.906	5128
877.034	5075
877.162	5052
877.29	5045
877.418	5109
877.546	5033
877.674	5090
877.802	5067
877.93	5094
878.058	4999
878.185	4862
878.313	4965
878.441	4968
878.568	4847
878.696	4835
878.824	4991
878.951	5018
879.079	5178
879.206	5330
879.333	5147
879.461	5014
879.588	5010
879.715	5155
879.842	5258
879.97	5022
880.097	4809
880.224	4778
880.351	4790
880.478	4854
880.605	4816
880.732	4790
880.859	5124
880.986	4847
881.112	4870
881.239	4752
881.366	4717
881.493	4615
881.619	4622
881.746	4664
881.872	4694
881.999	4717
882.125	4725
882.252	4763
882.378	4847
882.505	4961
882.631	4831
882.757	4710
882.883	4714
883.01	4710
883.136	4683
883.262	4615
883.388	4641
883.514	4820
883.64	4953
883.766	4793
883.892	4656
884.018	4744
884.143	4938
884.269	5006
884.395	4675
884.52	4618
884.646	4679
884.772	4615
884.897	4516
885.023	4702
885.148	4839
885.274	4900
885.399	4839
885.524	4706
885.65	4797
885.775	4763
885.9	4698
886.025	4866
886.15	4866
886.275	4733
886.4	4645
886.525	4740
886.65	4714
886.775	4721
886.9	4908
887.025	5094
887.149	4873
887.274	4691
887.399	4622
887.523	4599
887.648	4588
887.773	4592
887.897	4778
888.021	4805
888.146	4725
888.27	4797
888.395	4942
888.519	4843
888.643	4828
888.767	4873
888.891	4694
889.015	4611
889.139	4694
889.263	4626
889.387	4786
889.511	4900
889.635	4809
889.759	4691
889.883	4618
890.006	4767
890.13	4820
890.254	4637
890.377	4714
890.501	4558
890.624	4527
890.748	4656
890.871	4542
890.995	4481
891.118	4379
891.241	4554
891.364	4584
891.488	4626
891.611	4523
891.734	4531
891.857	4596
891.98	4523
892.103	4687
892.226	4611
892.349	4523
892.471	4459
892.594	4584
892.717	4588
892.839	4622
892.962	4611
893.085	4702
893.207	4599
893.33	4466
893.452	4558
893.575	4653
893.697	4565
893.819	4812
893.941	4881
894.064	4759
894.186	4599
894.308	4580
894.43	4767
894.552	4839
894.674	4774
894.796	4584
894.918	4645
895.04	4561
895.161	4714
895.283	4668
895.405	4599
895.526	4694
895.648	4702
895.769	4733
895.891	4706
896.012	4740
896.134	4767
896.255	4702
896.376	4683
896.498	4637
896.619	4675
896.74	4656
896.861	4645
896.982	4911
897.103	5113
897.224	4801
897.345	4744
897.466	4679
897.587	4733
897.708	4911
897.828	4801
897.949	4653
898.07	4580
898.19	4630
898.311	4877
898.431	4683
898.552	4691
898.672	4801
898.792	4812
898.913	4752
899.033	4588
899.153	4584
899.273	4459
899.393	4561
899.513	4554
899.633	4558
899.753	4554
899.873	4519
899.993	4653
900.113	4580
900.232	4645
900.352	4550
900.472	4470
900.591	4462
900.711	4550
900.83	4440
900.95	4588
901.069	4733
901.189	4561
901.308	4417
901.427	4333
901.546	4417
901.665	4466
901.784	4497
901.904	4421
902.023	4329
902.141	4207
902.26	4207
902.379	4329
902.498	4219
902.617	4253
902.735	4413
902.854	4436
902.973	4383
903.091	4223
903.21	4238
903.328	4299
903.446	4310
903.565	4272
903.683	4424
903.801	4303
903.919	4447
904.038	4451
904.156	4386
904.274	4443
904.392	4455
904.51	4474
904.627	4512
904.745	4599
904.863	4626
904.981	4375
905.098	4306
905.216	4371
905.334	4428
905.451	4466
905.569	4500
905.686	4592
905.803	4584
905.921	4451
906.038	4569
906.155	4519
906.272	4424
906.389	4478
906.506	4329
906.623	4348
906.74	4402
906.857	4310
906.974	4371
907.091	4626
907.208	4656
907.324	4599
907.441	4508
907.557	4386
907.674	4344
907.79	4318
907.907	4394
908.023	4523
908.139	4489
908.256	4413
908.372	4497
908.488	4470
908.604	4390
908.72	4314
908.836	4405
908.952	4383
909.068	4459
909.184	4607
909.3	4466
909.415	4592
909.531	4558
909.647	4386
909.762	4348
909.878	4383
909.993	4440
910.108	4432
910.224	4447
910.339	4455
910.454	4398
910.57	4386
910.685	4337
910.8	4649
910.915	4634
911.03	4500
911.145	4341
911.259	4329
911.374	4360
911.489	4284
911.604	4249
911.718	4162
911.833	4211
911.947	4093
912.062	4013
912.176	4215
912.291	4276
912.405	4242
912.519	4424
912.633	4519
912.748	4390
912.862	4333
912.976	4227
913.09	4067
913.204	4196
913.318	4242
913.431	4424
913.545	4348
913.659	4462
913.772	4337
913.886	4246
914	4215
914.113	4417
914.226	4409
914.34	4356
914.453	4227
914.566	4421
914.68	4314
914.793	4280
914.906	4131
915.019	4158
915.132	4071
915.245	4162
915.358	4188
915.47	4249
915.583	4257
915.696	4280
915.809	4421
915.921	4421
916.034	4234
916.146	4253
916.259	4261
916.371	4383
916.483	4428
916.595	4276
916.708	4337
916.82	4299
916.932	4333
917.044	4325
917.156	4360
917.268	4265
917.38	4253
917.491	4249
917.603	4276
917.715	4424
917.826	4459
917.938	4390
918.049	4268
918.161	4405
918.272	4531
918.384	4493
918.495	4447
918.606	4276
918.717	4268
918.828	4337
918.939	4394
919.05	4287
919.161	4337
919.272	4143
919.383	4284
919.494	4462
919.604	4618
919.715	4436
919.826	4375
919.936	4398
920.047	4535
920.157	4474
920.267	4710
920.378	4599
920.488	4508
920.598	4675
920.708	4915
920.818	4733
920.928	4744
921.038	4915
921.148	4942
921.258	4622
921.368	4580
921.477	4508
921.587	4481
921.697	4348
921.806	4531
921.916	4383
922.025	4276
922.134	4265
922.244	4223
922.353	4329
922.462	4188
922.571	4166
922.68	4036
922.789	4029
922.898	3998
923.007	4010
923.116	4071
923.224	4059
923.333	4093
923.442	3983
923.55	4040
923.659	3975
923.767	4082
923.876	4010
923.984	4120
924.092	4021
924.201	4044
924.309	4120
924.417	4112
924.525	4010
924.633	4150
924.741	5060
924.849	3926
924.956	4158
925.064	3937
925.172	3865
925.279	3926
925.387	4059
925.494	4029
925.602	4230
925.709	4169
925.816	4029
925.924	4154
926.031	4257
926.138	4162
926.245	4196
926.352	4074
926.459	4272
926.566	4268
926.673	4131
926.779	4090
926.886	4090
926.993	3983
927.099	3994
927.206	3937
927.312	3975
927.419	4112
927.525	4040
927.631	4109
927.737	3972
927.843	3934
927.95	3812
928.056	3892
928.162	3979
928.267	4071
928.373	4569
928.479	4112
928.585	3892
928.69	4048
928.796	4048
928.901	3960
929.007	3823
929.112	4025
929.218	3960
929.323	3979
929.428	3983
929.533	4120
929.638	3907
929.743	4006
929.848	4048
929.953	3983
930.058	3941
930.163	3781
930.267	3857
930.372	3987
930.477	3835
930.581	4116
930.685	3953
930.79	3838
930.894	3888
930.998	3896
931.103	4013
931.207	3698
931.311	3663
931.415	3717
931.519	3523
931.623	3530
