Data from test_V78500241_1862.txt Node
Date: Fri Mar 25 17:01:56 CST 2022
User: usil
Spectrometer: V785-0024
Trigger mode: 0
Integration Time (sec): 4.000000E-1
Scans to average: 1
Nonlinearity correction enabled: false
Boxcar width: 0
Storing dark spectrum: false
XAxis mode: Wavelengths
Number of Pixels in Spectrum: 1024
>>>>>Begin Spectral Data<<<<<
801.071	8043
801.214	7986
801.356	7936
801.499	7879
801.641	7826
801.783	7811
801.926	7940
802.068	7997
802.211	8035
802.353	8005
802.496	7868
802.638	7860
802.78	7879
802.923	7890
803.065	7811
803.208	7871
803.35	7993
803.492	8103
803.635	8138
803.777	8043
803.919	8092
804.061	8507
804.204	8225
804.346	8084
804.488	7940
804.63	8100
804.773	8069
804.915	8096
805.057	8271
805.199	8221
805.341	8199
805.483	8355
805.626	8248
805.768	8176
805.91	8233
806.052	8263
806.194	8157
806.336	8240
806.478	8031
806.62	8077
806.762	8123
806.904	8271
807.046	8473
807.188	8381
807.33	8301
807.472	8358
807.614	8202
807.756	8138
807.898	8031
808.04	7951
808.182	7902
808.324	7906
808.465	7974
808.607	8073
808.749	8115
808.891	8252
809.033	8366
809.174	8214
809.316	8119
809.458	8092
809.6	8058
809.741	8069
809.883	8100
810.025	8062
810.166	8119
810.308	8024
810.45	7997
810.591	7879
810.733	7738
810.875	7658
811.016	7506
811.158	7487
811.299	7616
811.441	7761
811.582	7674
811.724	7529
811.865	7586
812.007	7586
812.148	7521
812.29	7674
812.431	7757
812.573	7879
812.714	7970
812.855	8218
812.997	8149
813.138	8332
813.279	8183
813.421	8073
813.562	7978
813.703	7788
813.845	7780
813.986	7449
814.127	7316
814.268	7236
814.41	7221
814.551	7122
814.692	7225
814.833	7099
814.974	7141
815.115	7095
815.256	7042
815.397	6996
815.539	6977
815.68	6814
815.821	6802
815.962	6833
816.103	6844
816.244	6730
816.385	6677
816.526	6623
816.666	6486
816.807	6346
816.948	6407
817.089	6418
817.23	6433
817.371	6384
817.512	6403
817.653	6380
817.793	6388
817.934	6395
818.075	6498
818.216	6452
818.356	6445
818.497	6251
818.638	6144
818.778	6136
818.919	6163
819.06	6136
819.2	6285
819.341	6296
819.481	6372
819.622	6502
819.762	6764
819.903	6715
820.043	6612
820.184	6536
820.324	6597
820.465	6700
820.605	6760
820.746	6608
820.886	6509
821.026	6677
821.167	6658
821.307	6844
821.447	6837
821.588	6707
821.728	6540
821.868	6494
822.008	6353
822.149	6346
822.289	6376
822.429	6194
822.569	6129
822.709	6110
822.849	5916
822.99	5984
823.13	5939
823.27	5885
823.41	5802
823.55	5813
823.69	5813
823.83	5821
823.97	5668
824.11	5596
824.25	5505
824.389	5600
824.529	5627
824.669	5497
824.809	5638
824.949	5649
825.089	5627
825.228	5589
825.368	5402
825.508	5402
825.648	5395
825.787	5383
825.927	5353
826.067	5322
826.206	5296
826.346	5444
826.485	5429
826.625	5357
826.765	5600
826.904	5532
827.044	5239
827.183	5258
827.323	5136
827.462	5235
827.601	5117
827.741	5231
827.88	5239
828.02	5189
828.159	5242
828.298	5349
828.437	5357
828.577	5296
828.716	5471
828.855	5372
828.994	5185
829.134	5155
829.273	5208
829.412	5121
829.551	5166
829.69	5208
829.829	5242
829.968	5383
830.107	5246
830.246	5261
830.385	5231
830.524	5090
830.663	5102
830.802	4968
830.941	4896
831.08	4889
831.219	5041
831.357	4976
831.496	5147
831.635	4991
831.774	4824
831.913	4843
832.051	4736
832.19	4793
832.329	4881
832.467	4668
832.606	4641
832.744	4710
832.883	4710
833.022	4706
833.16	4793
833.299	4839
833.437	4866
833.576	4843
833.714	4889
833.852	4877
833.991	4919
834.129	5022
834.267	4923
834.406	4900
834.544	4968
834.682	4927
834.821	4999
834.959	5143
835.097	4991
835.235	5178
835.373	5109
835.511	5102
835.65	5064
835.788	4991
835.926	4968
836.064	4923
836.202	4923
836.34	5113
836.478	5166
836.615	5098
836.753	5208
836.891	5299
837.029	5280
837.167	5166
837.305	5155
837.443	5181
837.58	5094
837.718	5208
837.856	5166
837.993	5166
838.131	5269
838.269	5261
838.406	5223
838.544	5178
838.681	4991
838.819	5022
838.956	4896
839.094	4942
839.231	4957
839.369	5052
839.506	5448
839.643	5284
839.781	5083
839.918	5022
840.055	5117
840.193	5094
840.33	5109
840.467	5170
840.604	5242
840.742	5425
840.879	5102
841.016	5174
841.153	5193
841.29	5364
841.427	5292
841.564	5322
841.701	5341
841.838	5269
841.975	5265
842.112	5277
842.249	5136
842.385	5124
842.522	5299
842.659	5155
842.796	5105
842.933	5181
843.069	5231
843.206	5193
843.343	5284
843.479	5242
843.616	5345
843.752	5010
843.889	4961
844.025	5246
844.162	5014
844.298	5246
844.435	5105
844.571	5048
844.708	5151
844.844	5318
844.98	5383
845.117	5284
845.253	5140
845.389	5102
845.525	5143
845.661	5162
845.798	5048
845.934	5166
846.07	5033
846.206	5242
846.342	5292
846.478	5159
846.614	5014
846.75	4972
846.886	4942
847.022	5193
847.158	5029
847.294	5064
847.429	5105
847.565	5041
847.701	5254
847.837	4862
847.972	4831
848.108	5014
848.244	4965
848.379	4797
848.515	4702
848.65	4736
848.786	4767
848.921	4801
849.057	4896
849.192	4927
849.328	4858
849.463	4847
849.598	4786
849.734	4801
849.869	4706
850.004	4577
850.14	4664
850.275	4664
850.41	4512
850.545	4546
850.68	4618
850.815	4637
850.95	4577
851.085	4835
851.22	4782
851.355	4710
851.49	4599
851.625	4668
851.76	4660
851.895	4607
852.03	4558
852.165	4573
852.299	4774
852.434	4763
852.569	4733
852.703	4809
852.838	4847
852.973	4896
853.107	4930
853.242	4744
853.376	4687
853.511	4531
853.645	4618
853.78	4782
853.914	4698
854.048	4675
854.183	4649
854.317	4706
854.451	4904
854.585	4736
854.72	4744
854.854	4752
854.988	4622
855.122	4596
855.256	4531
855.39	4691
855.524	4759
855.658	4694
855.792	4668
855.926	4710
856.06	4790
856.194	4812
856.327	4641
856.461	4580
856.595	4637
856.729	4611
856.862	4736
856.996	4694
857.13	4733
857.263	4744
857.397	4782
857.53	4721
857.664	4710
857.797	4771
857.931	4752
858.064	4706
858.197	4771
858.331	4622
858.464	4569
858.597	4535
858.731	4675
858.864	4618
858.997	4588
859.13	4675
859.263	4645
859.396	4694
859.529	4588
859.662	4569
859.795	4542
859.928	4611
860.061	4771
860.194	4767
860.327	4599
860.46	4573
860.592	4679
860.725	4744
860.858	4771
860.99	4580
861.123	4535
861.256	4554
861.388	4607
861.521	5299
861.653	4504
861.786	4455
861.918	4497
862.05	4527
862.183	4550
862.315	4580
862.447	4706
862.58	4531
862.712	4413
862.844	4379
862.976	4421
863.108	4466
863.24	4896
863.372	4322
863.504	4474
863.636	4405
863.768	4489
863.9	4421
864.032	4371
864.164	4348
864.296	4554
864.428	4554
864.559	4565
864.691	4569
864.823	4550
864.954	4478
865.086	4466
865.217	4481
865.349	4390
865.48	4440
865.612	4519
865.743	4626
865.875	4481
866.006	4413
866.137	4474
866.269	4440
866.4	4436
866.531	4402
866.662	4398
866.793	4413
866.924	4409
867.055	4466
867.186	4436
867.317	4421
867.448	4436
867.579	4375
867.71	4386
867.841	4390
867.972	4497
868.103	4455
868.233	4451
868.364	4443
868.495	4455
868.625	4641
868.756	4774
868.886	4538
869.017	4599
869.147	4740
869.278	4752
869.408	4584
869.539	4656
869.669	4702
869.799	4634
869.929	4763
870.06	4714
870.19	4995
870.32	4911
870.45	4965
870.58	5003
870.71	5083
870.84	5075
870.97	4900
871.1	4942
871.23	5166
871.36	5113
871.489	5014
871.619	5086
871.749	5109
871.879	5113
872.008	5147
872.138	5048
872.267	4968
872.397	4866
872.526	4805
872.656	4706
872.785	4831
872.915	4900
873.044	5022
873.173	4946
873.303	4984
873.432	4915
873.561	4980
873.69	4896
873.819	4877
873.948	4934
874.077	4820
874.206	4828
874.335	4797
874.464	4953
874.593	5075
874.722	4991
874.851	5086
874.979	5083
875.108	5056
875.237	4942
875.365	4927
875.494	4923
875.623	4908
875.751	4805
875.88	4839
876.008	4972
876.136	5067
876.265	5132
876.393	5341
876.521	5242
876.65	5193
876.778	5162
876.906	5060
877.034	5041
877.162	5014
877.29	4930
877.418	5105
877.546	5018
877.674	4980
877.802	5041
877.93	4980
878.058	4938
878.185	4854
878.313	4927
878.441	5010
878.568	4755
878.696	4854
878.824	4965
878.951	5003
879.079	5124
879.206	5277
879.333	5151
879.461	5056
879.588	4999
879.715	5136
879.842	5216
879.97	5006
880.097	4809
880.224	4740
880.351	4752
880.478	4820
880.605	4782
880.732	4755
880.859	5064
880.986	4900
881.112	4911
881.239	4763
881.366	4672
881.493	4588
881.619	4603
881.746	4599
881.872	4649
881.999	4577
882.125	4698
882.252	4820
882.378	4820
882.505	4934
882.631	4759
882.757	4664
882.883	4759
883.01	4725
883.136	4679
883.262	4580
883.388	4622
883.514	4831
883.64	4889
883.766	4752
883.892	4675
884.018	4706
884.143	4885
884.269	4980
884.395	4698
884.52	4675
884.646	4653
884.772	4561
884.897	4569
885.023	4634
885.148	4748
885.274	4828
885.399	4786
885.524	4698
885.65	4664
885.775	4748
885.9	4679
886.025	4812
886.15	4717
886.275	4714
886.4	4683
886.525	4710
886.65	4653
886.775	4683
886.9	4934
887.025	4999
887.149	4828
887.274	4668
887.399	4538
887.523	4592
887.648	4527
887.773	4569
887.897	4752
888.021	4755
888.146	4691
888.27	4797
888.395	4900
888.519	4809
888.643	4790
888.767	4847
888.891	4653
889.015	4607
889.139	4660
889.263	4592
889.387	4721
889.511	4862
889.635	4771
889.759	4618
889.883	4649
890.006	4759
890.13	4809
890.254	4645
890.377	4721
890.501	4516
890.624	4535
890.748	4596
890.871	4485
890.995	4474
891.118	4398
891.241	4519
891.364	4580
891.488	4653
891.611	4542
891.734	4508
891.857	4584
891.98	4512
892.103	4634
892.226	4577
892.349	4527
892.471	4386
892.594	4565
892.717	4626
892.839	4573
892.962	4554
893.085	4645
893.207	4596
893.33	4459
893.452	4504
893.575	4687
893.697	4542
893.819	4744
893.941	4820
894.064	4774
894.186	4573
894.308	4535
894.43	4702
894.552	4820
894.674	4736
894.796	4538
894.918	4577
895.04	4588
895.161	4721
895.283	4618
895.405	4580
895.526	4645
895.648	4656
895.769	4675
895.891	4729
896.012	4733
896.134	4725
896.255	4668
896.376	4672
896.498	4626
896.619	4660
896.74	4569
896.861	4653
896.982	4904
897.103	5086
897.224	4797
897.345	4774
897.466	4645
897.587	4710
897.708	4828
897.828	4740
897.949	4653
898.07	4558
898.19	4584
898.311	4820
898.431	4656
898.552	4706
898.672	4831
898.792	4748
898.913	4782
899.033	4622
899.153	4504
899.273	4356
899.393	4497
899.513	4489
899.633	4538
899.753	4519
899.873	4542
899.993	4599
900.113	4485
900.232	4584
900.352	4500
900.472	4470
900.591	4424
900.711	4466
900.83	4443
900.95	4618
901.069	4694
901.189	4527
901.308	4394
901.427	4333
901.546	4394
901.665	4447
901.784	4497
901.904	4405
902.023	4295
902.141	4169
902.26	4181
902.379	4329
902.498	4261
902.617	4177
902.735	4390
902.854	4394
902.973	4310
903.091	4192
903.21	4188
903.328	4299
903.446	4257
903.565	4265
903.683	4341
903.801	4287
903.919	4367
904.038	4466
904.156	4337
904.274	4421
904.392	4413
904.51	4447
904.627	4466
904.745	4622
904.863	4603
904.981	4379
905.098	4295
905.216	4325
905.334	4436
905.451	4390
905.569	4462
905.686	4500
905.803	4558
905.921	4398
906.038	4561
906.155	4474
906.272	4383
906.389	4409
906.506	4379
906.623	4424
906.74	4348
906.857	4325
906.974	4367
907.091	4519
907.208	4702
907.324	4603
907.441	4474
907.557	4287
907.674	4344
907.79	4306
907.907	4367
908.023	4485
908.139	4470
908.256	4367
908.372	4485
908.488	4462
908.604	4409
908.72	4310
908.836	4360
908.952	4325
909.068	4474
909.184	4599
909.3	4478
909.415	4637
909.531	4546
909.647	4390
909.762	4322
909.878	4303
909.993	4424
910.108	4398
910.224	4398
910.339	4470
910.454	4405
910.57	4375
910.685	4367
910.8	4683
910.915	4588
911.03	4466
911.145	4318
911.259	4299
911.374	4329
911.489	4306
911.604	4276
911.718	4207
911.833	4227
911.947	4128
912.062	4051
912.176	4253
912.291	4204
912.405	4227
912.519	4470
912.633	4478
912.748	4363
912.862	4287
912.976	4223
913.09	4074
913.204	4204
913.318	4238
913.431	4371
913.545	4344
913.659	4462
913.772	4337
913.886	4215
914	4188
914.113	4440
914.226	4493
914.34	4394
914.453	4272
914.566	4432
914.68	4287
914.793	4306
914.906	4150
915.019	4097
915.132	4063
915.245	4166
915.358	4131
915.47	4230
915.583	4276
915.696	4291
915.809	4413
915.921	4413
916.034	4223
916.146	4207
916.259	4242
916.371	4356
916.483	4341
916.595	4280
916.708	4318
916.82	4337
916.932	4280
917.044	4284
917.156	4306
917.268	4242
917.38	4295
917.491	4280
917.603	4333
917.715	4428
917.826	4440
917.938	4333
918.049	4230
918.161	4363
918.272	4504
918.384	4546
918.495	4478
918.606	4249
918.717	4211
918.828	4284
918.939	4348
919.05	4230
919.161	4284
919.272	4135
919.383	4223
919.494	4455
919.604	4615
919.715	4413
919.826	4329
919.936	4413
920.047	4550
920.157	4512
920.267	4668
920.378	4542
920.488	4527
920.598	4702
920.708	4923
920.818	4736
920.928	4767
921.038	4900
921.148	4930
921.258	4607
921.368	4535
921.477	4466
921.587	4500
921.697	4390
921.806	4538
921.916	4375
922.025	4280
922.134	4318
922.244	4223
922.353	4310
922.462	4120
922.571	4109
922.68	4044
922.789	3972
922.898	3991
923.007	3987
923.116	4017
923.224	4010
923.333	4101
923.442	3956
923.55	3964
923.659	3998
923.767	4116
923.876	4017
923.984	4097
924.092	3972
924.201	4097
924.309	4093
924.417	4143
924.525	4044
924.633	4093
924.741	5052
924.849	3922
924.956	4090
925.064	3937
925.172	3930
925.279	3972
925.387	4040
925.494	4044
925.602	4238
925.709	4200
925.816	4071
925.924	4105
926.031	4230
926.138	4185
926.245	4166
926.352	4090
926.459	4207
926.566	4272
926.673	4166
926.779	4109
926.886	4059
926.993	3960
927.099	3949
927.206	3960
927.312	3915
927.419	4040
927.525	3987
927.631	4090
927.737	3888
927.843	3930
927.95	3816
928.056	3907
928.162	3998
928.267	4029
928.373	4588
928.479	4109
928.585	3884
928.69	4017
928.796	4059
928.901	3934
929.007	3873
929.112	3983
929.218	3964
929.323	3922
929.428	3945
929.533	4090
929.638	3945
929.743	3960
929.848	4006
929.953	3972
930.058	3964
930.163	3793
930.267	3804
930.372	3930
930.477	3850
930.581	4071
930.685	3911
930.79	3804
930.894	3888
930.998	3831
931.103	4048
931.207	3743
931.311	3705
931.415	3644
931.519	3496
931.623	3591
