Data from test_V78500241_1447.txt Node
Date: Fri Mar 25 16:59:03 CST 2022
User: usil
Spectrometer: V785-0024
Trigger mode: 0
Integration Time (sec): 4.000000E-1
Scans to average: 1
Nonlinearity correction enabled: false
Boxcar width: 0
Storing dark spectrum: false
XAxis mode: Wavelengths
Number of Pixels in Spectrum: 1024
>>>>>Begin Spectral Data<<<<<
801.071	8035
801.214	8039
801.356	8012
801.499	7841
801.641	7841
801.783	7811
801.926	7986
802.068	7963
802.211	7982
802.353	7932
802.496	7856
802.638	7932
802.78	7906
802.923	7944
803.065	7898
803.208	7875
803.35	8039
803.492	8092
803.635	8161
803.777	8096
803.919	8123
804.061	8457
804.204	8191
804.346	8115
804.488	8050
804.63	8145
804.773	8016
804.915	8103
805.057	8294
805.199	8279
805.341	8221
805.483	8259
805.626	8199
805.768	8161
805.91	8286
806.052	8191
806.194	8130
806.336	8282
806.478	8027
806.62	8073
806.762	8134
806.904	8290
807.046	8499
807.188	8389
807.33	8267
807.472	8351
807.614	8195
807.756	8149
807.898	7928
808.04	7928
808.182	7852
808.324	7875
808.465	7993
808.607	8119
808.749	8161
808.891	8206
809.033	8347
809.174	8244
809.316	8077
809.458	8096
809.6	8020
809.741	8031
809.883	8043
810.025	8123
810.166	8096
810.308	8088
810.45	8031
810.591	7944
810.733	7689
810.875	7674
811.016	7552
811.158	7533
811.299	7605
811.441	7738
811.582	7708
811.724	7552
811.865	7548
812.007	7544
812.148	7670
812.29	7677
812.431	7799
812.573	7887
812.714	7959
812.855	8157
812.997	8210
813.138	8317
813.279	8244
813.421	8084
813.562	8043
813.703	7913
813.845	7757
813.986	7457
814.127	7270
814.268	7232
814.41	7198
814.551	7209
814.692	7202
814.833	7133
814.974	7107
815.115	7164
815.256	6996
815.397	6954
815.539	6970
815.68	6867
815.821	6810
815.962	6844
816.103	6818
816.244	6681
816.385	6627
816.526	6658
816.666	6479
816.807	6262
816.948	6464
817.089	6490
817.23	6502
817.371	6380
817.512	6376
817.653	6426
817.793	6346
817.934	6460
818.075	6517
818.216	6460
818.356	6380
818.497	6228
818.638	6133
818.778	6197
818.919	6117
819.06	6121
819.2	6308
819.341	6338
819.481	6380
819.622	6582
819.762	6741
819.903	6703
820.043	6593
820.184	6585
820.324	6528
820.465	6760
820.605	6692
820.746	6673
820.886	6513
821.026	6582
821.167	6734
821.307	6764
821.447	6764
821.588	6688
821.728	6551
821.868	6490
822.008	6277
822.149	6407
822.289	6388
822.429	6201
822.569	6079
822.709	6144
822.849	5885
822.99	5950
823.13	5946
823.27	5893
823.41	5760
823.55	5802
823.69	5748
823.83	5805
823.97	5668
824.11	5532
824.25	5490
824.389	5585
824.529	5524
824.669	5528
824.809	5615
824.949	5653
825.089	5630
825.228	5589
825.368	5417
825.508	5349
825.648	5387
825.787	5337
825.927	5391
826.067	5318
826.206	5273
826.346	5368
826.485	5379
826.625	5387
826.765	5543
826.904	5516
827.044	5261
827.183	5220
827.323	5098
827.462	5231
827.601	5189
827.741	5227
827.88	5227
828.02	5147
828.159	5223
828.298	5303
828.437	5391
828.577	5235
828.716	5493
828.855	5349
828.994	5174
829.134	5174
829.273	5185
829.412	5132
829.551	5170
829.69	5178
829.829	5277
829.968	5376
830.107	5239
830.246	5261
830.385	5201
830.524	5162
830.663	5098
830.802	4938
830.941	4927
831.08	4858
831.219	4991
831.357	4991
831.496	5121
831.635	4927
831.774	4873
831.913	4904
832.051	4744
832.19	4683
832.329	4862
832.467	4694
832.606	4618
832.744	4702
832.883	4725
833.022	4763
833.16	4801
833.299	4778
833.437	4812
833.576	4858
833.714	4847
833.852	4862
833.991	4889
834.129	4980
834.267	4968
834.406	4930
834.544	4991
834.682	4976
834.821	5003
834.959	5155
835.097	4995
835.235	5143
835.373	5045
835.511	5109
835.65	5060
835.788	5010
835.926	4877
836.064	4877
836.202	4896
836.34	5170
836.478	5227
836.615	5109
836.753	5212
836.891	5284
837.029	5261
837.167	5216
837.305	5174
837.443	5132
837.58	5083
837.718	5231
837.856	5178
837.993	5121
838.131	5265
838.269	5151
838.406	5204
838.544	5155
838.681	5029
838.819	4999
838.956	4824
839.094	4915
839.231	4991
839.369	5098
839.506	5455
839.643	5273
839.781	5113
839.918	4987
840.055	5056
840.193	5060
840.33	5151
840.467	5105
840.604	5204
840.742	5398
840.879	5071
841.016	5086
841.153	5181
841.29	5364
841.427	5311
841.564	5315
841.701	5372
841.838	5277
841.975	5250
842.112	5280
842.249	5193
842.385	5121
842.522	5349
842.659	5181
842.796	5128
842.933	5193
843.069	5143
843.206	5147
843.343	5322
843.479	5223
843.616	5292
843.752	5037
843.889	5052
844.025	5197
844.162	5045
844.298	5227
844.435	5098
844.571	5102
844.708	5140
844.844	5330
844.98	5337
845.117	5292
845.253	5166
845.389	5014
845.525	5124
845.661	5166
845.798	4976
845.934	5128
846.07	5105
846.206	5220
846.342	5277
846.478	5201
846.614	5003
846.75	5014
846.886	4946
847.022	5143
847.158	5048
847.294	5041
847.429	5102
847.565	5102
847.701	5391
847.837	4824
847.972	4805
848.108	4995
848.244	4957
848.379	4778
848.515	4687
848.65	4698
848.786	4755
848.921	4740
849.057	4843
849.192	4892
849.328	4801
849.463	4873
849.598	4793
849.734	4759
849.869	4702
850.004	4607
850.14	4702
850.275	4615
850.41	4535
850.545	4561
850.68	4641
850.815	4615
850.95	4622
851.085	4839
851.22	4744
851.355	4672
851.49	4607
851.625	4592
851.76	4660
851.895	4561
852.03	4535
852.165	4672
852.299	4706
852.434	4809
852.569	4778
852.703	4812
852.838	4828
852.973	4885
853.107	4923
853.242	4725
853.376	4653
853.511	4538
853.645	4611
853.78	4778
853.914	4694
854.048	4683
854.183	4645
854.317	4744
854.451	4847
854.585	4660
854.72	4660
854.854	4702
854.988	4588
855.122	4637
855.256	4538
855.39	4645
855.524	4786
855.658	4698
855.792	4721
855.926	4763
856.06	4759
856.194	4797
856.327	4733
856.461	4660
856.595	4603
856.729	4630
856.862	4748
856.996	4653
857.13	4729
857.263	4759
857.397	4793
857.53	4637
857.664	4740
857.797	4714
857.931	4786
858.064	4672
858.197	4740
858.331	4641
858.464	4580
858.597	4493
858.731	4611
858.864	4615
858.997	4622
859.13	4641
859.263	4679
859.396	4679
859.529	4577
859.662	4592
859.795	4497
859.928	4637
860.061	4740
860.194	4740
860.327	4630
860.46	4527
860.592	4664
860.725	4721
860.858	4755
860.99	4618
861.123	4535
861.256	4580
861.388	4622
861.521	5398
861.653	4500
861.786	4432
861.918	4478
862.05	4531
862.183	4535
862.315	4584
862.447	4599
862.58	4546
862.712	4443
862.844	4295
862.976	4497
863.108	4470
863.24	4885
863.372	4325
863.504	4405
863.636	4409
863.768	4485
863.9	4440
864.032	4405
864.164	4417
864.296	4466
864.428	4535
864.559	4577
864.691	4478
864.823	4508
864.954	4508
865.086	4500
865.217	4447
865.349	4413
865.48	4470
865.612	4455
865.743	4615
865.875	4493
866.006	4436
866.137	4462
866.269	4466
866.4	4424
866.531	4409
866.662	4386
866.793	4360
866.924	4462
867.055	4481
867.186	4451
867.317	4394
867.448	4402
867.579	4363
867.71	4333
867.841	4367
867.972	4428
868.103	4440
868.233	4428
868.364	4443
868.495	4493
868.625	4672
868.756	4763
868.886	4565
869.017	4683
869.147	4816
869.278	4801
869.408	4634
869.539	4630
869.669	4714
869.799	4649
869.929	4721
870.06	4702
870.19	4946
870.32	4942
870.45	4911
870.58	4953
870.71	5029
870.84	5067
870.97	4965
871.1	4881
871.23	5185
871.36	5121
871.489	4976
871.619	5071
871.749	5109
871.879	5128
872.008	5185
872.138	5064
872.267	4995
872.397	4828
872.526	4824
872.656	4710
872.785	4797
872.915	4908
873.044	5060
873.173	4923
873.303	4972
873.432	4919
873.561	4946
873.69	4858
873.819	4919
873.948	4889
874.077	4824
874.206	4759
874.335	4782
874.464	4885
874.593	5060
874.722	4968
874.851	5075
874.979	5029
875.108	4995
875.237	4896
875.365	4881
875.494	4858
875.623	4991
875.751	4866
875.88	4885
876.008	5018
876.136	4987
876.265	5166
876.393	5277
876.521	5235
876.65	5235
876.778	5185
876.906	5064
877.034	5003
877.162	5029
877.29	5014
877.418	5060
877.546	4999
877.674	4995
877.802	4949
877.93	5060
878.058	4915
878.185	4831
878.313	4976
878.441	4946
878.568	4786
878.696	4885
878.824	4976
878.951	5045
879.079	5079
879.206	5223
879.333	5048
879.461	4968
879.588	4949
879.715	5128
879.842	5231
879.97	5048
880.097	4805
880.224	4721
880.351	4824
880.478	4877
880.605	4801
880.732	4812
880.859	5090
880.986	4873
881.112	4919
881.239	4748
881.366	4668
881.493	4622
881.619	4626
881.746	4622
881.872	4630
881.999	4615
882.125	4683
882.252	4748
882.378	4763
882.505	4991
882.631	4763
882.757	4626
882.883	4714
883.01	4778
883.136	4668
883.262	4580
883.388	4649
883.514	4767
883.64	4881
883.766	4763
883.892	4672
884.018	4694
884.143	4900
884.269	4980
884.395	4599
884.52	4615
884.646	4637
884.772	4618
884.897	4561
885.023	4622
885.148	4805
885.274	4839
885.399	4805
885.524	4767
885.65	4706
885.775	4694
885.9	4740
886.025	4805
886.15	4801
886.275	4740
886.4	4634
886.525	4710
886.65	4626
886.775	4698
886.9	4881
887.025	5014
887.149	4774
887.274	4679
887.399	4588
887.523	4618
887.648	4611
887.773	4580
887.897	4752
888.021	4755
888.146	4710
888.27	4778
888.395	4957
888.519	4790
888.643	4812
888.767	4763
888.891	4683
889.015	4588
889.139	4649
889.263	4596
889.387	4717
889.511	4889
889.635	4809
889.759	4607
889.883	4588
890.006	4660
890.13	4835
890.254	4626
890.377	4683
890.501	4584
890.624	4485
890.748	4626
890.871	4485
890.995	4428
891.118	4386
891.241	4546
891.364	4561
891.488	4618
891.611	4481
891.734	4558
891.857	4588
891.98	4531
892.103	4660
892.226	4580
892.349	4519
892.471	4409
892.594	4531
892.717	4584
892.839	4558
892.962	4603
893.085	4668
893.207	4584
893.33	4459
893.452	4489
893.575	4649
893.697	4565
893.819	4793
893.941	4850
894.064	4820
894.186	4603
894.308	4565
894.43	4744
894.552	4782
894.674	4744
894.796	4550
894.918	4596
895.04	4573
895.161	4683
895.283	4656
895.405	4550
895.526	4626
895.648	4656
895.769	4634
895.891	4744
896.012	4736
896.134	4687
896.255	4630
896.376	4603
896.498	4618
896.619	4637
896.74	4573
896.861	4637
896.982	4900
897.103	5083
897.224	4812
897.345	4725
897.466	4672
897.587	4672
897.708	4862
897.828	4752
897.949	4691
898.07	4561
898.19	4596
898.311	4790
898.431	4702
898.552	4714
898.672	4809
898.792	4816
898.913	4717
899.033	4599
899.153	4481
899.273	4424
899.393	4493
899.513	4546
899.633	4500
899.753	4558
899.873	4485
899.993	4538
900.113	4478
900.232	4588
900.352	4546
900.472	4451
900.591	4386
900.711	4459
900.83	4459
900.95	4565
901.069	4653
901.189	4554
901.308	4352
901.427	4329
901.546	4341
901.665	4500
901.784	4508
901.904	4375
902.023	4318
902.141	4204
902.26	4154
902.379	4299
902.498	4272
902.617	4242
902.735	4360
902.854	4371
902.973	4344
903.091	4234
903.21	4192
903.328	4299
903.446	4272
903.565	4230
903.683	4337
903.801	4249
903.919	4402
904.038	4459
904.156	4337
904.274	4436
904.392	4375
904.51	4424
904.627	4436
904.745	4565
904.863	4634
904.981	4383
905.098	4265
905.216	4375
905.334	4417
905.451	4455
905.569	4417
905.686	4561
905.803	4554
905.921	4417
906.038	4615
906.155	4459
906.272	4379
906.389	4432
906.506	4341
906.623	4360
906.74	4375
906.857	4291
906.974	4386
907.091	4538
907.208	4664
907.324	4577
907.441	4474
907.557	4341
907.674	4352
907.79	4303
907.907	4402
908.023	4474
908.139	4432
908.256	4428
908.372	4443
908.488	4428
908.604	4367
908.72	4333
908.836	4379
908.952	4344
909.068	4417
909.184	4561
909.3	4474
909.415	4569
909.531	4497
909.647	4402
909.762	4409
909.878	4394
909.993	4462
910.108	4348
910.224	4402
910.339	4470
910.454	4409
910.57	4341
910.685	4249
910.8	4622
910.915	4558
911.03	4504
911.145	4352
911.259	4356
911.374	4375
911.489	4265
911.604	4257
911.718	4147
911.833	4162
911.947	4082
912.062	4040
912.176	4207
912.291	4257
912.405	4223
912.519	4459
912.633	4470
912.748	4322
912.862	4322
912.976	4192
913.09	4082
913.204	4166
913.318	4238
913.431	4360
913.545	4356
913.659	4405
913.772	4356
913.886	4246
914	4181
914.113	4356
914.226	4443
914.34	4375
914.453	4268
914.566	4455
914.68	4291
914.793	4333
914.906	4169
915.019	4105
915.132	4067
915.245	4185
915.358	4200
915.47	4261
915.583	4272
915.696	4257
915.809	4432
915.921	4386
916.034	4257
916.146	4211
916.259	4215
916.371	4363
916.483	4394
916.595	4230
916.708	4295
916.82	4322
916.932	4310
917.044	4341
917.156	4276
917.268	4230
917.38	4295
917.491	4207
917.603	4295
917.715	4466
917.826	4424
917.938	4314
918.049	4219
918.161	4394
918.272	4466
918.384	4531
918.495	4436
918.606	4291
918.717	4253
918.828	4348
918.939	4360
919.05	4246
919.161	4295
919.272	4101
919.383	4188
919.494	4459
919.604	4653
919.715	4398
919.826	4337
919.936	4417
920.047	4580
920.157	4489
920.267	4744
920.378	4538
920.488	4489
920.598	4717
920.708	4873
920.818	4786
920.928	4736
921.038	4995
921.148	4942
921.258	4637
921.368	4584
921.477	4478
921.587	4402
921.697	4363
921.806	4546
921.916	4440
922.025	4249
922.134	4257
922.244	4238
922.353	4341
922.462	4150
922.571	4086
922.68	4002
922.789	3983
922.898	4010
923.007	3972
923.116	4105
923.224	4032
923.333	4093
923.442	3991
923.55	3979
923.659	4036
923.767	4048
923.876	3979
923.984	4093
924.092	3987
924.201	4044
924.309	4086
924.417	4116
924.525	4010
924.633	4112
924.741	5067
924.849	3907
924.956	4128
925.064	3934
925.172	3892
925.279	3972
925.387	4059
925.494	4071
925.602	4272
925.709	4177
925.816	3987
925.924	4154
926.031	4211
926.138	4139
926.245	4192
926.352	4071
926.459	4223
926.566	4227
926.673	4143
926.779	4048
926.886	4078
926.993	3949
927.099	3926
927.206	3945
927.312	3964
927.419	4067
927.525	4036
927.631	4078
927.737	3960
927.843	3937
927.95	3835
928.056	3930
928.162	3987
928.267	3994
928.373	4569
928.479	4120
928.585	3907
928.69	4055
928.796	4074
928.901	3968
929.007	3816
929.112	3968
929.218	4021
929.323	3934
929.428	3941
929.533	4116
929.638	3907
929.743	3949
929.848	4017
929.953	3994
930.058	3934
930.163	3785
930.267	3804
930.372	3949
930.477	3800
930.581	4059
930.685	3915
930.79	3793
930.894	3888
930.998	3873
931.103	4029
931.207	3743
931.311	3656
931.415	3667
931.519	3504
931.623	3549
