Data from test_V78500241_915.txt Node
Date: Fri Mar 25 16:55:21 CST 2022
User: usil
Spectrometer: V785-0024
Trigger mode: 0
Integration Time (sec): 4.000000E-1
Scans to average: 1
Nonlinearity correction enabled: false
Boxcar width: 0
Storing dark spectrum: false
XAxis mode: Wavelengths
Number of Pixels in Spectrum: 1024
>>>>>Begin Spectral Data<<<<<
801.071	8001
801.214	8054
801.356	7887
801.499	7932
801.641	7780
801.783	7818
801.926	8001
802.068	7955
802.211	7894
802.353	7959
802.496	7833
802.638	7856
802.78	7890
802.923	7913
803.065	7887
803.208	7928
803.35	8103
803.492	8081
803.635	8126
803.777	7978
803.919	8103
804.061	8404
804.204	8126
804.346	7989
804.488	7986
804.63	8096
804.773	8005
804.915	8130
805.057	8305
805.199	8119
805.341	8240
805.483	8210
805.626	8210
805.768	8138
805.91	8126
806.052	8161
806.194	8107
806.336	8271
806.478	7978
806.62	8096
806.762	8107
806.904	8221
807.046	8511
807.188	8385
807.33	8313
807.472	8286
807.614	8142
807.756	8157
807.898	8008
808.04	7894
808.182	7875
808.324	7826
808.465	7936
808.607	7997
808.749	8058
808.891	8180
809.033	8275
809.174	8252
809.316	7986
809.458	8054
809.6	7963
809.741	8054
809.883	8065
810.025	8096
810.166	8024
810.308	7986
810.45	8016
810.591	7894
810.733	7757
810.875	7624
811.016	7514
811.158	7499
811.299	7518
811.441	7666
811.582	7681
811.724	7601
811.865	7449
812.007	7594
812.148	7590
812.29	7632
812.431	7719
812.573	7883
812.714	7986
812.855	8195
812.997	8206
813.138	8282
813.279	8183
813.421	8103
813.562	8058
813.703	7860
813.845	7788
813.986	7457
814.127	7263
814.268	7221
814.41	7194
814.551	7091
814.692	7126
814.833	7034
814.974	7091
815.115	7053
815.256	6935
815.397	6920
815.539	7015
815.68	6764
815.821	6772
815.962	6916
816.103	6776
816.244	6681
816.385	6620
816.526	6593
816.666	6460
816.807	6270
816.948	6403
817.089	6456
817.23	6448
817.371	6414
817.512	6464
817.653	6384
817.793	6391
817.934	6464
818.075	6395
818.216	6365
818.356	6391
818.497	6213
818.638	6117
818.778	6159
818.919	6102
819.06	6125
819.2	6357
819.341	6327
819.481	6365
819.622	6441
819.762	6726
819.903	6673
820.043	6604
820.184	6483
820.324	6566
820.465	6646
820.605	6639
820.746	6665
820.886	6460
821.026	6589
821.167	6684
821.307	6795
821.447	6791
821.588	6658
821.728	6597
821.868	6410
822.008	6300
822.149	6365
822.289	6350
822.429	6110
822.569	6068
822.709	6106
822.849	5893
822.99	5920
823.13	5927
823.27	5882
823.41	5786
823.55	5741
823.69	5764
823.83	5783
823.97	5589
824.11	5547
824.25	5486
824.389	5570
824.529	5562
824.669	5509
824.809	5638
824.949	5634
825.089	5589
825.228	5509
825.368	5337
825.508	5326
825.648	5318
825.787	5360
825.927	5379
826.067	5318
826.206	5337
826.346	5372
826.485	5353
826.625	5360
826.765	5554
826.904	5505
827.044	5242
827.183	5178
827.323	5155
827.462	5201
827.601	5159
827.741	5178
827.88	5189
828.02	5086
828.159	5181
828.298	5265
828.437	5292
828.577	5254
828.716	5467
828.855	5288
828.994	5143
829.134	5162
829.273	5197
829.412	5121
829.551	5147
829.69	5075
829.829	5220
829.968	5379
830.107	5254
830.246	5254
830.385	5140
830.524	5117
830.663	5128
830.802	5037
830.941	4866
831.08	4904
831.219	4953
831.357	4961
831.496	5178
831.635	4866
831.774	4835
831.913	4839
832.051	4755
832.19	4755
832.329	4820
832.467	4691
832.606	4611
832.744	4660
832.883	4740
833.022	4645
833.16	4790
833.299	4786
833.437	4831
833.576	4782
833.714	4835
833.852	4843
833.991	4839
834.129	4949
834.267	4896
834.406	4911
834.544	5018
834.682	4942
834.821	4942
834.959	5155
835.097	4984
835.235	5117
835.373	5071
835.511	5113
835.65	5045
835.788	5003
835.926	4904
836.064	4816
836.202	4908
836.34	5121
836.478	5231
836.615	5140
836.753	5166
836.891	5288
837.029	5223
837.167	5189
837.305	5162
837.443	5181
837.58	5052
837.718	5231
837.856	5193
837.993	5166
838.131	5212
838.269	5151
838.406	5151
838.544	5212
838.681	5018
838.819	5014
838.956	4919
839.094	4889
839.231	4972
839.369	5105
839.506	5436
839.643	5220
839.781	5052
839.918	4949
840.055	5075
840.193	5083
840.33	5067
840.467	5162
840.604	5220
840.742	5402
840.879	5105
841.016	5033
841.153	5155
841.29	5364
841.427	5334
841.564	5292
841.701	5250
841.838	5269
841.975	5220
842.112	5322
842.249	5109
842.385	5151
842.522	5288
842.659	5102
842.796	5147
842.933	5189
843.069	5162
843.206	5128
843.343	5280
843.479	5250
843.616	5284
843.752	5060
843.889	4953
844.025	5204
844.162	4961
844.298	5155
844.435	5060
844.571	5025
844.708	5174
844.844	5246
844.98	5311
845.117	5296
845.253	5102
845.389	5067
845.525	5117
845.661	5075
845.798	5025
845.934	5132
846.07	5056
846.206	5155
846.342	5239
846.478	5121
846.614	5003
846.75	4972
846.886	4938
847.022	5140
847.158	5014
847.294	5003
847.429	5117
847.565	5064
847.701	5288
847.837	4858
847.972	4816
848.108	4915
848.244	4930
848.379	4740
848.515	4759
848.65	4714
848.786	4744
848.921	4755
849.057	4843
849.192	4881
849.328	4733
849.463	4831
849.598	4755
849.734	4774
849.869	4637
850.004	4618
850.14	4656
850.275	4596
850.41	4527
850.545	4554
850.68	4554
850.815	4565
850.95	4618
851.085	4763
851.22	4725
851.355	4649
851.49	4637
851.625	4630
851.76	4626
851.895	4580
852.03	4512
852.165	4626
852.299	4710
852.434	4778
852.569	4660
852.703	4774
852.838	4809
852.973	4889
853.107	4892
853.242	4691
853.376	4656
853.511	4565
853.645	4653
853.78	4763
853.914	4687
854.048	4607
854.183	4626
854.317	4691
854.451	4843
854.585	4653
854.72	4641
854.854	4752
854.988	4607
855.122	4622
855.256	4497
855.39	4607
855.524	4740
855.658	4706
855.792	4710
855.926	4698
856.06	4714
856.194	4782
856.327	4694
856.461	4580
856.595	4660
856.729	4634
856.862	4710
856.996	4694
857.13	4736
857.263	4733
857.397	4824
857.53	4634
857.664	4675
857.797	4733
857.931	4767
858.064	4702
858.197	4733
858.331	4622
858.464	4603
858.597	4546
858.731	4615
858.864	4611
858.997	4596
859.13	4622
859.263	4626
859.396	4645
859.529	4573
859.662	4546
859.795	4451
859.928	4599
860.061	4752
860.194	4790
860.327	4561
860.46	4478
860.592	4748
860.725	4725
860.858	4687
860.99	4519
861.123	4538
861.256	4497
861.388	4603
861.521	5128
861.653	4497
861.786	4421
861.918	4447
862.05	4527
862.183	4561
862.315	4588
862.447	4618
862.58	4535
862.712	4436
862.844	4371
862.976	4440
863.108	4428
863.24	4702
863.372	4318
863.504	4386
863.636	4394
863.768	4462
863.9	4402
864.032	4394
864.164	4402
864.296	4485
864.428	4535
864.559	4538
864.691	4462
864.823	4516
864.954	4462
865.086	4489
865.217	4500
865.349	4375
865.48	4436
865.612	4455
865.743	4637
865.875	4440
866.006	4421
866.137	4417
866.269	4481
866.4	4451
866.531	4417
866.662	4432
866.793	4360
866.924	4360
867.055	4512
867.186	4470
867.317	4375
867.448	4344
867.579	4390
867.71	4383
867.841	4337
867.972	4443
868.103	4443
868.233	4455
868.364	4447
868.495	4443
868.625	4668
868.756	4714
868.886	4535
869.017	4580
869.147	4748
869.278	4752
869.408	4611
869.539	4653
869.669	4721
869.799	4634
869.929	4767
870.06	4702
870.19	4961
870.32	4892
870.45	4927
870.58	4987
870.71	5083
870.84	5067
870.97	4999
871.1	4896
871.23	5083
871.36	5090
871.489	5010
871.619	5041
871.749	5136
871.879	5204
872.008	5166
872.138	5079
872.267	4961
872.397	4793
872.526	4733
872.656	4736
872.785	4797
872.915	4934
873.044	5029
873.173	4942
873.303	4949
873.432	4995
873.561	4949
873.69	4896
873.819	4862
873.948	4919
874.077	4786
874.206	4736
874.335	4790
874.464	4900
874.593	5025
874.722	4911
874.851	5086
874.979	5025
875.108	4965
875.237	4911
875.365	4843
875.494	4892
875.623	4927
875.751	4763
875.88	4820
876.008	4980
876.136	5052
876.265	5170
876.393	5303
876.521	5265
876.65	5197
876.778	5147
876.906	5109
877.034	5029
877.162	5010
877.29	4949
877.418	5056
877.546	5052
877.674	5037
877.802	5029
877.93	4991
878.058	4919
878.185	4843
878.313	4961
878.441	4949
878.568	4824
878.696	4870
878.824	4923
878.951	5025
879.079	5162
879.206	5231
879.333	5083
879.461	5014
879.588	4991
879.715	5109
879.842	5277
879.97	4976
880.097	4759
880.224	4721
880.351	4790
880.478	4828
880.605	4793
880.732	4812
880.859	5060
880.986	4873
881.112	4908
881.239	4733
881.366	4672
881.493	4584
881.619	4546
881.746	4580
881.872	4615
881.999	4725
882.125	4672
882.252	4809
882.378	4820
882.505	4949
882.631	4805
882.757	4672
882.883	4755
883.01	4702
883.136	4588
883.262	4584
883.388	4618
883.514	4805
883.64	4839
883.766	4759
883.892	4691
884.018	4656
884.143	4911
884.269	4980
884.395	4702
884.52	4615
884.646	4599
884.772	4630
884.897	4580
885.023	4611
885.148	4729
885.274	4816
885.399	4831
885.524	4694
885.65	4668
885.775	4748
885.9	4694
886.025	4862
886.15	4790
886.275	4710
886.4	4641
886.525	4733
886.65	4714
886.775	4687
886.9	4885
887.025	5010
887.149	4809
887.274	4683
887.399	4599
887.523	4554
887.648	4535
887.773	4561
887.897	4736
888.021	4793
888.146	4675
888.27	4816
888.395	4900
888.519	4744
888.643	4873
888.767	4771
888.891	4641
889.015	4546
889.139	4683
889.263	4577
889.387	4725
889.511	4885
889.635	4809
889.759	4573
889.883	4630
890.006	4714
890.13	4854
890.254	4596
890.377	4645
890.501	4523
890.624	4569
890.748	4618
890.871	4550
890.995	4443
891.118	4383
891.241	4535
891.364	4535
891.488	4637
891.611	4470
891.734	4485
891.857	4588
891.98	4493
892.103	4641
892.226	4599
892.349	4504
892.471	4428
892.594	4523
892.717	4538
892.839	4603
892.962	4573
893.085	4637
893.207	4596
893.33	4459
893.452	4542
893.575	4656
893.697	4584
893.819	4763
893.941	4801
894.064	4793
894.186	4561
894.308	4546
894.43	4752
894.552	4778
894.674	4809
894.796	4531
894.918	4599
895.04	4523
895.161	4702
895.283	4653
895.405	4527
895.526	4580
895.648	4679
895.769	4694
895.891	4660
896.012	4752
896.134	4740
896.255	4664
896.376	4622
896.498	4645
896.619	4672
896.74	4615
896.861	4626
896.982	4919
897.103	5067
897.224	4831
897.345	4774
897.466	4664
897.587	4634
897.708	4820
897.828	4797
897.949	4618
898.07	4527
898.19	4607
898.311	4862
898.431	4630
898.552	4702
898.672	4805
898.792	4752
898.913	4733
899.033	4641
899.153	4516
899.273	4398
899.393	4455
899.513	4523
899.633	4516
899.753	4519
899.873	4478
899.993	4538
900.113	4512
900.232	4577
900.352	4531
900.472	4417
900.591	4348
900.711	4497
900.83	4428
900.95	4637
901.069	4660
901.189	4527
901.308	4310
901.427	4261
901.546	4348
901.665	4481
901.784	4516
901.904	4363
902.023	4306
902.141	4177
902.26	4204
902.379	4344
902.498	4242
902.617	4242
902.735	4390
902.854	4337
902.973	4367
903.091	4181
903.21	4207
903.328	4268
903.446	4253
903.565	4242
903.683	4318
903.801	4268
903.919	4379
904.038	4421
904.156	4291
904.274	4421
904.392	4394
904.51	4421
904.627	4421
904.745	4573
904.863	4645
904.981	4379
905.098	4299
905.216	4314
905.334	4417
905.451	4360
905.569	4424
905.686	4474
905.803	4569
905.921	4459
906.038	4554
906.155	4474
906.272	4367
906.389	4493
906.506	4314
906.623	4383
906.74	4318
906.857	4291
906.974	4371
907.091	4546
907.208	4694
907.324	4584
907.441	4519
907.557	4333
907.674	4322
907.79	4314
907.907	4390
908.023	4493
908.139	4474
908.256	4440
908.372	4470
908.488	4478
908.604	4325
908.72	4314
908.836	4379
908.952	4371
909.068	4428
909.184	4508
909.3	4481
909.415	4577
909.531	4538
909.647	4329
909.762	4409
909.878	4337
909.993	4432
910.108	4405
910.224	4409
910.339	4428
910.454	4386
910.57	4360
910.685	4295
910.8	4668
910.915	4599
911.03	4451
911.145	4287
911.259	4322
911.374	4356
911.489	4268
911.604	4299
911.718	4143
911.833	4169
911.947	4048
912.062	4025
912.176	4223
912.291	4242
912.405	4219
912.519	4466
912.633	4516
912.748	4371
912.862	4291
912.976	4219
913.09	4074
913.204	4196
913.318	4249
913.431	4375
913.545	4383
913.659	4409
913.772	4344
913.886	4238
914	4227
914.113	4356
914.226	4390
914.34	4398
914.453	4234
914.566	4409
914.68	4318
914.793	4291
914.906	4139
915.019	4067
915.132	4074
915.245	4169
915.358	4211
915.47	4204
915.583	4238
915.696	4318
915.809	4390
915.921	4459
916.034	4268
916.146	4272
916.259	4177
916.371	4337
916.483	4383
916.595	4234
916.708	4341
916.82	4207
916.932	4257
917.044	4287
917.156	4246
917.268	4211
917.38	4322
917.491	4261
917.603	4291
917.715	4402
917.826	4417
917.938	4322
918.049	4238
918.161	4409
918.272	4523
918.384	4497
918.495	4455
918.606	4268
918.717	4215
918.828	4333
918.939	4375
919.05	4268
919.161	4268
919.272	4154
919.383	4227
919.494	4432
919.604	4611
919.715	4436
919.826	4344
919.936	4371
920.047	4474
920.157	4462
920.267	4675
920.378	4558
920.488	4508
920.598	4691
920.708	4850
920.818	4782
920.928	4767
921.038	4915
921.148	4896
921.258	4626
921.368	4565
921.477	4516
921.587	4485
921.697	4314
921.806	4542
921.916	4440
922.025	4253
922.134	4246
922.244	4234
922.353	4280
922.462	4150
922.571	4147
922.68	4013
922.789	4017
922.898	4017
923.007	3964
923.116	4105
923.224	4040
923.333	4055
923.442	4025
923.55	3991
923.659	4010
923.767	4090
923.876	3968
923.984	4135
924.092	4010
924.201	4059
924.309	4090
924.417	4124
924.525	4040
924.633	4067
924.741	4862
924.849	3915
924.956	4090
925.064	3934
925.172	3903
925.279	3949
925.387	4029
925.494	3998
925.602	4181
925.709	4135
925.816	4021
925.924	4124
926.031	4253
926.138	4143
926.245	4181
926.352	4109
926.459	4249
926.566	4322
926.673	4131
926.779	4071
926.886	4105
926.993	3983
927.099	3998
927.206	3953
927.312	3911
927.419	4013
927.525	4044
927.631	4074
927.737	3964
927.843	3964
927.95	3827
928.056	3968
928.162	3998
928.267	4021
928.373	4603
928.479	4120
928.585	3861
928.69	3994
928.796	4097
928.901	3941
929.007	3857
929.112	3987
929.218	3964
929.323	3892
929.428	3934
929.533	4109
929.638	3903
929.743	3975
929.848	4029
929.953	3983
930.058	3918
930.163	3770
930.267	3835
930.372	3949
930.477	3797
930.581	4051
930.685	3896
930.79	3846
930.894	3903
930.998	3838
931.103	4044
931.207	3751
931.311	3701
931.415	3641
931.519	3561
931.623	3557
