Data from test_V78500241_1217.txt Node
Date: Fri Mar 25 16:57:27 CST 2022
User: usil
Spectrometer: V785-0024
Trigger mode: 0
Integration Time (sec): 4.000000E-1
Scans to average: 1
Nonlinearity correction enabled: false
Boxcar width: 0
Storing dark spectrum: false
XAxis mode: Wavelengths
Number of Pixels in Spectrum: 1024
>>>>>Begin Spectral Data<<<<<
801.071	7989
801.214	8027
801.356	7928
801.499	7887
801.641	7769
801.783	7799
801.926	7932
802.068	7890
802.211	8001
802.353	7898
802.496	7913
802.638	7856
802.78	7909
802.923	7906
803.065	7845
803.208	7788
803.35	7947
803.492	8020
803.635	8111
803.777	8054
803.919	8088
804.061	8434
804.204	8195
804.346	8062
804.488	8016
804.63	8062
804.773	8043
804.915	8092
805.057	8275
805.199	8157
805.341	8202
805.483	8218
805.626	8240
805.768	8123
805.91	8218
806.052	8134
806.194	8142
806.336	8279
806.478	8126
806.62	8058
806.762	8088
806.904	8336
807.046	8454
807.188	8317
807.33	8305
807.472	8324
807.614	8100
807.756	8107
807.898	8084
808.04	7925
808.182	7925
808.324	7860
808.465	7951
808.607	8088
808.749	8123
808.891	8187
809.033	8294
809.174	8161
809.316	8077
809.458	8031
809.6	8031
809.741	8020
809.883	8001
810.025	8016
810.166	8073
810.308	8058
810.45	7951
810.591	7837
810.733	7727
810.875	7696
811.016	7578
811.158	7518
811.299	7605
811.441	7578
811.582	7639
811.724	7616
811.865	7457
812.007	7552
812.148	7571
812.29	7662
812.431	7734
812.573	7814
812.714	8024
812.855	8077
812.997	8233
813.138	8324
813.279	8244
813.421	8077
813.562	8008
813.703	7883
813.845	7772
813.986	7487
814.127	7206
814.268	7206
814.41	7221
814.551	7110
814.692	7206
814.833	7126
814.974	7133
815.115	7076
815.256	6939
815.397	6928
815.539	6935
815.68	6852
815.821	6757
815.962	6859
816.103	6776
816.244	6719
816.385	6612
816.526	6616
816.666	6532
816.807	6277
816.948	6403
817.089	6521
817.23	6395
817.371	6369
817.512	6388
817.653	6384
817.793	6338
817.934	6388
818.075	6437
818.216	6391
818.356	6414
818.497	6228
818.638	6091
818.778	6140
818.919	6057
819.06	6182
819.2	6315
819.341	6342
819.481	6334
819.622	6509
819.762	6738
819.903	6703
820.043	6604
820.184	6517
820.324	6563
820.465	6662
820.605	6665
820.746	6662
820.886	6494
821.026	6627
821.167	6597
821.307	6791
821.447	6726
821.588	6719
821.728	6486
821.868	6502
822.008	6327
822.149	6331
822.289	6334
822.429	6213
822.569	6049
822.709	6079
822.849	5916
822.99	5889
823.13	5916
823.27	5912
823.41	5798
823.55	5771
823.69	5745
823.83	5798
823.97	5710
824.11	5478
824.25	5516
824.389	5577
824.529	5551
824.669	5520
824.809	5672
824.949	5619
825.089	5585
825.228	5554
825.368	5349
825.508	5349
825.648	5326
825.787	5402
825.927	5296
826.067	5277
826.206	5273
826.346	5353
826.485	5387
826.625	5368
826.765	5562
826.904	5444
827.044	5212
827.183	5162
827.323	5102
827.462	5231
827.601	5189
827.741	5212
827.88	5258
828.02	5098
828.159	5242
828.298	5311
828.437	5360
828.577	5269
828.716	5528
828.855	5315
828.994	5155
829.134	5170
829.273	5147
829.412	5155
829.551	5136
829.69	5147
829.829	5216
829.968	5383
830.107	5231
830.246	5235
830.385	5136
830.524	5113
830.663	5018
830.802	4942
830.941	4911
831.08	4889
831.219	4946
831.357	4949
831.496	5140
831.635	4934
831.774	4854
831.913	4805
832.051	4752
832.19	4774
832.329	4839
832.467	4706
832.606	4592
832.744	4740
832.883	4649
833.022	4717
833.16	4748
833.299	4767
833.437	4793
833.576	4835
833.714	4862
833.852	4866
833.991	4828
834.129	4976
834.267	4946
834.406	4866
834.544	4923
834.682	4987
834.821	4965
834.959	5159
835.097	4972
835.235	5105
835.373	5094
835.511	5060
835.65	4968
835.788	5029
835.926	4896
836.064	4820
836.202	4942
836.34	5159
836.478	5189
836.615	5102
836.753	5189
836.891	5269
837.029	5235
837.167	5185
837.305	5102
837.443	5113
837.58	5098
837.718	5204
837.856	5140
837.993	5208
838.131	5254
838.269	5185
838.406	5185
838.544	5181
838.681	5048
838.819	5060
838.956	4873
839.094	4877
839.231	4987
839.369	5083
839.506	5360
839.643	5216
839.781	5045
839.918	5003
840.055	5113
840.193	5075
840.33	5117
840.467	5143
840.604	5231
840.742	5433
840.879	5086
841.016	5041
841.153	5143
841.29	5406
841.427	5349
841.564	5357
841.701	5364
841.838	5220
841.975	5208
842.112	5250
842.249	5162
842.385	5117
842.522	5322
842.659	5128
842.796	5143
842.933	5193
843.069	5071
843.206	5193
843.343	5246
843.479	5303
843.616	5277
843.752	5033
843.889	5018
844.025	5170
844.162	5052
844.298	5216
844.435	5083
844.571	5018
844.708	5212
844.844	5299
844.98	5311
845.117	5292
845.253	5105
845.389	5060
845.525	5136
845.661	5147
845.798	4972
845.934	5060
846.07	5056
846.206	5216
846.342	5258
846.478	5170
846.614	5029
846.75	4968
846.886	4911
847.022	5086
847.158	5022
847.294	5079
847.429	5132
847.565	5025
847.701	5341
847.837	4866
847.972	4778
848.108	4949
848.244	4946
848.379	4740
848.515	4721
848.65	4736
848.786	4767
848.921	4744
849.057	4858
849.192	4904
849.328	4831
849.463	4816
849.598	4793
849.734	4767
849.869	4679
850.004	4645
850.14	4675
850.275	4603
850.41	4500
850.545	4569
850.68	4611
850.815	4611
850.95	4618
851.085	4824
851.22	4702
851.355	4664
851.49	4656
851.625	4592
851.76	4649
851.895	4512
852.03	4561
852.165	4618
852.299	4683
852.434	4759
852.569	4733
852.703	4755
852.838	4850
852.973	4938
853.107	4942
853.242	4694
853.376	4672
853.511	4504
853.645	4599
853.78	4809
853.914	4630
854.048	4607
854.183	4615
854.317	4740
854.451	4843
854.585	4656
854.72	4645
854.854	4725
854.988	4561
855.122	4645
855.256	4497
855.39	4645
855.524	4717
855.658	4721
855.792	4672
855.926	4721
856.06	4763
856.194	4828
856.327	4710
856.461	4607
856.595	4599
856.729	4630
856.862	4744
856.996	4672
857.13	4729
857.263	4740
857.397	4755
857.53	4653
857.664	4725
857.797	4752
857.931	4774
858.064	4645
858.197	4744
858.331	4664
858.464	4603
858.597	4485
858.731	4626
858.864	4683
858.997	4558
859.13	4641
859.263	4675
859.396	4664
859.529	4588
859.662	4580
859.795	4561
859.928	4641
860.061	4774
860.194	4759
860.327	4641
860.46	4508
860.592	4668
860.725	4744
860.858	4710
860.99	4599
861.123	4519
861.256	4527
861.388	4588
861.521	5311
861.653	4512
861.786	4462
861.918	4459
862.05	4474
862.183	4485
862.315	4634
862.447	4675
862.58	4535
862.712	4390
862.844	4284
862.976	4447
863.108	4451
863.24	4847
863.372	4329
863.504	4428
863.636	4367
863.768	4485
863.9	4405
864.032	4352
864.164	4386
864.296	4443
864.428	4519
864.559	4531
864.691	4478
864.823	4512
864.954	4527
865.086	4470
865.217	4417
865.349	4417
865.48	4421
865.612	4474
865.743	4588
865.875	4459
866.006	4409
866.137	4432
866.269	4478
866.4	4390
866.531	4386
866.662	4341
866.793	4348
866.924	4394
867.055	4466
867.186	4459
867.317	4405
867.448	4375
867.579	4337
867.71	4443
867.841	4413
867.972	4394
868.103	4428
868.233	4432
868.364	4436
868.495	4489
868.625	4615
868.756	4729
868.886	4527
869.017	4630
869.147	4717
869.278	4786
869.408	4687
869.539	4691
869.669	4706
869.799	4634
869.929	4733
870.06	4786
870.19	4968
870.32	4892
870.45	4961
870.58	5003
870.71	5056
870.84	5086
870.97	4934
871.1	4847
871.23	5124
871.36	5109
871.489	4968
871.619	5060
871.749	5090
871.879	5079
872.008	5174
872.138	5056
872.267	4953
872.397	4862
872.526	4790
872.656	4729
872.785	4759
872.915	4919
873.044	5014
873.173	4938
873.303	4961
873.432	4889
873.561	4953
873.69	4854
873.819	4870
873.948	4881
874.077	4812
874.206	4740
874.335	4828
874.464	4938
874.593	5052
874.722	4961
874.851	5056
874.979	5056
875.108	5064
875.237	4915
875.365	4820
875.494	4881
875.623	4942
875.751	4805
875.88	4961
876.008	4915
876.136	5010
876.265	5140
876.393	5379
876.521	5261
876.65	5269
876.778	5143
876.906	5090
877.034	4961
877.162	5067
877.29	5018
877.418	5060
877.546	4987
877.674	5033
877.802	5006
877.93	5003
878.058	4904
878.185	4881
878.313	4965
878.441	4968
878.568	4828
878.696	4885
878.824	4889
878.951	4972
879.079	5083
879.206	5296
879.333	5117
879.461	4976
879.588	4961
879.715	5128
879.842	5143
879.97	4968
880.097	4816
880.224	4717
880.351	4755
880.478	4812
880.605	4793
880.732	4767
880.859	5075
880.986	4908
881.112	4873
881.239	4771
881.366	4675
881.493	4592
881.619	4535
881.746	4630
881.872	4672
881.999	4653
882.125	4641
882.252	4740
882.378	4790
882.505	4923
882.631	4771
882.757	4675
882.883	4717
883.01	4759
883.136	4679
883.262	4603
883.388	4584
883.514	4793
883.64	4862
883.766	4786
883.892	4649
884.018	4714
884.143	4847
884.269	4995
884.395	4611
884.52	4603
884.646	4611
884.772	4607
884.897	4561
885.023	4618
885.148	4782
885.274	4904
885.399	4809
885.524	4694
885.65	4687
885.775	4710
885.9	4679
886.025	4873
886.15	4801
886.275	4744
886.4	4634
886.525	4691
886.65	4710
886.775	4702
886.9	4881
887.025	5006
887.149	4801
887.274	4649
887.399	4565
887.523	4607
887.648	4561
887.773	4561
887.897	4733
888.021	4763
888.146	4634
888.27	4828
888.395	4866
888.519	4793
888.643	4805
888.767	4759
888.891	4675
889.015	4580
889.139	4611
889.263	4596
889.387	4778
889.511	4904
889.635	4763
889.759	4584
889.883	4607
890.006	4714
890.13	4812
890.254	4637
890.377	4634
890.501	4573
890.624	4493
890.748	4622
890.871	4497
890.995	4455
891.118	4356
891.241	4546
891.364	4531
891.488	4584
891.611	4542
891.734	4554
891.857	4611
891.98	4508
892.103	4641
892.226	4565
892.349	4493
892.471	4371
892.594	4554
892.717	4622
892.839	4569
892.962	4523
893.085	4664
893.207	4592
893.33	4459
893.452	4500
893.575	4694
893.697	4565
893.819	4767
893.941	4824
894.064	4714
894.186	4565
894.308	4550
894.43	4702
894.552	4812
894.674	4733
894.796	4573
894.918	4580
895.04	4554
895.161	4725
895.283	4675
895.405	4546
895.526	4626
895.648	4683
895.769	4668
895.891	4740
896.012	4725
896.134	4698
896.255	4656
896.376	4603
896.498	4618
896.619	4691
896.74	4596
896.861	4672
896.982	4911
897.103	5071
897.224	4820
897.345	4687
897.466	4656
897.587	4691
897.708	4820
897.828	4763
897.949	4653
898.07	4523
898.19	4626
898.311	4831
898.431	4645
898.552	4706
898.672	4778
898.792	4847
898.913	4774
899.033	4599
899.153	4512
899.273	4379
899.393	4516
899.513	4500
899.633	4531
899.753	4546
899.873	4538
899.993	4558
900.113	4485
900.232	4588
900.352	4493
900.472	4493
900.591	4386
900.711	4508
900.83	4421
900.95	4596
901.069	4691
901.189	4538
901.308	4352
901.427	4306
901.546	4360
901.665	4428
901.784	4535
901.904	4421
902.023	4325
902.141	4185
902.26	4162
902.379	4314
902.498	4238
902.617	4219
902.735	4348
902.854	4356
902.973	4363
903.091	4196
903.21	4223
903.328	4242
903.446	4234
903.565	4272
903.683	4306
903.801	4261
903.919	4386
904.038	4371
904.156	4325
904.274	4409
904.392	4386
904.51	4451
904.627	4474
904.745	4535
904.863	4596
904.981	4390
905.098	4306
905.216	4325
905.334	4413
905.451	4402
905.569	4459
905.686	4561
905.803	4603
905.921	4413
906.038	4542
906.155	4481
906.272	4405
906.389	4470
906.506	4371
906.623	4333
906.74	4379
906.857	4276
906.974	4409
907.091	4565
907.208	4672
907.324	4546
907.441	4519
907.557	4341
907.674	4295
907.79	4325
907.907	4432
908.023	4489
908.139	4497
908.256	4394
908.372	4443
908.488	4424
908.604	4398
908.72	4329
908.836	4375
908.952	4356
909.068	4386
909.184	4558
909.3	4459
909.415	4558
909.531	4542
909.647	4352
909.762	4344
909.878	4352
909.993	4405
910.108	4424
910.224	4386
910.339	4436
910.454	4409
910.57	4344
910.685	4272
910.8	4634
910.915	4535
911.03	4428
911.145	4337
911.259	4344
911.374	4367
911.489	4261
911.604	4325
911.718	4173
911.833	4196
911.947	4086
912.062	4013
912.176	4204
912.291	4223
912.405	4253
912.519	4432
912.633	4516
912.748	4363
912.862	4325
912.976	4185
913.09	4097
913.204	4196
913.318	4204
913.431	4390
913.545	4322
913.659	4474
913.772	4333
913.886	4253
914	4200
914.113	4386
914.226	4421
914.34	4367
914.453	4242
914.566	4424
914.68	4333
914.793	4280
914.906	4150
915.019	4154
915.132	4082
915.245	4150
915.358	4200
915.47	4219
915.583	4257
915.696	4295
915.809	4402
915.921	4417
916.034	4253
916.146	4268
916.259	4192
916.371	4325
916.483	4329
916.595	4238
916.708	4325
916.82	4303
916.932	4341
917.044	4265
917.156	4360
917.268	4253
917.38	4257
917.491	4272
917.603	4291
917.715	4409
917.826	4413
917.938	4352
918.049	4249
918.161	4424
918.272	4554
918.384	4508
918.495	4413
918.606	4318
918.717	4246
918.828	4322
918.939	4322
919.05	4284
919.161	4303
919.272	4120
919.383	4234
919.494	4424
919.604	4675
919.715	4398
919.826	4314
919.936	4383
920.047	4512
920.157	4470
920.267	4698
920.378	4512
920.488	4470
920.598	4710
920.708	4919
920.818	4725
920.928	4778
921.038	4900
921.148	4957
921.258	4645
921.368	4550
921.477	4497
921.587	4440
921.697	4413
921.806	4538
921.916	4462
922.025	4223
922.134	4306
922.244	4204
922.353	4344
922.462	4158
922.571	4181
922.68	4002
922.789	3979
922.898	4006
923.007	3975
923.116	4109
923.224	4051
923.333	4044
923.442	3972
923.55	3979
923.659	4078
923.767	4082
923.876	3953
923.984	4105
924.092	4017
924.201	4032
924.309	4086
924.417	4154
924.525	4021
924.633	4067
924.741	5018
924.849	3915
924.956	4143
925.064	3998
925.172	3899
925.279	3945
925.387	4021
925.494	4044
925.602	4188
925.709	4162
925.816	4040
925.924	4082
926.031	4227
926.138	4177
926.245	4181
926.352	4093
926.459	4257
926.566	4303
926.673	4154
926.779	4120
926.886	4097
926.993	3991
927.099	3956
927.206	3937
927.312	3945
927.419	4044
927.525	4029
927.631	4071
927.737	3949
927.843	3896
927.95	3827
928.056	3922
928.162	4025
928.267	4036
928.373	4664
928.479	4128
928.585	3869
928.69	4044
928.796	4059
928.901	3975
929.007	3854
929.112	3979
929.218	4010
929.323	3964
929.428	3926
929.533	4131
929.638	3903
929.743	3991
929.848	4017
929.953	4029
930.058	3941
930.163	3816
930.267	3804
930.372	3998
930.477	3800
930.581	4082
930.685	3953
930.79	3842
930.894	3831
930.998	3861
931.103	4013
931.207	3705
931.311	3709
931.415	3701
931.519	3542
931.623	3542
