Data from test_V78500241_2093.txt Node
Date: Fri Mar 25 17:03:33 CST 2022
User: usil
Spectrometer: V785-0024
Trigger mode: 0
Integration Time (sec): 4.000000E-1
Scans to average: 1
Nonlinearity correction enabled: false
Boxcar width: 0
Storing dark spectrum: false
XAxis mode: Wavelengths
Number of Pixels in Spectrum: 1024
>>>>>Begin Spectral Data<<<<<
801.071	8005
801.214	7989
801.356	7849
801.499	7864
801.641	7826
801.783	7898
801.926	8020
802.068	7951
802.211	7974
802.353	8050
802.496	7852
802.638	7913
802.78	7917
802.923	7959
803.065	7898
803.208	7898
803.35	8027
803.492	8180
803.635	8145
803.777	8008
803.919	8084
804.061	8503
804.204	8180
804.346	8065
804.488	7978
804.63	8142
804.773	8031
804.915	8172
805.057	8294
805.199	8149
805.341	8229
805.483	8324
805.626	8195
805.768	8138
805.91	8328
806.052	8199
806.194	8134
806.336	8271
806.478	8126
806.62	8069
806.762	8111
806.904	8263
807.046	8461
807.188	8374
807.33	8301
807.472	8332
807.614	8187
807.756	8142
807.898	7993
808.04	7887
808.182	7928
808.324	7921
808.465	7921
808.607	8027
808.749	8092
808.891	8252
809.033	8343
809.174	8237
809.316	8062
809.458	8065
809.6	8077
809.741	8020
809.883	8035
810.025	8138
810.166	8043
810.308	8100
810.45	7917
810.591	7890
810.733	7807
810.875	7605
811.016	7506
811.158	7449
811.299	7567
811.441	7677
811.582	7689
811.724	7624
811.865	7495
812.007	7605
812.148	7575
812.29	7643
812.431	7658
812.573	7917
812.714	8016
812.855	8134
812.997	8199
813.138	8279
813.279	8176
813.421	8153
813.562	7925
813.703	7792
813.845	7753
813.986	7457
814.127	7282
814.268	7190
814.41	7228
814.551	7171
814.692	7282
814.833	7175
814.974	7129
815.115	7133
815.256	6958
815.397	6973
815.539	7000
815.68	6875
815.821	6802
815.962	6795
816.103	6810
816.244	6734
816.385	6608
816.526	6578
816.666	6544
816.807	6327
816.948	6445
817.089	6498
817.23	6456
817.371	6403
817.512	6388
817.653	6346
817.793	6403
817.934	6460
818.075	6441
818.216	6433
818.356	6452
818.497	6197
818.638	6182
818.778	6117
818.919	6148
819.06	6235
819.2	6388
819.341	6308
819.481	6376
819.622	6593
819.762	6783
819.903	6688
820.043	6570
820.184	6532
820.324	6570
820.465	6760
820.605	6677
820.746	6688
820.886	6555
821.026	6722
821.167	6760
821.307	6776
821.447	6783
821.588	6696
821.728	6582
821.868	6521
822.008	6357
822.149	6372
822.289	6361
822.429	6159
822.569	6152
822.709	6159
822.849	5916
822.99	5847
823.13	5923
823.27	5893
823.41	5805
823.55	5805
823.69	5821
823.83	5786
823.97	5695
824.11	5562
824.25	5520
824.389	5573
824.529	5596
824.669	5554
824.809	5661
824.949	5699
825.089	5642
825.228	5577
825.368	5383
825.508	5387
825.648	5387
825.787	5391
825.927	5364
826.067	5357
826.206	5341
826.346	5379
826.485	5383
826.625	5455
826.765	5589
826.904	5467
827.044	5254
827.183	5250
827.323	5124
827.462	5265
827.601	5178
827.741	5197
827.88	5265
828.02	5117
828.159	5258
828.298	5315
828.437	5372
828.577	5269
828.716	5532
828.855	5341
828.994	5174
829.134	5166
829.273	5189
829.412	5159
829.551	5098
829.69	5170
829.829	5254
829.968	5337
830.107	5288
830.246	5273
830.385	5174
830.524	5124
830.663	5083
830.802	4968
830.941	4919
831.08	4850
831.219	4946
831.357	4953
831.496	5159
831.635	4915
831.774	4911
831.913	4889
832.051	4740
832.19	4748
832.329	4831
832.467	4740
832.606	4645
832.744	4793
832.883	4717
833.022	4717
833.16	4812
833.299	4839
833.437	4858
833.576	4850
833.714	4904
833.852	4881
833.991	4904
834.129	4980
834.267	4980
834.406	4862
834.544	4976
834.682	5003
834.821	4942
834.959	5143
835.097	5003
835.235	5170
835.373	5086
835.511	5113
835.65	5037
835.788	5048
835.926	4889
836.064	4889
836.202	4938
836.34	5201
836.478	5242
836.615	5143
836.753	5254
836.891	5277
837.029	5258
837.167	5239
837.305	5151
837.443	5189
837.58	5090
837.718	5250
837.856	5174
837.993	5159
838.131	5288
838.269	5212
838.406	5239
838.544	5193
838.681	5056
838.819	5022
838.956	4892
839.094	4877
839.231	5041
839.369	5052
839.506	5440
839.643	5296
839.781	5109
839.918	5037
840.055	5117
840.193	5140
840.33	5121
840.467	5140
840.604	5143
840.742	5440
840.879	5071
841.016	5075
841.153	5216
841.29	5387
841.427	5299
841.564	5330
841.701	5429
841.838	5227
841.975	5201
842.112	5261
842.249	5121
842.385	5140
842.522	5345
842.659	5159
842.796	5147
842.933	5170
843.069	5174
843.206	5170
843.343	5277
843.479	5288
843.616	5235
843.752	4995
843.889	5003
844.025	5258
844.162	5014
844.298	5216
844.435	5143
844.571	5060
844.708	5166
844.844	5303
844.98	5330
845.117	5315
845.253	5162
845.389	5090
845.525	5189
845.661	5178
845.798	5025
845.934	5132
846.07	5067
846.206	5220
846.342	5303
846.478	5128
846.614	5010
846.75	4953
846.886	4946
847.022	5147
847.158	4980
847.294	5048
847.429	5060
847.565	5022
847.701	5292
847.837	4885
847.972	4854
848.108	4946
848.244	4946
848.379	4805
848.515	4752
848.65	4656
848.786	4736
848.921	4778
849.057	4831
849.192	4949
849.328	4835
849.463	4835
849.598	4843
849.734	4752
849.869	4653
850.004	4584
850.14	4588
850.275	4645
850.41	4554
850.545	4599
850.68	4618
850.815	4645
850.95	4698
851.085	4850
851.22	4725
851.355	4694
851.49	4603
851.625	4615
851.76	4656
851.895	4558
852.03	4527
852.165	4630
852.299	4710
852.434	4809
852.569	4771
852.703	4782
852.838	4870
852.973	4961
853.107	4927
853.242	4748
853.376	4645
853.511	4558
853.645	4607
853.78	4812
853.914	4683
854.048	4660
854.183	4634
854.317	4679
854.451	4866
854.585	4687
854.72	4603
854.854	4771
854.988	4596
855.122	4656
855.256	4485
855.39	4691
855.524	4752
855.658	4714
855.792	4675
855.926	4759
856.06	4801
856.194	4816
856.327	4729
856.461	4664
856.595	4637
856.729	4637
856.862	4786
856.996	4710
857.13	4752
857.263	4771
857.397	4748
857.53	4656
857.664	4721
857.797	4790
857.931	4793
858.064	4687
858.197	4729
858.331	4672
858.464	4607
858.597	4512
858.731	4615
858.864	4599
858.997	4592
859.13	4668
859.263	4691
859.396	4721
859.529	4569
859.662	4573
859.795	4542
859.928	4672
860.061	4748
860.194	4782
860.327	4653
860.46	4546
860.592	4782
860.725	4725
860.858	4774
860.99	4550
861.123	4512
861.256	4527
861.388	4653
861.521	5360
861.653	4493
861.786	4424
861.918	4459
862.05	4558
862.183	4561
862.315	4622
862.447	4626
862.58	4523
862.712	4337
862.844	4356
862.976	4485
863.108	4451
863.24	4759
863.372	4310
863.504	4470
863.636	4386
863.768	4489
863.9	4432
864.032	4375
864.164	4402
864.296	4440
864.428	4497
864.559	4558
864.691	4588
864.823	4535
864.954	4516
865.086	4489
865.217	4516
865.349	4428
865.48	4447
865.612	4455
865.743	4660
865.875	4443
866.006	4462
866.137	4470
866.269	4421
866.4	4436
866.531	4413
866.662	4394
866.793	4405
866.924	4481
867.055	4481
867.186	4447
867.317	4451
867.448	4402
867.579	4379
867.71	4409
867.841	4375
867.972	4440
868.103	4504
868.233	4455
868.364	4447
868.495	4500
868.625	4668
868.756	4767
868.886	4531
869.017	4626
869.147	4774
869.278	4771
869.408	4672
869.539	4626
869.669	4672
869.799	4694
869.929	4763
870.06	4721
870.19	4930
870.32	4896
870.45	4911
870.58	5014
870.71	5067
870.84	5056
870.97	4980
871.1	4949
871.23	5151
871.36	5170
871.489	5048
871.619	5045
871.749	5124
871.879	5105
872.008	5170
872.138	5056
872.267	5014
872.397	4858
872.526	4831
872.656	4664
872.785	4790
872.915	4965
873.044	4999
873.173	4949
873.303	4946
873.432	4953
873.561	4976
873.69	4858
873.819	4892
873.948	4972
874.077	4820
874.206	4752
874.335	4812
874.464	4919
874.593	5090
874.722	4968
874.851	5067
874.979	5067
875.108	5071
875.237	4908
875.365	4896
875.494	4915
875.623	4911
875.751	4850
875.88	4870
876.008	4972
876.136	5071
876.265	5162
876.393	5402
876.521	5246
876.65	5197
876.778	5132
876.906	5083
877.034	5048
877.162	5109
877.29	4965
877.418	5022
877.546	5041
877.674	5086
877.802	5079
877.93	5003
878.058	4930
878.185	4927
878.313	5014
878.441	4934
878.568	4771
878.696	4930
878.824	4938
878.951	5060
879.079	5151
879.206	5292
879.333	5083
879.461	5025
879.588	5018
879.715	5147
879.842	5216
879.97	5003
880.097	4816
880.224	4717
880.351	4805
880.478	4828
880.605	4820
880.732	4771
880.859	5045
880.986	4934
881.112	4915
881.239	4793
881.366	4706
881.493	4561
881.619	4599
881.746	4637
881.872	4645
881.999	4641
882.125	4714
882.252	4759
882.378	4881
882.505	4927
882.631	4809
882.757	4691
882.883	4717
883.01	4778
883.136	4725
883.262	4664
883.388	4584
883.514	4839
883.64	4881
883.766	4866
883.892	4660
884.018	4702
884.143	4858
884.269	4984
884.395	4698
884.52	4584
884.646	4603
884.772	4596
884.897	4519
885.023	4717
885.148	4767
885.274	4885
885.399	4839
885.524	4691
885.65	4710
885.775	4774
885.9	4706
886.025	4835
886.15	4854
886.275	4706
886.4	4641
886.525	4710
886.65	4626
886.775	4634
886.9	4911
887.025	5056
887.149	4812
887.274	4599
887.399	4584
887.523	4653
887.648	4554
887.773	4603
887.897	4809
888.021	4774
888.146	4672
888.27	4824
888.395	4930
888.519	4812
888.643	4786
888.767	4805
888.891	4672
889.015	4626
889.139	4645
889.263	4611
889.387	4771
889.511	4873
889.635	4843
889.759	4641
889.883	4637
890.006	4748
890.13	4843
890.254	4630
890.377	4683
890.501	4558
890.624	4519
890.748	4577
890.871	4455
890.995	4390
891.118	4405
891.241	4516
891.364	4527
891.488	4634
891.611	4493
891.734	4523
891.857	4550
891.98	4527
892.103	4664
892.226	4577
892.349	4523
892.471	4474
892.594	4554
892.717	4580
892.839	4504
892.962	4569
893.085	4687
893.207	4588
893.33	4474
893.452	4489
893.575	4649
893.697	4588
893.819	4793
893.941	4831
894.064	4733
894.186	4588
894.308	4565
894.43	4736
894.552	4809
894.674	4729
894.796	4565
894.918	4565
895.04	4531
895.161	4706
895.283	4668
895.405	4554
895.526	4645
895.648	4725
895.769	4694
895.891	4691
896.012	4763
896.134	4774
896.255	4615
896.376	4622
896.498	4626
896.619	4656
896.74	4592
896.861	4622
896.982	4923
897.103	5067
897.224	4881
897.345	4752
897.466	4706
897.587	4733
897.708	4885
897.828	4771
897.949	4656
898.07	4664
898.19	4653
898.311	4816
898.431	4702
898.552	4672
898.672	4771
898.792	4774
898.913	4664
899.033	4664
899.153	4500
899.273	4424
899.393	4558
899.513	4538
899.633	4531
899.753	4531
899.873	4504
899.993	4584
900.113	4561
900.232	4592
900.352	4573
900.472	4489
900.591	4413
900.711	4462
900.83	4447
900.95	4596
901.069	4691
901.189	4550
901.308	4375
901.427	4295
901.546	4383
901.665	4500
901.784	4538
901.904	4394
902.023	4341
902.141	4147
902.26	4181
902.379	4268
902.498	4242
902.617	4234
902.735	4383
902.854	4417
902.973	4314
903.091	4192
903.21	4246
903.328	4310
903.446	4185
903.565	4291
903.683	4337
903.801	4287
903.919	4344
904.038	4470
904.156	4322
904.274	4440
904.392	4394
904.51	4485
904.627	4421
904.745	4550
904.863	4660
904.981	4402
905.098	4291
905.216	4379
905.334	4470
905.451	4413
905.569	4417
905.686	4489
905.803	4588
905.921	4417
906.038	4565
906.155	4508
906.272	4405
906.389	4455
906.506	4322
906.623	4398
906.74	4352
906.857	4306
906.974	4375
907.091	4592
907.208	4675
907.324	4569
907.441	4493
907.557	4375
907.674	4299
907.79	4303
907.907	4409
908.023	4455
908.139	4489
908.256	4386
908.372	4481
908.488	4440
908.604	4363
908.72	4257
908.836	4383
908.952	4367
909.068	4459
909.184	4558
909.3	4512
909.415	4550
909.531	4584
909.647	4360
909.762	4348
909.878	4348
909.993	4405
910.108	4455
910.224	4432
910.339	4451
910.454	4428
910.57	4367
910.685	4295
910.8	4611
910.915	4573
911.03	4500
911.145	4325
911.259	4337
911.374	4402
911.489	4253
911.604	4310
911.718	4166
911.833	4188
911.947	4139
912.062	4010
912.176	4204
912.291	4268
912.405	4268
912.519	4451
912.633	4519
912.748	4428
912.862	4299
912.976	4215
913.09	4086
913.204	4158
913.318	4238
913.431	4344
913.545	4325
913.659	4424
913.772	4337
913.886	4181
914	4207
914.113	4348
914.226	4413
914.34	4394
914.453	4242
914.566	4462
914.68	4299
914.793	4329
914.906	4192
915.019	4101
915.132	4082
915.245	4169
915.358	4227
915.47	4230
915.583	4268
915.696	4314
915.809	4383
915.921	4432
916.034	4211
916.146	4280
916.259	4223
916.371	4394
916.483	4360
916.595	4257
916.708	4363
916.82	4325
916.932	4375
917.044	4329
917.156	4363
917.268	4238
917.38	4306
917.491	4261
917.603	4356
917.715	4398
917.826	4428
917.938	4303
918.049	4227
918.161	4375
918.272	4542
918.384	4542
918.495	4455
918.606	4287
918.717	4196
918.828	4322
918.939	4379
919.05	4272
919.161	4363
919.272	4101
919.383	4253
919.494	4451
919.604	4634
919.715	4405
919.826	4356
919.936	4417
920.047	4504
920.157	4481
920.267	4683
920.378	4558
920.488	4493
920.598	4778
920.708	4934
920.818	4755
920.928	4717
921.038	4946
921.148	4900
921.258	4580
921.368	4577
921.477	4493
921.587	4504
921.697	4367
921.806	4558
921.916	4417
922.025	4249
922.134	4246
922.244	4238
922.353	4341
922.462	4169
922.571	4101
922.68	4013
922.789	3979
922.898	4036
923.007	4032
923.116	4097
923.224	4021
923.333	4074
923.442	4006
923.55	3968
923.659	3953
923.767	4093
923.876	3968
923.984	4101
924.092	3960
924.201	4029
924.309	4109
924.417	4150
924.525	3975
924.633	4097
924.741	4999
924.849	3930
924.956	4131
925.064	3956
925.172	3915
925.279	3968
925.387	4059
925.494	4032
925.602	4261
925.709	4192
925.816	4013
925.924	4135
926.031	4253
926.138	4169
926.245	4196
926.352	4074
926.459	4204
926.566	4284
926.673	4147
926.779	4139
926.886	4059
926.993	3975
927.099	3991
927.206	3937
927.312	3956
927.419	4071
927.525	3983
927.631	4078
927.737	3937
927.843	3907
927.95	3865
928.056	3941
928.162	4013
928.267	4048
928.373	4588
928.479	4150
928.585	3896
928.69	4002
928.796	4097
928.901	3960
929.007	3846
929.112	3975
929.218	3956
929.323	3930
929.428	3960
929.533	4116
929.638	3926
929.743	3945
929.848	4002
929.953	3998
930.058	3941
930.163	3800
930.267	3835
930.372	3987
930.477	3789
930.581	4082
930.685	3968
930.79	3835
930.894	3861
930.998	3876
931.103	4040
931.207	3720
931.311	3717
931.415	3675
931.519	3542
931.623	3530
