Data from test_V78500241_89.txt Node
Date: Fri Mar 25 16:49:37 CST 2022
User: usil
Spectrometer: V785-0024
Trigger mode: 0
Integration Time (sec): 4.000000E-1
Scans to average: 1
Nonlinearity correction enabled: false
Boxcar width: 0
Storing dark spectrum: false
XAxis mode: Wavelengths
Number of Pixels in Spectrum: 1024
>>>>>Begin Spectral Data<<<<<
801.071	8088
801.214	8111
801.356	7944
801.499	7917
801.641	7807
801.783	7845
801.926	7940
802.068	8020
802.211	8008
802.353	8046
802.496	7898
802.638	7986
802.78	8084
802.923	8035
803.065	7951
803.208	7913
803.35	7955
803.492	8058
803.635	8096
803.777	8024
803.919	8138
804.061	8393
804.204	8145
804.346	7993
804.488	7944
804.63	8069
804.773	8024
804.915	8100
805.057	8351
805.199	8183
805.341	8202
805.483	8374
805.626	8183
805.768	8138
805.91	8218
806.052	8271
806.194	8172
806.336	8393
806.478	8119
806.62	8134
806.762	8233
806.904	8355
807.046	8457
807.188	8484
807.33	8328
807.472	8427
807.614	8202
807.756	8225
807.898	8084
808.04	7989
808.182	7986
808.324	7963
808.465	7928
808.607	8138
808.749	8168
808.891	8305
809.033	8332
809.174	8199
809.316	8050
809.458	8088
809.6	8050
809.741	8046
809.883	8092
810.025	8130
810.166	8107
810.308	8084
810.45	8077
810.591	7890
810.733	7765
810.875	7746
811.016	7597
811.158	7567
811.299	7670
811.441	7792
811.582	7788
811.724	7658
811.865	7696
812.007	7689
812.148	7769
812.29	7734
812.431	7818
812.573	7989
812.714	8119
812.855	8252
812.997	8301
813.138	8362
813.279	8286
813.421	8233
813.562	8096
813.703	7890
813.845	7841
813.986	7533
814.127	7331
814.268	7343
814.41	7316
814.551	7289
814.692	7316
814.833	7179
814.974	7232
815.115	7190
815.256	7053
815.397	7076
815.539	6958
815.68	6852
815.821	6852
815.962	6935
816.103	6882
816.244	6738
816.385	6673
816.526	6738
816.666	6570
816.807	6407
816.948	6513
817.089	6528
817.23	6467
817.371	6441
817.512	6441
817.653	6483
817.793	6433
817.934	6464
818.075	6506
818.216	6582
818.356	6467
818.497	6365
818.638	6159
818.778	6311
818.919	6186
819.06	6243
819.2	6369
819.341	6410
819.481	6422
819.622	6616
819.762	6821
819.903	6852
820.043	6700
820.184	6631
820.324	6642
820.465	6783
820.605	6715
820.746	6722
820.886	6612
821.026	6753
821.167	6787
821.307	6840
821.447	6852
821.588	6688
821.728	6631
821.868	6559
822.008	6437
822.149	6471
822.289	6433
822.429	6243
822.569	6175
822.709	6194
822.849	5977
822.99	5958
823.13	6007
823.27	5958
823.41	5798
823.55	5847
823.69	5866
823.83	5863
823.97	5665
824.11	5646
824.25	5558
824.389	5646
824.529	5668
824.669	5532
824.809	5722
824.949	5691
825.089	5710
825.228	5676
825.368	5490
825.508	5387
825.648	5414
825.787	5436
825.927	5429
826.067	5387
826.206	5337
826.346	5379
826.485	5410
826.625	5429
826.765	5600
826.904	5528
827.044	5303
827.183	5258
827.323	5193
827.462	5360
827.601	5250
827.741	5235
827.88	5273
828.02	5147
828.159	5284
828.298	5341
828.437	5440
828.577	5364
828.716	5535
828.855	5368
828.994	5223
829.134	5159
829.273	5261
829.412	5227
829.551	5185
829.69	5292
829.829	5337
829.968	5410
830.107	5341
830.246	5337
830.385	5258
830.524	5181
830.663	5109
830.802	5037
830.941	4965
831.08	4896
831.219	5025
831.357	5045
831.496	5246
831.635	4991
831.774	4942
831.913	4896
832.051	4763
832.19	4797
832.329	4942
832.467	4763
832.606	4710
832.744	4812
832.883	4752
833.022	4824
833.16	4839
833.299	4866
833.437	4850
833.576	4942
833.714	4953
833.852	4870
833.991	4938
834.129	5022
834.267	4984
834.406	4991
834.544	4995
834.682	5064
834.821	4968
834.959	5212
835.097	5048
835.235	5181
835.373	5178
835.511	5128
835.65	5083
835.788	5086
835.926	4961
836.064	4942
836.202	4949
836.34	5239
836.478	5322
836.615	5178
836.753	5303
836.891	5341
837.029	5318
837.167	5223
837.305	5181
837.443	5189
837.58	5208
837.718	5284
837.856	5216
837.993	5212
838.131	5288
838.269	5246
838.406	5288
838.544	5231
838.681	5067
838.819	5098
838.956	4957
839.094	5033
839.231	5067
839.369	5204
839.506	5528
839.643	5303
839.781	5162
839.918	5041
840.055	5132
840.193	5140
840.33	5140
840.467	5189
840.604	5231
840.742	5474
840.879	5140
841.016	5124
841.153	5204
841.29	5436
841.427	5345
841.564	5391
841.701	5417
841.838	5353
841.975	5250
842.112	5341
842.249	5170
842.385	5147
842.522	5383
842.659	5223
842.796	5201
842.933	5254
843.069	5189
843.206	5235
843.343	5322
843.479	5296
843.616	5292
843.752	5105
843.889	5029
844.025	5292
844.162	5098
844.298	5273
844.435	5121
844.571	5067
844.708	5261
844.844	5357
844.98	5315
845.117	5357
845.253	5246
845.389	5170
845.525	5193
845.661	5170
845.798	5090
845.934	5124
846.07	5147
846.206	5277
846.342	5326
846.478	5227
846.614	5052
846.75	5014
846.886	4942
847.022	5261
847.158	5132
847.294	5113
847.429	5151
847.565	5041
847.701	5398
847.837	4843
847.972	4877
848.108	5025
848.244	4980
848.379	4835
848.515	4786
848.65	4748
848.786	4782
848.921	4816
849.057	4915
849.192	4911
849.328	4881
849.463	4877
849.598	4839
849.734	4873
849.869	4755
850.004	4641
850.14	4710
850.275	4611
850.41	4527
850.545	4588
850.68	4653
850.815	4694
850.95	4637
851.085	4850
851.22	4782
851.355	4710
851.49	4622
851.625	4679
851.76	4649
851.895	4588
852.03	4573
852.165	4664
852.299	4771
852.434	4820
852.569	4797
852.703	4805
852.838	4919
852.973	4965
853.107	4930
853.242	4782
853.376	4710
853.511	4596
853.645	4626
853.78	4873
853.914	4725
854.048	4694
854.183	4691
854.317	4717
854.451	4957
854.585	4660
854.72	4630
854.854	4759
854.988	4668
855.122	4679
855.256	4512
855.39	4736
855.524	4828
855.658	4771
855.792	4748
855.926	4725
856.06	4790
856.194	4812
856.327	4729
856.461	4698
856.595	4615
856.729	4714
856.862	4824
856.996	4698
857.13	4736
857.263	4824
857.397	4801
857.53	4637
857.664	4786
857.797	4793
857.931	4847
858.064	4793
858.197	4824
858.331	4687
858.464	4660
858.597	4561
858.731	4706
858.864	4679
858.997	4721
859.13	4691
859.263	4698
859.396	4706
859.529	4649
859.662	4588
859.795	4531
859.928	4675
860.061	4812
860.194	4797
860.327	4622
860.46	4622
860.592	4790
860.725	4763
860.858	4755
860.99	4641
861.123	4489
861.256	4577
861.388	4649
861.521	5311
861.653	4516
861.786	4466
861.918	4478
862.05	4519
862.183	4573
862.315	4653
862.447	4710
862.58	4607
862.712	4417
862.844	4344
862.976	4493
863.108	4512
863.24	4881
863.372	4352
863.504	4497
863.636	4462
863.768	4519
863.9	4451
864.032	4398
864.164	4470
864.296	4508
864.428	4592
864.559	4603
864.691	4592
864.823	4550
864.954	4542
865.086	4577
865.217	4485
865.349	4394
865.48	4493
865.612	4546
865.743	4694
865.875	4508
866.006	4443
866.137	4504
866.269	4459
866.4	4489
866.531	4493
866.662	4451
866.793	4413
866.924	4508
867.055	4512
867.186	4489
867.317	4478
867.448	4421
867.579	4398
867.71	4440
867.841	4394
867.972	4500
868.103	4516
868.233	4478
868.364	4504
868.495	4516
868.625	4668
868.756	4778
868.886	4577
869.017	4618
869.147	4793
869.278	4782
869.408	4691
869.539	4714
869.669	4710
869.799	4717
869.929	4778
870.06	4759
870.19	5006
870.32	4953
870.45	4965
870.58	5064
870.71	5143
870.84	5102
870.97	4984
871.1	4961
871.23	5159
871.36	5170
871.489	5124
871.619	5121
871.749	5159
871.879	5143
872.008	5212
872.138	5071
872.267	5064
872.397	4881
872.526	4809
872.656	4752
872.785	4847
872.915	4946
873.044	5086
873.173	4976
873.303	4980
873.432	5010
873.561	5010
873.69	4946
873.819	4915
873.948	4965
874.077	4866
874.206	4801
874.335	4820
874.464	4999
874.593	5094
874.722	4995
874.851	5143
874.979	5166
875.108	5071
875.237	4934
875.365	4904
875.494	4892
875.623	5067
875.751	4843
875.88	4862
876.008	5033
876.136	5128
876.265	5220
876.393	5395
876.521	5265
876.65	5231
876.778	5201
876.906	5143
877.034	5056
877.162	5056
877.29	5067
877.418	5109
877.546	5098
877.674	5079
877.802	5064
877.93	5041
878.058	4968
878.185	4911
878.313	4957
878.441	4995
878.568	4854
878.696	4873
878.824	5006
878.951	5006
879.079	5189
879.206	5299
879.333	5113
879.461	5006
879.588	5086
879.715	5178
879.842	5254
879.97	5090
880.097	4805
880.224	4809
880.351	4843
880.478	4854
880.605	4824
880.732	4854
880.859	5086
880.986	4915
881.112	4976
881.239	4839
881.366	4694
881.493	4641
881.619	4588
881.746	4717
881.872	4687
881.999	4645
882.125	4706
882.252	4786
882.378	4835
882.505	5018
882.631	4847
882.757	4672
882.883	4759
883.01	4744
883.136	4645
883.262	4565
883.388	4645
883.514	4892
883.64	4835
883.766	4816
883.892	4679
884.018	4744
884.143	4961
884.269	4999
884.395	4714
884.52	4706
884.646	4694
884.772	4637
884.897	4588
885.023	4679
885.148	4858
885.274	4911
885.399	4934
885.524	4748
885.65	4714
885.775	4793
885.9	4721
886.025	4885
886.15	4824
886.275	4740
886.4	4603
886.525	4771
886.65	4683
886.775	4740
886.9	4896
887.025	5079
887.149	4820
887.274	4702
887.399	4592
887.523	4611
887.648	4634
887.773	4618
887.897	4733
888.021	4805
888.146	4653
888.27	4873
888.395	4908
888.519	4797
888.643	4839
888.767	4866
888.891	4687
889.015	4615
889.139	4687
889.263	4618
889.387	4774
889.511	4858
889.635	4809
889.759	4717
889.883	4694
890.006	4748
890.13	4854
890.254	4653
890.377	4656
890.501	4592
890.624	4558
890.748	4710
890.871	4573
890.995	4470
891.118	4428
891.241	4550
891.364	4565
891.488	4641
891.611	4481
891.734	4550
891.857	4634
891.98	4542
892.103	4679
892.226	4615
892.349	4542
892.471	4493
892.594	4584
892.717	4615
892.839	4615
892.962	4618
893.085	4653
893.207	4603
893.33	4497
893.452	4550
893.575	4717
893.697	4599
893.819	4797
893.941	4831
894.064	4839
894.186	4660
894.308	4645
894.43	4778
894.552	4835
894.674	4767
894.796	4592
894.918	4641
895.04	4603
895.161	4759
895.283	4694
895.405	4592
895.526	4694
895.648	4721
895.769	4694
895.891	4767
896.012	4801
896.134	4717
896.255	4702
896.376	4660
896.498	4622
896.619	4714
896.74	4596
896.861	4691
896.982	4949
897.103	5140
897.224	4854
897.345	4755
897.466	4691
897.587	4717
897.708	4847
897.828	4839
897.949	4721
898.07	4558
898.19	4668
898.311	4843
898.431	4694
898.552	4752
898.672	4858
898.792	4843
898.913	4774
899.033	4611
899.153	4508
899.273	4470
899.393	4470
899.513	4596
899.633	4584
899.753	4573
899.873	4538
899.993	4577
900.113	4577
900.232	4611
900.352	4630
900.472	4535
900.591	4451
900.711	4531
900.83	4481
900.95	4618
901.069	4721
901.189	4603
901.308	4348
901.427	4318
901.546	4386
901.665	4485
901.784	4542
901.904	4440
902.023	4367
902.141	4211
902.26	4234
902.379	4310
902.498	4291
902.617	4223
902.735	4386
902.854	4402
902.973	4405
903.091	4181
903.21	4276
903.328	4272
903.446	4246
903.565	4295
903.683	4417
903.801	4344
903.919	4440
904.038	4424
904.156	4329
904.274	4478
904.392	4398
904.51	4474
904.627	4512
904.745	4550
904.863	4641
904.981	4386
905.098	4383
905.216	4417
905.334	4481
905.451	4489
905.569	4527
905.686	4573
905.803	4622
905.921	4451
906.038	4603
906.155	4478
906.272	4462
906.389	4455
906.506	4360
906.623	4390
906.74	4383
906.857	4329
906.974	4398
907.091	4580
907.208	4702
907.324	4596
907.441	4527
907.557	4329
907.674	4360
907.79	4360
907.907	4436
908.023	4493
908.139	4489
908.256	4474
908.372	4527
908.488	4485
908.604	4405
908.72	4360
908.836	4451
908.952	4314
909.068	4489
909.184	4584
909.3	4481
909.415	4561
909.531	4565
909.647	4341
909.762	4413
909.878	4352
909.993	4459
910.108	4440
910.224	4383
910.339	4466
910.454	4470
910.57	4375
910.685	4363
910.8	4683
910.915	4649
911.03	4538
911.145	4383
911.259	4367
911.374	4383
911.489	4329
911.604	4314
911.718	4192
911.833	4207
911.947	4120
912.062	4017
912.176	4249
912.291	4272
912.405	4325
912.519	4561
912.633	4516
912.748	4367
912.862	4379
912.976	4200
913.09	4128
913.204	4207
913.318	4230
913.431	4451
913.545	4344
913.659	4493
913.772	4398
913.886	4246
914	4253
914.113	4375
914.226	4508
914.34	4383
914.453	4280
914.566	4451
914.68	4310
914.793	4356
914.906	4200
915.019	4147
915.132	4071
915.245	4196
915.358	4230
915.47	4272
915.583	4268
915.696	4337
915.809	4428
915.921	4462
916.034	4295
916.146	4303
916.259	4246
916.371	4394
916.483	4390
916.595	4287
916.708	4344
916.82	4329
916.932	4360
917.044	4329
917.156	4348
917.268	4227
917.38	4337
917.491	4303
917.603	4367
917.715	4421
917.826	4504
917.938	4383
918.049	4268
918.161	4424
918.272	4577
918.384	4577
918.495	4451
918.606	4337
918.717	4272
918.828	4379
918.939	4417
919.05	4329
919.161	4352
919.272	4173
919.383	4238
919.494	4436
919.604	4660
919.715	4436
919.826	4379
919.936	4398
920.047	4558
920.157	4535
920.267	4759
920.378	4542
920.488	4531
920.598	4725
920.708	4896
920.818	4790
920.928	4820
921.038	4976
921.148	4927
921.258	4645
921.368	4584
921.477	4546
921.587	4516
921.697	4383
921.806	4599
921.916	4493
922.025	4276
922.134	4322
922.244	4287
922.353	4360
922.462	4215
922.571	4120
922.68	4021
922.789	4017
922.898	4025
923.007	4036
923.116	4135
923.224	4090
923.333	4071
923.442	4059
923.55	4002
923.659	4002
923.767	4128
923.876	4040
923.984	4128
924.092	3994
924.201	4173
924.309	4105
924.417	4150
924.525	4112
924.633	4078
924.741	4927
924.849	3960
924.956	4162
925.064	3964
925.172	3953
925.279	3998
925.387	4082
925.494	4105
925.602	4268
925.709	4207
925.816	4082
925.924	4185
926.031	4299
926.138	4204
926.245	4188
926.352	4093
926.459	4272
926.566	4314
926.673	4139
926.779	4101
926.886	4116
926.993	3934
927.099	3972
927.206	3953
927.312	3956
927.419	4128
927.525	4059
927.631	4154
927.737	3991
927.843	3987
927.95	3831
928.056	3945
928.162	4002
928.267	4059
928.373	4626
928.479	4120
928.585	3888
928.69	4074
928.796	4093
928.901	3994
929.007	3884
929.112	4044
929.218	4006
929.323	3972
929.428	3956
929.533	4116
929.638	3926
929.743	3945
929.848	4071
929.953	4032
930.058	3968
930.163	3816
930.267	3865
930.372	4025
930.477	3793
930.581	4090
930.685	3964
930.79	3857
930.894	3896
930.998	3884
931.103	4032
931.207	3759
931.311	3724
931.415	3690
931.519	3553
931.623	3545
