Data from test_V78500241_424.txt Node
Date: Fri Mar 25 16:51:57 CST 2022
User: usil
Spectrometer: V785-0024
Trigger mode: 0
Integration Time (sec): 4.000000E-1
Scans to average: 1
Nonlinearity correction enabled: false
Boxcar width: 0
Storing dark spectrum: false
XAxis mode: Wavelengths
Number of Pixels in Spectrum: 1024
>>>>>Begin Spectral Data<<<<<
801.071	8103
801.214	8073
801.356	7833
801.499	7940
801.641	7795
801.783	7833
801.926	8008
802.068	8024
802.211	7963
802.353	7993
802.496	7898
802.638	7875
802.78	7955
802.923	7898
803.065	7932
803.208	7887
803.35	7974
803.492	8016
803.635	8088
803.777	7974
803.919	8111
804.061	8423
804.204	8145
804.346	7986
804.488	7917
804.63	8084
804.773	7955
804.915	8115
805.057	8294
805.199	8161
805.341	8267
805.483	8225
805.626	8187
805.768	7967
805.91	8123
806.052	8123
806.194	8103
806.336	8294
806.478	8183
806.62	8050
806.762	8157
806.904	8248
807.046	8495
807.188	8317
807.33	8355
807.472	8225
807.614	8183
807.756	8176
807.898	8031
808.04	7871
808.182	7883
808.324	8005
808.465	7944
808.607	8103
808.749	8084
808.891	8218
809.033	8252
809.174	8229
809.316	8081
809.458	8054
809.6	8008
809.741	8054
809.883	8050
810.025	8107
810.166	8046
810.308	8050
810.45	7986
810.591	7875
810.733	7674
810.875	7605
811.016	7548
811.158	7483
811.299	7643
811.441	7799
811.582	7734
811.724	7632
811.865	7609
812.007	7708
812.148	7636
812.29	7655
812.431	7765
812.573	7875
812.714	8035
812.855	8176
812.997	8218
813.138	8389
813.279	8199
813.421	8191
813.562	8103
813.703	7925
813.845	7902
813.986	7521
814.127	7316
814.268	7308
814.41	7255
814.551	7149
814.692	7171
814.833	7110
814.974	7114
815.115	7103
815.256	6954
815.397	6932
815.539	6920
815.68	6833
815.821	6753
815.962	6909
816.103	6795
816.244	6745
816.385	6620
816.526	6692
816.666	6441
816.807	6281
816.948	6456
817.089	6517
817.23	6388
817.371	6380
817.512	6410
817.653	6376
817.793	6410
817.934	6357
818.075	6433
818.216	6486
818.356	6422
818.497	6213
818.638	6133
818.778	6194
818.919	6178
819.06	6182
819.2	6361
819.341	6315
819.481	6315
819.622	6528
819.762	6730
819.903	6757
820.043	6639
820.184	6601
820.324	6566
820.465	6688
820.605	6711
820.746	6654
820.886	6525
821.026	6684
821.167	6711
821.307	6768
821.447	6814
821.588	6665
821.728	6589
821.868	6475
822.008	6304
822.149	6361
822.289	6429
822.429	6152
822.569	6110
822.709	6129
822.849	5942
822.99	5946
823.13	5878
823.27	5904
823.41	5844
823.55	5783
823.69	5760
823.83	5798
823.97	5668
824.11	5524
824.25	5532
824.389	5577
824.529	5596
824.669	5592
824.809	5646
824.949	5627
825.089	5589
825.228	5535
825.368	5406
825.508	5376
825.648	5383
825.787	5311
825.927	5398
826.067	5334
826.206	5330
826.346	5417
826.485	5436
826.625	5395
826.765	5554
826.904	5505
827.044	5250
827.183	5212
827.323	5132
827.462	5261
827.601	5212
827.741	5189
827.88	5242
828.02	5121
828.159	5258
828.298	5288
828.437	5315
828.577	5292
828.716	5436
828.855	5337
828.994	5178
829.134	5140
829.273	5174
829.412	5090
829.551	5151
829.69	5151
829.829	5246
829.968	5417
830.107	5280
830.246	5261
830.385	5178
830.524	5151
830.663	5075
830.802	4995
830.941	4896
831.08	4923
831.219	5014
831.357	5025
831.496	5193
831.635	4957
831.774	4919
831.913	4816
832.051	4759
832.19	4744
832.329	4904
832.467	4729
832.606	4660
832.744	4736
832.883	4733
833.022	4721
833.16	4812
833.299	4839
833.437	4805
833.576	4820
833.714	4835
833.852	4881
833.991	4919
834.129	5018
834.267	4896
834.406	4873
834.544	4991
834.682	4961
834.821	4984
834.959	5170
835.097	4991
835.235	5147
835.373	5094
835.511	5083
835.65	5037
835.788	5048
835.926	4866
836.064	4866
836.202	4938
836.34	5193
836.478	5220
836.615	5166
836.753	5284
836.891	5231
837.029	5227
837.167	5239
837.305	5147
837.443	5201
837.58	5052
837.718	5250
837.856	5155
837.993	5155
838.131	5239
838.269	5246
838.406	5246
838.544	5185
838.681	5052
838.819	5003
838.956	4892
839.094	4896
839.231	4976
839.369	5086
839.506	5353
839.643	5311
839.781	5094
839.918	5025
840.055	5090
840.193	5075
840.33	5094
840.467	5117
840.604	5166
840.742	5493
840.879	5102
841.016	5075
841.153	5147
841.29	5395
841.427	5357
841.564	5322
841.701	5357
841.838	5296
841.975	5250
842.112	5246
842.249	5193
842.385	5132
842.522	5353
842.659	5155
842.796	5128
842.933	5212
843.069	5159
843.206	5147
843.343	5303
843.479	5246
843.616	5246
843.752	5037
843.889	5029
844.025	5181
844.162	5064
844.298	5227
844.435	5098
844.571	5022
844.708	5220
844.844	5330
844.98	5364
845.117	5254
845.253	5208
845.389	5117
845.525	5136
845.661	5201
845.798	5064
845.934	5109
846.07	5060
846.206	5136
846.342	5299
846.478	5174
846.614	5041
846.75	4980
846.886	4915
847.022	5170
847.158	5041
847.294	5094
847.429	5105
847.565	5079
847.701	5307
847.837	4850
847.972	4816
848.108	4904
848.244	4938
848.379	4793
848.515	4740
848.65	4763
848.786	4736
848.921	4793
849.057	4877
849.192	4850
849.328	4816
849.463	4820
849.598	4744
849.734	4778
849.869	4683
850.004	4622
850.14	4664
850.275	4592
850.41	4512
850.545	4622
850.68	4580
850.815	4618
850.95	4641
851.085	4831
851.22	4702
851.355	4664
851.49	4675
851.625	4626
851.76	4615
851.895	4603
852.03	4546
852.165	4664
852.299	4736
852.434	4782
852.569	4725
852.703	4763
852.838	4820
852.973	4889
853.107	4904
853.242	4725
853.376	4733
853.511	4558
853.645	4622
853.78	4839
853.914	4675
854.048	4656
854.183	4645
854.317	4710
854.451	4809
854.585	4691
854.72	4622
854.854	4774
854.988	4618
855.122	4618
855.256	4527
855.39	4649
855.524	4763
855.658	4744
855.792	4660
855.926	4748
856.06	4744
856.194	4778
856.327	4717
856.461	4603
856.595	4622
856.729	4630
856.862	4759
856.996	4691
857.13	4748
857.263	4748
857.397	4793
857.53	4634
857.664	4744
857.797	4797
857.931	4778
858.064	4649
858.197	4752
858.331	4630
858.464	4622
858.597	4535
858.731	4618
858.864	4615
858.997	4599
859.13	4641
859.263	4660
859.396	4714
859.529	4592
859.662	4558
859.795	4558
859.928	4615
860.061	4736
860.194	4786
860.327	4588
860.46	4561
860.592	4702
860.725	4740
860.858	4744
860.99	4569
861.123	4535
861.256	4554
861.388	4618
861.521	5421
861.653	4466
861.786	4478
861.918	4462
862.05	4538
862.183	4584
862.315	4622
862.447	4618
862.58	4535
862.712	4443
862.844	4337
862.976	4481
863.108	4478
863.24	4725
863.372	4341
863.504	4440
863.636	4386
863.768	4462
863.9	4436
864.032	4371
864.164	4390
864.296	4428
864.428	4569
864.559	4523
864.691	4516
864.823	4489
864.954	4493
865.086	4527
865.217	4459
865.349	4394
865.48	4432
865.612	4535
865.743	4603
865.875	4512
866.006	4428
866.137	4478
866.269	4478
866.4	4398
866.531	4421
866.662	4417
866.793	4386
866.924	4436
867.055	4470
867.186	4455
867.317	4428
867.448	4367
867.579	4367
867.71	4428
867.841	4379
867.972	4405
868.103	4451
868.233	4417
868.364	4470
868.495	4447
868.625	4645
868.756	4744
868.886	4561
869.017	4611
869.147	4744
869.278	4805
869.408	4668
869.539	4653
869.669	4736
869.799	4672
869.929	4748
870.06	4683
870.19	4953
870.32	4873
870.45	4900
870.58	4987
870.71	5090
870.84	5067
870.97	4919
871.1	4904
871.23	5128
871.36	5121
871.489	5010
871.619	5064
871.749	5113
871.879	5117
872.008	5189
872.138	5014
872.267	4991
872.397	4850
872.526	4854
872.656	4717
872.785	4820
872.915	4953
873.044	4995
873.173	4980
873.303	4965
873.432	4938
873.561	4972
873.69	4877
873.819	4866
873.948	4991
874.077	4839
874.206	4793
874.335	4782
874.464	4942
874.593	5056
874.722	4976
874.851	5094
874.979	5117
875.108	5079
875.237	4949
875.365	4923
875.494	4976
875.623	5006
875.751	4812
875.88	4953
876.008	4968
876.136	5064
876.265	5204
876.393	5364
876.521	5334
876.65	5269
876.778	5216
876.906	5102
877.034	5060
877.162	5098
877.29	5010
877.418	5071
877.546	5083
877.674	5090
877.802	5071
877.93	5048
878.058	5010
878.185	4900
878.313	5014
878.441	4999
878.568	4828
878.696	4911
878.824	4991
878.951	5014
879.079	5201
879.206	5391
879.333	5162
879.461	5075
879.588	5029
879.715	5223
879.842	5227
879.97	5041
880.097	4847
880.224	4801
880.351	4873
880.478	4873
880.605	4828
880.732	4809
880.859	5155
880.986	4930
881.112	5003
881.239	4858
881.366	4733
881.493	4675
881.619	4626
881.746	4656
881.872	4698
881.999	4672
882.125	4717
882.252	4797
882.378	4889
882.505	5022
882.631	4839
882.757	4733
882.883	4778
883.01	4797
883.136	4721
883.262	4599
883.388	4622
883.514	4843
883.64	4896
883.766	4847
883.892	4710
884.018	4736
884.143	4949
884.269	5071
884.395	4706
884.52	4698
884.646	4660
884.772	4615
884.897	4580
885.023	4683
885.148	4816
885.274	4866
885.399	4889
885.524	4752
885.65	4725
885.775	4774
885.9	4729
886.025	4908
886.15	4816
886.275	4752
886.4	4694
886.525	4774
886.65	4771
886.775	4755
886.9	4965
887.025	5086
887.149	4843
887.274	4687
887.399	4634
887.523	4592
887.648	4588
887.773	4668
887.897	4885
888.021	4786
888.146	4763
888.27	4866
888.395	4987
888.519	4812
888.643	4847
888.767	4870
888.891	4740
889.015	4641
889.139	4729
889.263	4653
889.387	4774
889.511	4885
889.635	4797
889.759	4664
889.883	4698
890.006	4793
890.13	4828
890.254	4649
890.377	4725
890.501	4603
890.624	4573
890.748	4649
890.871	4542
890.995	4481
891.118	4424
891.241	4527
891.364	4607
891.488	4653
891.611	4535
891.734	4588
891.857	4615
891.98	4630
892.103	4675
892.226	4626
892.349	4565
892.471	4489
892.594	4637
892.717	4626
892.839	4637
892.962	4641
893.085	4694
893.207	4653
893.33	4542
893.452	4615
893.575	4706
893.697	4618
893.819	4786
893.941	4870
894.064	4793
894.186	4611
894.308	4592
894.43	4767
894.552	4877
894.674	4858
894.796	4577
894.918	4634
895.04	4580
895.161	4759
895.283	4706
895.405	4592
895.526	4653
895.648	4675
895.769	4698
895.891	4755
896.012	4771
896.134	4797
896.255	4736
896.376	4664
896.498	4656
896.619	4721
896.74	4653
896.861	4717
896.982	4987
897.103	5132
897.224	4801
897.345	4812
897.466	4729
897.587	4748
897.708	4908
897.828	4797
897.949	4687
898.07	4626
898.19	4714
898.311	4831
898.431	4702
898.552	4748
898.672	4843
898.792	4843
898.913	4778
899.033	4626
899.153	4558
899.273	4478
899.393	4554
899.513	4554
899.633	4573
899.753	4596
899.873	4550
899.993	4603
900.113	4569
900.232	4630
900.352	4603
900.472	4554
900.591	4428
900.711	4538
900.83	4466
900.95	4656
901.069	4675
901.189	4573
901.308	4402
901.427	4325
901.546	4440
901.665	4512
901.784	4580
901.904	4402
902.023	4386
902.141	4185
902.26	4219
902.379	4383
902.498	4284
902.617	4238
902.735	4428
902.854	4409
902.973	4428
903.091	4204
903.21	4299
903.328	4375
903.446	4276
903.565	4268
903.683	4402
903.801	4325
903.919	4455
904.038	4500
904.156	4383
904.274	4466
904.392	4474
904.51	4459
904.627	4504
904.745	4634
904.863	4668
904.981	4474
905.098	4367
905.216	4405
905.334	4459
905.451	4535
905.569	4508
905.686	4569
905.803	4588
905.921	4428
906.038	4577
906.155	4481
906.272	4402
906.389	4455
906.506	4379
906.623	4398
906.74	4390
906.857	4310
906.974	4383
907.091	4611
907.208	4714
907.324	4649
907.441	4493
907.557	4405
907.674	4379
907.79	4344
907.907	4398
908.023	4519
908.139	4569
908.256	4516
908.372	4535
908.488	4504
908.604	4356
908.72	4386
908.836	4405
908.952	4409
909.068	4375
909.184	4580
909.3	4489
909.415	4634
909.531	4561
909.647	4390
909.762	4421
909.878	4341
909.993	4447
910.108	4402
910.224	4478
910.339	4512
910.454	4440
910.57	4375
910.685	4341
910.8	4656
910.915	4618
911.03	4508
911.145	4383
911.259	4337
911.374	4352
911.489	4356
911.604	4341
911.718	4227
911.833	4295
911.947	4067
912.062	4082
912.176	4276
912.291	4246
912.405	4280
912.519	4531
912.633	4504
912.748	4417
912.862	4379
912.976	4276
913.09	4101
913.204	4204
913.318	4299
913.431	4379
913.545	4451
913.659	4462
913.772	4371
913.886	4280
914	4265
914.113	4459
914.226	4443
914.34	4451
914.453	4276
914.566	4440
914.68	4333
914.793	4390
914.906	4177
915.019	4128
915.132	4093
915.245	4158
915.358	4238
915.47	4276
915.583	4329
915.696	4291
915.809	4413
915.921	4470
916.034	4276
916.146	4291
916.259	4215
916.371	4371
916.483	4386
916.595	4280
916.708	4371
916.82	4344
916.932	4337
917.044	4371
917.156	4314
917.268	4257
917.38	4314
917.491	4253
917.603	4379
917.715	4432
917.826	4504
917.938	4333
918.049	4276
918.161	4459
918.272	4580
918.384	4592
918.495	4462
918.606	4314
918.717	4287
918.828	4344
918.939	4386
919.05	4310
919.161	4318
919.272	4177
919.383	4280
919.494	4481
919.604	4630
919.715	4493
919.826	4367
919.936	4394
920.047	4565
920.157	4478
920.267	4721
920.378	4603
920.488	4554
920.598	4774
920.708	4877
920.818	4721
920.928	4771
921.038	4919
921.148	4930
921.258	4630
921.368	4573
921.477	4504
921.587	4478
921.697	4375
921.806	4573
921.916	4424
922.025	4291
922.134	4272
922.244	4246
922.353	4371
922.462	4227
922.571	4147
922.68	4059
922.789	3987
922.898	4025
923.007	4040
923.116	4150
923.224	4086
923.333	4097
923.442	4040
923.55	3983
923.659	4101
923.767	4154
923.876	3994
923.984	4177
924.092	4010
924.201	4051
924.309	4109
924.417	4120
924.525	4078
924.633	4112
924.741	5189
924.849	3922
924.956	4166
925.064	4006
925.172	3934
925.279	3987
925.387	4071
925.494	4105
925.602	4246
925.709	4234
925.816	4051
925.924	4128
926.031	4261
926.138	4204
926.245	4257
926.352	4128
926.459	4261
926.566	4280
926.673	4230
926.779	4097
926.886	4135
926.993	3979
927.099	3941
927.206	3968
927.312	3979
927.419	4025
927.525	4036
927.631	4105
927.737	3983
927.843	3941
927.95	3892
928.056	3994
928.162	4055
928.267	4090
928.373	4714
928.479	4143
928.585	3922
928.69	4059
928.796	4097
928.901	3994
929.007	3873
929.112	4002
929.218	3998
929.323	3964
929.428	3945
929.533	4112
929.638	3941
929.743	3968
929.848	4044
929.953	4032
930.058	3964
930.163	3816
930.267	3854
930.372	4006
930.477	3850
930.581	4101
930.685	3934
930.79	3850
930.894	3922
930.998	3903
931.103	4105
931.207	3736
931.311	3705
931.415	3720
931.519	3530
931.623	3572
