Data from test_V78500241_1128.txt Node
Date: Fri Mar 25 16:56:50 CST 2022
User: usil
Spectrometer: V785-0024
Trigger mode: 0
Integration Time (sec): 4.000000E-1
Scans to average: 1
Nonlinearity correction enabled: false
Boxcar width: 0
Storing dark spectrum: false
XAxis mode: Wavelengths
Number of Pixels in Spectrum: 1024
>>>>>Begin Spectral Data<<<<<
801.071	8039
801.214	8005
801.356	7883
801.499	7811
801.641	7765
801.783	7845
801.926	8035
802.068	7917
802.211	7940
802.353	7928
802.496	7792
802.638	7841
802.78	7830
802.923	7947
803.065	7879
803.208	7852
803.35	7982
803.492	8069
803.635	8157
803.777	7967
803.919	8145
804.061	8454
804.204	8111
804.346	8054
804.488	7913
804.63	8195
804.773	7963
804.915	8020
805.057	8225
805.199	8161
805.341	8229
805.483	8282
805.626	8206
805.768	8088
805.91	8210
806.052	8199
806.194	8050
806.336	8324
806.478	8077
806.62	8024
806.762	8096
806.904	8210
807.046	8461
807.188	8351
807.33	8267
807.472	8355
807.614	8130
807.756	8145
807.898	8027
808.04	7841
808.182	7879
808.324	7875
808.465	7970
808.607	8054
808.749	8149
808.891	8145
809.033	8214
809.174	8176
809.316	8077
809.458	8050
809.6	7967
809.741	7974
809.883	7993
810.025	8081
810.166	8058
810.308	8065
810.45	7959
810.591	7814
810.733	7651
810.875	7620
811.016	7514
811.158	7460
811.299	7548
811.441	7620
811.582	7712
811.724	7586
811.865	7449
812.007	7537
812.148	7582
812.29	7567
812.431	7727
812.573	7822
812.714	7970
812.855	8088
812.997	8195
813.138	8298
813.279	8187
813.421	8035
813.562	7936
813.703	7837
813.845	7788
813.986	7434
814.127	7225
814.268	7206
814.41	7187
814.551	7103
814.692	7179
814.833	7088
814.974	7031
815.115	7069
815.256	6970
815.397	6958
815.539	6947
815.68	6798
815.821	6795
815.962	6783
816.103	6814
816.244	6738
816.385	6650
816.526	6639
816.666	6471
816.807	6304
816.948	6452
817.089	6494
817.23	6464
817.371	6426
817.512	6410
817.653	6410
817.793	6422
817.934	6365
818.075	6452
818.216	6346
818.356	6403
818.497	6209
818.638	6053
818.778	6155
818.919	6155
819.06	6148
819.2	6327
819.341	6296
819.481	6407
819.622	6597
819.762	6681
819.903	6646
820.043	6555
820.184	6593
820.324	6525
820.465	6684
820.605	6681
820.746	6639
820.886	6490
821.026	6604
821.167	6665
821.307	6757
821.447	6818
821.588	6715
821.728	6513
821.868	6490
822.008	6342
822.149	6323
822.289	6273
822.429	6163
822.569	6121
822.709	6053
822.849	5889
822.99	5950
823.13	5923
823.27	5878
823.41	5756
823.55	5779
823.69	5688
823.83	5760
823.97	5630
824.11	5535
824.25	5490
824.389	5524
824.529	5604
824.669	5452
824.809	5611
824.949	5642
825.089	5589
825.228	5512
825.368	5364
825.508	5318
825.648	5360
825.787	5318
825.927	5254
826.067	5277
826.206	5261
826.346	5357
826.485	5353
826.625	5372
826.765	5520
826.904	5444
827.044	5284
827.183	5223
827.323	5121
827.462	5265
827.601	5178
827.741	5140
827.88	5147
828.02	5075
828.159	5197
828.298	5288
828.437	5341
828.577	5284
828.716	5421
828.855	5303
828.994	5193
829.134	5162
829.273	5208
829.412	5124
829.551	5113
829.69	5094
829.829	5166
829.968	5372
830.107	5216
830.246	5254
830.385	5143
830.524	5159
830.663	4999
830.802	4934
830.941	4892
831.08	4858
831.219	5010
831.357	4976
831.496	5140
831.635	4949
831.774	4835
831.913	4831
832.051	4717
832.19	4763
832.329	4809
832.467	4672
832.606	4630
832.744	4729
832.883	4694
833.022	4714
833.16	4759
833.299	4839
833.437	4782
833.576	4831
833.714	4862
833.852	4866
833.991	4881
834.129	4965
834.267	4942
834.406	4934
834.544	4957
834.682	4942
834.821	4976
834.959	5170
835.097	4999
835.235	5170
835.373	5037
835.511	5090
835.65	4987
835.788	4999
835.926	4892
836.064	4881
836.202	4858
836.34	5147
836.478	5227
836.615	5159
836.753	5220
836.891	5258
837.029	5227
837.167	5170
837.305	5124
837.443	5121
837.58	5086
837.718	5204
837.856	5220
837.993	5162
838.131	5174
838.269	5212
838.406	5147
838.544	5178
838.681	5022
838.819	5025
838.956	4881
839.094	4900
839.231	4965
839.369	5071
839.506	5406
839.643	5246
839.781	5010
839.918	5025
840.055	5071
840.193	5052
840.33	5132
840.467	5102
840.604	5159
840.742	5444
840.879	5090
841.016	5079
841.153	5113
841.29	5372
841.427	5258
841.564	5330
841.701	5349
841.838	5197
841.975	5235
842.112	5227
842.249	5151
842.385	5113
842.522	5364
842.659	5170
842.796	5162
842.933	5166
843.069	5147
843.206	5132
843.343	5277
843.479	5159
843.616	5269
843.752	5014
843.889	5037
844.025	5235
844.162	5022
844.298	5201
844.435	5071
844.571	5010
844.708	5178
844.844	5353
844.98	5341
845.117	5303
845.253	5124
845.389	5045
845.525	5132
845.661	5151
845.798	5003
845.934	5140
846.07	5075
846.206	5181
846.342	5277
846.478	5166
846.614	5048
846.75	4934
846.886	4892
847.022	5121
847.158	5010
847.294	5071
847.429	5090
847.565	5060
847.701	5288
847.837	4862
847.972	4748
848.108	4961
848.244	4858
848.379	4774
848.515	4714
848.65	4714
848.786	4694
848.921	4786
849.057	4854
849.192	4923
849.328	4782
849.463	4805
849.598	4748
849.734	4759
849.869	4691
850.004	4588
850.14	4626
850.275	4569
850.41	4535
850.545	4519
850.68	4596
850.815	4603
850.95	4596
851.085	4885
851.22	4729
851.355	4626
851.49	4618
851.625	4588
851.76	4615
851.895	4558
852.03	4527
852.165	4618
852.299	4740
852.434	4786
852.569	4698
852.703	4839
852.838	4847
852.973	4881
853.107	4908
853.242	4702
853.376	4664
853.511	4516
853.645	4588
853.78	4782
853.914	4714
854.048	4698
854.183	4626
854.317	4683
854.451	4858
854.585	4679
854.72	4615
854.854	4748
854.988	4588
855.122	4596
855.256	4531
855.39	4630
855.524	4774
855.658	4710
855.792	4679
855.926	4714
856.06	4729
856.194	4744
856.327	4691
856.461	4607
856.595	4626
856.729	4626
856.862	4771
856.996	4691
857.13	4691
857.263	4717
857.397	4801
857.53	4672
857.664	4691
857.797	4752
857.931	4736
858.064	4645
858.197	4729
858.331	4653
858.464	4645
858.597	4527
858.731	4588
858.864	4615
858.997	4607
859.13	4653
859.263	4637
859.396	4698
859.529	4558
859.662	4546
859.795	4508
859.928	4599
860.061	4774
860.194	4759
860.327	4618
860.46	4535
860.592	4683
860.725	4744
860.858	4729
860.99	4519
861.123	4565
861.256	4546
861.388	4573
861.521	5265
861.653	4516
861.786	4500
861.918	4443
862.05	4485
862.183	4493
862.315	4611
862.447	4626
862.58	4538
862.712	4424
862.844	4265
862.976	4493
863.108	4436
863.24	4877
863.372	4306
863.504	4409
863.636	4383
863.768	4459
863.9	4409
864.032	4348
864.164	4383
864.296	4481
864.428	4546
864.559	4542
864.691	4535
864.823	4497
864.954	4512
865.086	4542
865.217	4432
865.349	4398
865.48	4436
865.612	4432
865.743	4645
865.875	4481
866.006	4413
866.137	4466
866.269	4383
866.4	4356
866.531	4451
866.662	4375
866.793	4413
866.924	4405
867.055	4485
867.186	4417
867.317	4405
867.448	4348
867.579	4371
867.71	4413
867.841	4386
867.972	4466
868.103	4474
868.233	4436
868.364	4485
868.495	4481
868.625	4653
868.756	4740
868.886	4546
869.017	4660
869.147	4721
869.278	4721
869.408	4588
869.539	4622
869.669	4736
869.799	4656
869.929	4729
870.06	4691
870.19	4908
870.32	4862
870.45	4892
870.58	4995
870.71	5079
870.84	5086
870.97	4965
871.1	4850
871.23	5109
871.36	5071
871.489	5041
871.619	5060
871.749	5094
871.879	5109
872.008	5143
872.138	5022
872.267	4938
872.397	4847
872.526	4748
872.656	4706
872.785	4748
872.915	4965
873.044	5014
873.173	4896
873.303	4984
873.432	4999
873.561	4885
873.69	4873
873.819	4866
873.948	4911
874.077	4892
874.206	4767
874.335	4763
874.464	4934
874.593	5041
874.722	4927
874.851	5090
874.979	5029
875.108	5033
875.237	4930
875.365	4889
875.494	4847
875.623	4949
875.751	4820
875.88	4839
876.008	4976
876.136	5037
876.265	5117
876.393	5265
876.521	5231
876.65	5178
876.778	5151
876.906	5014
877.034	4999
877.162	5045
877.29	4976
877.418	5052
877.546	5041
877.674	5056
877.802	5010
877.93	5025
878.058	4915
878.185	4824
878.313	4915
878.441	4885
878.568	4721
878.696	4862
878.824	4949
878.951	4980
879.079	5121
879.206	5239
879.333	5056
879.461	5018
879.588	4938
879.715	5098
879.842	5178
879.97	4991
880.097	4774
880.224	4763
880.351	4759
880.478	4801
880.605	4801
880.732	4778
880.859	5090
880.986	4934
881.112	4835
881.239	4717
881.366	4626
881.493	4626
881.619	4569
881.746	4672
881.872	4641
881.999	4660
882.125	4698
882.252	4782
882.378	4809
882.505	4957
882.631	4801
882.757	4615
882.883	4687
883.01	4694
883.136	4668
883.262	4664
883.388	4615
883.514	4816
883.64	4854
883.766	4740
883.892	4630
884.018	4714
884.143	4847
884.269	4961
884.395	4645
884.52	4607
884.646	4630
884.772	4573
884.897	4519
885.023	4649
885.148	4744
885.274	4831
885.399	4831
885.524	4691
885.65	4634
885.775	4679
885.9	4710
886.025	4850
886.15	4835
886.275	4706
886.4	4630
886.525	4755
886.65	4592
886.775	4706
886.9	4889
887.025	5022
887.149	4778
887.274	4649
887.399	4603
887.523	4615
887.648	4584
887.773	4641
887.897	4786
888.021	4755
888.146	4691
888.27	4782
888.395	4892
888.519	4828
888.643	4835
888.767	4824
888.891	4694
889.015	4588
889.139	4637
889.263	4596
889.387	4714
889.511	4847
889.635	4801
889.759	4596
889.883	4675
890.006	4702
890.13	4778
890.254	4561
890.377	4645
890.501	4565
890.624	4497
890.748	4603
890.871	4474
890.995	4424
891.118	4383
891.241	4497
891.364	4508
891.488	4596
891.611	4531
891.734	4508
891.857	4599
891.98	4546
892.103	4672
892.226	4577
892.349	4523
892.471	4390
892.594	4485
892.717	4577
892.839	4630
892.962	4577
893.085	4675
893.207	4622
893.33	4447
893.452	4512
893.575	4702
893.697	4592
893.819	4752
893.941	4831
894.064	4774
894.186	4626
894.308	4599
894.43	4714
894.552	4824
894.674	4736
894.796	4519
894.918	4626
895.04	4546
895.161	4725
895.283	4592
895.405	4561
895.526	4596
895.648	4714
895.769	4634
895.891	4691
896.012	4721
896.134	4706
896.255	4691
896.376	4656
896.498	4637
896.619	4668
896.74	4618
896.861	4626
896.982	4892
897.103	5045
897.224	4793
897.345	4736
897.466	4687
897.587	4683
897.708	4885
897.828	4740
897.949	4618
898.07	4580
898.19	4615
898.311	4824
898.431	4653
898.552	4759
898.672	4812
898.792	4828
898.913	4752
899.033	4630
899.153	4538
899.273	4371
899.393	4485
899.513	4535
899.633	4546
899.753	4546
899.873	4447
899.993	4561
900.113	4542
900.232	4573
900.352	4523
900.472	4455
900.591	4398
900.711	4481
900.83	4421
900.95	4577
901.069	4683
901.189	4519
901.308	4314
901.427	4329
901.546	4367
901.665	4421
901.784	4512
901.904	4356
902.023	4284
902.141	4181
902.26	4192
902.379	4318
902.498	4223
902.617	4204
902.735	4329
902.854	4379
902.973	4280
903.091	4173
903.21	4211
903.328	4257
903.446	4234
903.565	4249
903.683	4318
903.801	4249
903.919	4383
904.038	4466
904.156	4360
904.274	4436
904.392	4379
904.51	4394
904.627	4417
904.745	4538
904.863	4645
904.981	4341
905.098	4276
905.216	4367
905.334	4371
905.451	4440
905.569	4413
905.686	4554
905.803	4554
905.921	4383
906.038	4554
906.155	4478
906.272	4413
906.389	4428
906.506	4333
906.623	4337
906.74	4394
906.857	4257
906.974	4348
907.091	4565
907.208	4679
907.324	4577
907.441	4474
907.557	4299
907.674	4333
907.79	4303
907.907	4383
908.023	4485
908.139	4466
908.256	4413
908.372	4390
908.488	4478
908.604	4379
908.72	4333
908.836	4337
908.952	4398
909.068	4424
909.184	4561
909.3	4413
909.415	4599
909.531	4569
909.647	4363
909.762	4375
909.878	4322
909.993	4459
910.108	4417
910.224	4375
910.339	4500
910.454	4383
910.57	4394
910.685	4333
910.8	4656
910.915	4599
911.03	4462
911.145	4284
911.259	4318
911.374	4356
911.489	4272
911.604	4234
911.718	4158
911.833	4177
911.947	4067
912.062	4032
912.176	4154
912.291	4223
912.405	4211
912.519	4466
912.633	4519
912.748	4383
912.862	4303
912.976	4211
913.09	4097
913.204	4204
913.318	4215
913.431	4352
913.545	4329
913.659	4424
913.772	4325
913.886	4238
914	4204
914.113	4333
914.226	4455
914.34	4375
914.453	4211
914.566	4360
914.68	4306
914.793	4352
914.906	4135
915.019	4109
915.132	4063
915.245	4169
915.358	4177
915.47	4246
915.583	4268
915.696	4230
915.809	4352
915.921	4409
916.034	4242
916.146	4227
916.259	4215
916.371	4360
916.483	4306
916.595	4261
916.708	4322
916.82	4261
916.932	4287
917.044	4325
917.156	4261
917.268	4204
917.38	4265
917.491	4257
917.603	4284
917.715	4383
917.826	4413
917.938	4322
918.049	4215
918.161	4424
918.272	4504
918.384	4561
918.495	4417
918.606	4253
918.717	4242
918.828	4325
918.939	4409
919.05	4295
919.161	4306
919.272	4078
919.383	4211
919.494	4424
919.604	4630
919.715	4417
919.826	4356
919.936	4371
920.047	4493
920.157	4485
920.267	4691
920.378	4531
920.488	4478
920.598	4733
920.708	4892
920.818	4790
920.928	4809
921.038	4915
921.148	4892
921.258	4554
921.368	4569
921.477	4474
921.587	4440
921.697	4367
921.806	4554
921.916	4417
922.025	4249
922.134	4287
922.244	4200
922.353	4333
922.462	4211
922.571	4063
922.68	3983
922.789	3972
922.898	4059
923.007	3975
923.116	4059
923.224	4082
923.333	4082
923.442	3968
923.55	3979
923.659	4021
923.767	4086
923.876	4025
923.984	4124
924.092	3960
924.201	4093
924.309	4067
924.417	4093
924.525	4078
924.633	4074
924.741	5064
924.849	3903
924.956	4109
925.064	3941
925.172	3945
925.279	3953
925.387	4063
925.494	4048
925.602	4188
925.709	4158
925.816	4032
925.924	4078
926.031	4188
926.138	4135
926.245	4219
926.352	4086
926.459	4261
926.566	4333
926.673	4128
926.779	4067
926.886	4032
926.993	3956
927.099	3926
927.206	3945
927.312	3922
927.419	4036
927.525	3979
927.631	4097
927.737	3953
927.843	3953
927.95	3819
928.056	3911
928.162	3979
928.267	4036
928.373	4683
928.479	4074
928.585	3857
928.69	4002
928.796	4055
928.901	3975
929.007	3793
929.112	4029
929.218	3972
929.323	3960
929.428	3926
929.533	4120
929.638	3907
929.743	3953
929.848	4025
929.953	3994
930.058	3899
930.163	3747
930.267	3793
930.372	3979
930.477	3804
930.581	4063
930.685	3903
930.79	3816
930.894	3835
930.998	3835
931.103	4032
931.207	3690
931.311	3637
931.415	3660
931.519	3492
931.623	3542
