Data from test_V78500241_1478.txt Node
Date: Fri Mar 25 16:59:16 CST 2022
User: usil
Spectrometer: V785-0024
Trigger mode: 0
Integration Time (sec): 4.000000E-1
Scans to average: 1
Nonlinearity correction enabled: false
Boxcar width: 0
Storing dark spectrum: false
XAxis mode: Wavelengths
Number of Pixels in Spectrum: 1024
>>>>>Begin Spectral Data<<<<<
801.071	8016
801.214	7989
801.356	7822
801.499	7856
801.641	7792
801.783	7818
801.926	7944
802.068	7871
802.211	7997
802.353	7959
802.496	7833
802.638	7909
802.78	7887
802.923	7970
803.065	7993
803.208	7830
803.35	7913
803.492	8088
803.635	8119
803.777	8035
803.919	8126
804.061	8465
804.204	8168
804.346	8088
804.488	7928
804.63	8088
804.773	8024
804.915	8092
805.057	8279
805.199	8161
805.341	8218
805.483	8305
805.626	8191
805.768	8103
805.91	8221
806.052	8229
806.194	8149
806.336	8221
806.478	8119
806.62	8043
806.762	8134
806.904	8339
807.046	8507
807.188	8328
807.33	8229
807.472	8317
807.614	8161
807.756	8092
807.898	7989
808.04	7887
808.182	7909
808.324	7913
808.465	7963
808.607	8115
808.749	8103
808.891	8210
809.033	8309
809.174	8210
809.316	8046
809.458	8020
809.6	8062
809.741	8050
809.883	7993
810.025	8130
810.166	8077
810.308	8046
810.45	8039
810.591	7830
810.733	7738
810.875	7643
811.016	7453
811.158	7434
811.299	7559
811.441	7670
811.582	7719
811.724	7605
811.865	7445
812.007	7552
812.148	7548
812.29	7616
812.431	7723
812.573	7852
812.714	8001
812.855	8069
812.997	8123
813.138	8279
813.279	8195
813.421	8100
813.562	7959
813.703	7841
813.845	7746
813.986	7400
814.127	7263
814.268	7221
814.41	7202
814.551	7145
814.692	7194
814.833	7103
814.974	7099
815.115	7122
815.256	6939
815.397	6954
815.539	6954
815.68	6814
815.821	6760
815.962	6783
816.103	6837
816.244	6616
816.385	6612
816.526	6597
816.666	6483
816.807	6289
816.948	6460
817.089	6471
817.23	6403
817.371	6365
817.512	6357
817.653	6414
817.793	6350
817.934	6422
818.075	6429
818.216	6445
818.356	6331
818.497	6235
818.638	6129
818.778	6106
818.919	6125
819.06	6144
819.2	6346
819.341	6304
819.481	6350
819.622	6460
819.762	6703
819.903	6684
820.043	6582
820.184	6570
820.324	6582
820.465	6738
820.605	6631
820.746	6631
820.886	6498
821.026	6627
821.167	6688
821.307	6745
821.447	6730
821.588	6692
821.728	6540
821.868	6517
822.008	6323
822.149	6391
822.289	6357
822.429	6106
822.569	6057
822.709	6083
822.849	5893
822.99	5874
823.13	5874
823.27	5904
823.41	5802
823.55	5824
823.69	5783
823.83	5710
823.97	5630
824.11	5528
824.25	5478
824.389	5562
824.529	5589
824.669	5501
824.809	5600
824.949	5653
825.089	5592
825.228	5528
825.368	5376
825.508	5368
825.648	5322
825.787	5417
825.927	5372
826.067	5280
826.206	5284
826.346	5334
826.485	5341
826.625	5391
826.765	5543
826.904	5478
827.044	5261
827.183	5185
827.323	5113
827.462	5250
827.601	5143
827.741	5174
827.88	5227
828.02	5071
828.159	5242
828.298	5269
828.437	5395
828.577	5269
828.716	5467
828.855	5326
828.994	5193
829.134	5166
829.273	5178
829.412	5151
829.551	5094
829.69	5151
829.829	5235
829.968	5284
830.107	5280
830.246	5223
830.385	5162
830.524	5102
830.663	4976
830.802	5029
830.941	4881
831.08	4858
831.219	5006
831.357	4961
831.496	5193
831.635	4911
831.774	4824
831.913	4847
832.051	4702
832.19	4755
832.329	4862
832.467	4691
832.606	4607
832.744	4721
832.883	4733
833.022	4694
833.16	4778
833.299	4824
833.437	4820
833.576	4850
833.714	4828
833.852	4816
833.991	4847
834.129	4965
834.267	4942
834.406	4862
834.544	4968
834.682	4949
834.821	4949
834.959	5151
835.097	5014
835.235	5113
835.373	5113
835.511	5117
835.65	5056
835.788	5018
835.926	4862
836.064	4889
836.202	4911
836.34	5155
836.478	5223
836.615	5064
836.753	5204
836.891	5280
837.029	5307
837.167	5159
837.305	5151
837.443	5128
837.58	5075
837.718	5201
837.856	5147
837.993	5109
838.131	5220
838.269	5216
838.406	5181
838.544	5181
838.681	5033
838.819	4961
838.956	4949
839.094	4904
839.231	4953
839.369	5037
839.506	5395
839.643	5269
839.781	5041
839.918	5014
840.055	5056
840.193	5075
840.33	5090
840.467	5090
840.604	5102
840.742	5410
840.879	5056
841.016	5083
841.153	5090
841.29	5307
841.427	5341
841.564	5258
841.701	5349
841.838	5220
841.975	5258
842.112	5212
842.249	5094
842.385	5136
842.522	5303
842.659	5216
842.796	5132
842.933	5204
843.069	5159
843.206	5140
843.343	5273
843.479	5239
843.616	5216
843.752	5052
843.889	4946
844.025	5197
844.162	5010
844.298	5193
844.435	5094
844.571	5086
844.708	5189
844.844	5261
844.98	5315
845.117	5280
845.253	5117
845.389	5067
845.525	5185
845.661	5117
845.798	5025
845.934	5128
846.07	5067
846.206	5189
846.342	5254
846.478	5204
846.614	5041
846.75	4957
846.886	4892
847.022	5170
847.158	5014
847.294	5033
847.429	5121
847.565	5041
847.701	5242
847.837	4831
847.972	4843
848.108	4938
848.244	4930
848.379	4771
848.515	4710
848.65	4687
848.786	4740
848.921	4778
849.057	4873
849.192	4896
849.328	4793
849.463	4835
849.598	4812
849.734	4752
849.869	4691
850.004	4592
850.14	4626
850.275	4645
850.41	4508
850.545	4558
850.68	4561
850.815	4611
850.95	4630
851.085	4820
851.22	4736
851.355	4641
851.49	4577
851.625	4637
851.76	4603
851.895	4565
852.03	4474
852.165	4577
852.299	4660
852.434	4820
852.569	4721
852.703	4759
852.838	4820
852.973	4866
853.107	4904
853.242	4702
853.376	4717
853.511	4538
853.645	4618
853.78	4809
853.914	4645
854.048	4653
854.183	4607
854.317	4656
854.451	4881
854.585	4641
854.72	4607
854.854	4752
854.988	4599
855.122	4622
855.256	4516
855.39	4656
855.524	4767
855.658	4687
855.792	4660
855.926	4702
856.06	4759
856.194	4767
856.327	4736
856.461	4584
856.595	4615
856.729	4645
856.862	4717
856.996	4672
857.13	4767
857.263	4729
857.397	4786
857.53	4637
857.664	4729
857.797	4759
857.931	4748
858.064	4752
858.197	4717
858.331	4603
858.464	4558
858.597	4527
858.731	4653
858.864	4630
858.997	4588
859.13	4580
859.263	4706
859.396	4694
859.529	4569
859.662	4527
859.795	4470
859.928	4611
860.061	4698
860.194	4801
860.327	4592
860.46	4592
860.592	4717
860.725	4683
860.858	4714
860.99	4569
861.123	4481
861.256	4527
861.388	4626
861.521	5444
861.653	4459
861.786	4394
861.918	4478
862.05	4523
862.183	4554
862.315	4565
862.447	4637
862.58	4516
862.712	4383
862.844	4280
862.976	4489
863.108	4451
863.24	4755
863.372	4333
863.504	4428
863.636	4409
863.768	4569
863.9	4413
864.032	4379
864.164	4413
864.296	4428
864.428	4546
864.559	4550
864.691	4481
864.823	4519
864.954	4550
865.086	4497
865.217	4421
865.349	4417
865.48	4466
865.612	4531
865.743	4645
865.875	4485
866.006	4386
866.137	4455
866.269	4474
866.4	4466
866.531	4413
866.662	4413
866.793	4402
866.924	4436
867.055	4474
867.186	4390
867.317	4451
867.448	4341
867.579	4462
867.71	4356
867.841	4367
867.972	4451
868.103	4462
868.233	4466
868.364	4436
868.495	4443
868.625	4687
868.756	4771
868.886	4592
869.017	4592
869.147	4736
869.278	4767
869.408	4641
869.539	4630
869.669	4710
869.799	4687
869.929	4736
870.06	4744
870.19	4961
870.32	4911
870.45	4911
870.58	4984
870.71	5052
870.84	5086
870.97	4961
871.1	4870
871.23	5155
871.36	5098
871.489	4999
871.619	5094
871.749	5121
871.879	5136
872.008	5174
872.138	5071
872.267	4946
872.397	4881
872.526	4763
872.656	4694
872.785	4786
872.915	4938
873.044	5041
873.173	4892
873.303	4904
873.432	4949
873.561	4957
873.69	4896
873.819	4828
873.948	4870
874.077	4839
874.206	4725
874.335	4820
874.464	4942
874.593	5033
874.722	4949
874.851	5121
874.979	5033
875.108	5045
875.237	4927
875.365	4881
875.494	4870
875.623	5006
875.751	4809
875.88	4862
876.008	4991
876.136	5037
876.265	5189
876.393	5292
876.521	5246
876.65	5178
876.778	5181
876.906	5079
877.034	5006
877.162	4984
877.29	5006
877.418	5067
877.546	5056
877.674	5010
877.802	4984
877.93	5018
878.058	4873
878.185	4839
878.313	4980
878.441	4957
878.568	4793
878.696	4885
878.824	4953
878.951	4961
879.079	5121
879.206	5273
879.333	5105
879.461	4900
879.588	5022
879.715	5117
879.842	5212
879.97	5022
880.097	4797
880.224	4793
880.351	4763
880.478	4786
880.605	4816
880.732	4755
880.859	5048
880.986	4858
881.112	4881
881.239	4759
881.366	4672
881.493	4554
881.619	4577
881.746	4656
881.872	4596
881.999	4622
882.125	4675
882.252	4782
882.378	4831
882.505	4934
882.631	4786
882.757	4698
882.883	4710
883.01	4748
883.136	4649
883.262	4565
883.388	4561
883.514	4812
883.64	4835
883.766	4767
883.892	4675
884.018	4710
884.143	4877
884.269	5014
884.395	4645
884.52	4626
884.646	4630
884.772	4516
884.897	4538
885.023	4691
885.148	4793
885.274	4843
885.399	4816
885.524	4694
885.65	4694
885.775	4744
885.9	4694
886.025	4839
886.15	4824
886.275	4721
886.4	4607
886.525	4683
886.65	4679
886.775	4694
886.9	4972
887.025	5064
887.149	4767
887.274	4599
887.399	4569
887.523	4561
887.648	4618
887.773	4584
887.897	4710
888.021	4755
888.146	4637
888.27	4812
888.395	4889
888.519	4767
888.643	4801
888.767	4790
888.891	4691
889.015	4599
889.139	4653
889.263	4592
889.387	4687
889.511	4820
889.635	4812
889.759	4592
889.883	4660
890.006	4706
890.13	4843
890.254	4596
890.377	4660
890.501	4554
890.624	4481
890.748	4618
890.871	4527
890.995	4455
891.118	4379
891.241	4558
891.364	4519
891.488	4599
891.611	4512
891.734	4569
891.857	4569
891.98	4592
892.103	4611
892.226	4592
892.349	4565
892.471	4440
892.594	4512
892.717	4607
892.839	4580
892.962	4561
893.085	4653
893.207	4599
893.33	4424
893.452	4512
893.575	4630
893.697	4554
893.819	4786
893.941	4805
894.064	4793
894.186	4615
894.308	4550
894.43	4793
894.552	4805
894.674	4717
894.796	4580
894.918	4592
895.04	4546
895.161	4698
895.283	4649
895.405	4554
895.526	4592
895.648	4672
895.769	4645
895.891	4721
896.012	4714
896.134	4771
896.255	4656
896.376	4653
896.498	4615
896.619	4679
896.74	4607
896.861	4645
896.982	4919
897.103	5102
897.224	4816
897.345	4702
897.466	4664
897.587	4721
897.708	4854
897.828	4771
897.949	4672
898.07	4550
898.19	4596
898.311	4771
898.431	4626
898.552	4736
898.672	4771
898.792	4797
898.913	4744
899.033	4607
899.153	4485
899.273	4398
899.393	4500
899.513	4538
899.633	4508
899.753	4569
899.873	4538
899.993	4577
900.113	4561
900.232	4603
900.352	4538
900.472	4512
900.591	4386
900.711	4493
900.83	4440
900.95	4538
901.069	4683
901.189	4531
901.308	4356
901.427	4329
901.546	4367
901.665	4474
901.784	4500
901.904	4398
902.023	4299
902.141	4192
902.26	4150
902.379	4322
902.498	4234
902.617	4177
902.735	4329
902.854	4402
902.973	4367
903.091	4158
903.21	4227
903.328	4268
903.446	4287
903.565	4204
903.683	4371
903.801	4287
903.919	4390
904.038	4413
904.156	4310
904.274	4417
904.392	4390
904.51	4417
904.627	4443
904.745	4577
904.863	4603
904.981	4386
905.098	4306
905.216	4371
905.334	4443
905.451	4421
905.569	4417
905.686	4577
905.803	4535
905.921	4360
906.038	4527
906.155	4489
906.272	4379
906.389	4447
906.506	4383
906.623	4352
906.74	4398
906.857	4287
906.974	4363
907.091	4519
907.208	4717
907.324	4577
907.441	4558
907.557	4344
907.674	4352
907.79	4322
907.907	4379
908.023	4470
908.139	4527
908.256	4432
908.372	4508
908.488	4443
908.604	4363
908.72	4291
908.836	4352
908.952	4348
909.068	4371
909.184	4554
909.3	4504
909.415	4596
909.531	4546
909.647	4306
909.762	4325
909.878	4314
909.993	4451
910.108	4417
910.224	4356
910.339	4421
910.454	4379
910.57	4383
910.685	4310
910.8	4717
910.915	4554
911.03	4470
911.145	4287
911.259	4325
911.374	4337
911.489	4360
911.604	4257
911.718	4150
911.833	4219
911.947	4093
912.062	4051
912.176	4211
912.291	4234
912.405	4246
912.519	4451
912.633	4493
912.748	4394
912.862	4322
912.976	4204
913.09	4093
913.204	4166
913.318	4227
913.431	4375
913.545	4325
913.659	4462
913.772	4367
913.886	4276
914	4211
914.113	4367
914.226	4428
914.34	4371
914.453	4211
914.566	4440
914.68	4322
914.793	4341
914.906	4192
915.019	4139
915.132	4086
915.245	4135
915.358	4227
915.47	4219
915.583	4284
915.696	4272
915.809	4402
915.921	4383
916.034	4299
916.146	4238
916.259	4185
916.371	4375
916.483	4291
916.595	4253
916.708	4337
916.82	4303
916.932	4306
917.044	4299
917.156	4356
917.268	4253
917.38	4284
917.491	4257
917.603	4318
917.715	4371
917.826	4440
917.938	4341
918.049	4207
918.161	4436
918.272	4512
918.384	4512
918.495	4481
918.606	4318
918.717	4261
918.828	4306
918.939	4421
919.05	4227
919.161	4325
919.272	4147
919.383	4242
919.494	4440
919.604	4683
919.715	4428
919.826	4337
919.936	4371
920.047	4531
920.157	4481
920.267	4675
920.378	4546
920.488	4516
920.598	4702
920.708	4915
920.818	4748
920.928	4748
921.038	4934
921.148	4923
921.258	4607
921.368	4561
921.477	4485
921.587	4485
921.697	4363
921.806	4500
921.916	4424
922.025	4303
922.134	4276
922.244	4261
922.353	4348
922.462	4188
922.571	4101
922.68	4048
922.789	3953
922.898	3975
923.007	3994
923.116	4090
923.224	4040
923.333	4055
923.442	3949
923.55	3998
923.659	4048
923.767	4116
923.876	4010
923.984	4105
924.092	3956
924.201	4074
924.309	4071
924.417	4101
924.525	4074
924.633	4116
924.741	5075
924.849	3934
924.956	4101
925.064	3941
925.172	3876
925.279	3960
925.387	4025
925.494	4105
925.602	4196
925.709	4143
925.816	4082
925.924	4128
926.031	4166
926.138	4158
926.245	4223
926.352	4131
926.459	4234
926.566	4291
926.673	4162
926.779	4059
926.886	4048
926.993	3930
927.099	3979
927.206	3979
927.312	3964
927.419	4040
927.525	4021
927.631	4112
927.737	3994
927.843	3907
927.95	3854
928.056	3937
928.162	3987
928.267	4063
928.373	4573
928.479	4162
928.585	3873
928.69	3994
928.796	4055
928.901	3979
929.007	3823
929.112	4002
929.218	3975
929.323	3941
929.428	3941
929.533	4105
929.638	3918
929.743	3998
929.848	4048
929.953	4036
930.058	3911
930.163	3774
930.267	3819
930.372	3960
930.477	3827
930.581	4097
930.685	3949
930.79	3827
930.894	3857
930.998	3873
931.103	4067
931.207	3671
931.311	3701
931.415	3652
931.519	3538
931.623	3538
