Data from test_V78500241_2107.txt Node
Date: Fri Mar 25 17:03:39 CST 2022
User: usil
Spectrometer: V785-0024
Trigger mode: 0
Integration Time (sec): 4.000000E-1
Scans to average: 1
Nonlinearity correction enabled: false
Boxcar width: 0
Storing dark spectrum: false
XAxis mode: Wavelengths
Number of Pixels in Spectrum: 1024
>>>>>Begin Spectral Data<<<<<
801.071	7947
801.214	7925
801.356	7845
801.499	7822
801.641	7772
801.783	7860
801.926	7925
802.068	7852
802.211	7974
802.353	7936
802.496	7841
802.638	7864
802.78	7875
802.923	7887
803.065	7868
803.208	7921
803.35	7955
803.492	8084
803.635	8115
803.777	8031
803.919	8145
804.061	8434
804.204	8126
804.346	8054
804.488	7955
804.63	8092
804.773	7928
804.915	8046
805.057	8244
805.199	8111
805.341	8195
805.483	8286
805.626	8176
805.768	8069
805.91	8237
806.052	8206
806.194	8149
806.336	8362
806.478	8161
806.62	8027
806.762	8153
806.904	8275
807.046	8457
807.188	8355
807.33	8259
807.472	8294
807.614	8119
807.756	8149
807.898	7951
808.04	7913
808.182	7868
808.324	7921
808.465	7879
808.607	8092
808.749	8069
808.891	8210
809.033	8339
809.174	8210
809.316	8096
809.458	8050
809.6	8054
809.741	7997
809.883	8058
810.025	8027
810.166	8046
810.308	8069
810.45	8008
810.591	7799
810.733	7670
810.875	7597
811.016	7540
811.158	7457
811.299	7582
811.441	7666
811.582	7609
811.724	7594
811.865	7540
812.007	7575
812.148	7594
812.29	7666
812.431	7746
812.573	7837
812.714	7951
812.855	8145
812.997	8199
813.138	8267
813.279	8172
813.421	8119
813.562	8005
813.703	7799
813.845	7696
813.986	7407
814.127	7266
814.268	7278
814.41	7175
814.551	7168
814.692	7213
814.833	7122
814.974	7152
815.115	7114
815.256	7065
815.397	6932
815.539	6890
815.68	6852
815.821	6715
815.962	6894
816.103	6859
816.244	6730
816.385	6589
816.526	6589
816.666	6486
816.807	6346
816.948	6407
817.089	6452
817.23	6380
817.371	6445
817.512	6372
817.653	6391
817.793	6361
817.934	6460
818.075	6448
818.216	6452
818.356	6403
818.497	6254
818.638	6125
818.778	6114
818.919	6136
819.06	6129
819.2	6273
819.341	6372
819.481	6380
819.622	6574
819.762	6696
819.903	6631
820.043	6635
820.184	6555
820.324	6551
820.465	6669
820.605	6646
820.746	6688
820.886	6475
821.026	6658
821.167	6703
821.307	6818
821.447	6783
821.588	6711
821.728	6608
821.868	6521
822.008	6353
822.149	6323
822.289	6338
822.429	6144
822.569	6041
822.709	6079
822.849	5901
822.99	5851
823.13	5912
823.27	5904
823.41	5779
823.55	5809
823.69	5748
823.83	5748
823.97	5688
824.11	5551
824.25	5474
824.389	5554
824.529	5577
824.669	5535
824.809	5668
824.949	5630
825.089	5577
825.228	5596
825.368	5379
825.508	5334
825.648	5364
825.787	5379
825.927	5368
826.067	5337
826.206	5258
826.346	5357
826.485	5395
826.625	5421
826.765	5509
826.904	5452
827.044	5178
827.183	5159
827.323	5162
827.462	5201
827.601	5159
827.741	5151
827.88	5201
828.02	5064
828.159	5292
828.298	5307
828.437	5326
828.577	5284
828.716	5471
828.855	5303
828.994	5159
829.134	5151
829.273	5166
829.412	5143
829.551	5155
829.69	5166
829.829	5208
829.968	5353
830.107	5277
830.246	5299
830.385	5159
830.524	5162
830.663	5083
830.802	5048
830.941	4870
831.08	4919
831.219	4987
831.357	4946
831.496	5132
831.635	4904
831.774	4850
831.913	4847
832.051	4717
832.19	4748
832.329	4862
832.467	4759
832.606	4664
832.744	4717
832.883	4691
833.022	4702
833.16	4744
833.299	4831
833.437	4858
833.576	4839
833.714	4835
833.852	4885
833.991	4843
834.129	4968
834.267	4987
834.406	4930
834.544	4965
834.682	4972
834.821	4984
834.959	5162
835.097	4995
835.235	5166
835.373	5079
835.511	5079
835.65	5018
835.788	4965
835.926	4850
836.064	4843
836.202	4915
836.34	5151
836.478	5239
836.615	5094
836.753	5185
836.891	5311
837.029	5273
837.167	5170
837.305	5143
837.443	5128
837.58	5056
837.718	5201
837.856	5159
837.993	5105
838.131	5212
838.269	5231
838.406	5216
838.544	5132
838.681	5060
838.819	5006
838.956	4908
839.094	4873
839.231	4961
839.369	5071
839.506	5444
839.643	5261
839.781	5075
839.918	5006
840.055	5090
840.193	5086
840.33	5121
840.467	5109
840.604	5181
840.742	5448
840.879	5086
841.016	5083
841.153	5170
841.29	5349
841.427	5299
841.564	5280
841.701	5326
841.838	5273
841.975	5227
842.112	5246
842.249	5121
842.385	5064
842.522	5337
842.659	5193
842.796	5121
842.933	5189
843.069	5105
843.206	5170
843.343	5277
843.479	5235
843.616	5239
843.752	5064
843.889	5025
844.025	5239
844.162	5033
844.298	5231
844.435	5064
844.571	5006
844.708	5197
844.844	5299
844.98	5429
845.117	5261
845.253	5151
845.389	5132
845.525	5189
845.661	5102
845.798	5045
845.934	5117
846.07	5022
846.206	5193
846.342	5307
846.478	5178
846.614	5022
846.75	4949
846.886	4919
847.022	5102
847.158	5010
847.294	5037
847.429	5117
847.565	5071
847.701	5345
847.837	4877
847.972	4801
848.108	4915
848.244	4976
848.379	4793
848.515	4740
848.65	4683
848.786	4755
848.921	4805
849.057	4877
849.192	4908
849.328	4771
849.463	4850
849.598	4805
849.734	4740
849.869	4664
850.004	4603
850.14	4634
850.275	4588
850.41	4546
850.545	4542
850.68	4611
850.815	4615
850.95	4611
851.085	4824
851.22	4736
851.355	4679
851.49	4607
851.625	4630
851.76	4603
851.895	4561
852.03	4531
852.165	4656
852.299	4649
852.434	4786
852.569	4771
852.703	4782
852.838	4801
852.973	4927
853.107	4927
853.242	4717
853.376	4691
853.511	4569
853.645	4615
853.78	4805
853.914	4649
854.048	4691
854.183	4611
854.317	4710
854.451	4828
854.585	4679
854.72	4653
854.854	4759
854.988	4603
855.122	4626
855.256	4504
855.39	4691
855.524	4778
855.658	4714
855.792	4653
855.926	4736
856.06	4778
856.194	4778
856.327	4706
856.461	4637
856.595	4630
856.729	4641
856.862	4767
856.996	4634
857.13	4740
857.263	4763
857.397	4809
857.53	4637
857.664	4702
857.797	4721
857.931	4725
858.064	4683
858.197	4698
858.331	4687
858.464	4645
858.597	4519
858.731	4645
858.864	4653
858.997	4615
859.13	4664
859.263	4626
859.396	4672
859.529	4561
859.662	4558
859.795	4508
859.928	4615
860.061	4733
860.194	4733
860.327	4618
860.46	4508
860.592	4717
860.725	4717
860.858	4710
860.99	4584
861.123	4516
861.256	4542
861.388	4641
861.521	5425
861.653	4485
861.786	4428
861.918	4436
862.05	4531
862.183	4542
862.315	4596
862.447	4675
862.58	4592
862.712	4386
862.844	4367
862.976	4451
863.108	4474
863.24	4767
863.372	4356
863.504	4383
863.636	4428
863.768	4485
863.9	4421
864.032	4348
864.164	4402
864.296	4542
864.428	4531
864.559	4538
864.691	4478
864.823	4485
864.954	4485
865.086	4474
865.217	4455
865.349	4421
865.48	4443
865.612	4443
865.743	4592
865.875	4489
866.006	4421
866.137	4424
866.269	4451
866.4	4417
866.531	4394
866.662	4405
866.793	4405
866.924	4402
867.055	4474
867.186	4485
867.317	4447
867.448	4356
867.579	4417
867.71	4360
867.841	4371
867.972	4478
868.103	4443
868.233	4405
868.364	4417
868.495	4428
868.625	4675
868.756	4717
868.886	4561
869.017	4637
869.147	4759
869.278	4733
869.408	4607
869.539	4626
869.669	4706
869.799	4603
869.929	4759
870.06	4740
870.19	4991
870.32	4908
870.45	4927
870.58	5006
870.71	5045
870.84	5045
870.97	4915
871.1	4873
871.23	5170
871.36	5159
871.489	5079
871.619	5037
871.749	5075
871.879	5105
872.008	5174
872.138	5052
872.267	4968
872.397	4816
872.526	4805
872.656	4729
872.785	4816
872.915	4972
873.044	5037
873.173	4934
873.303	4946
873.432	4919
873.561	4938
873.69	4927
873.819	4877
873.948	4873
874.077	4824
874.206	4717
874.335	4809
874.464	4968
874.593	5098
874.722	4972
874.851	5056
874.979	5075
875.108	5029
875.237	4957
875.365	4873
875.494	4866
875.623	4965
875.751	4763
875.88	4889
876.008	4987
876.136	4995
876.265	5204
876.393	5318
876.521	5254
876.65	5220
876.778	5181
876.906	5109
877.034	5041
877.162	5029
877.29	5010
877.418	5006
877.546	5006
877.674	5048
877.802	5056
877.93	4999
878.058	4972
878.185	4820
878.313	4949
878.441	4934
878.568	4774
878.696	4923
878.824	4957
878.951	4938
879.079	5094
879.206	5318
879.333	5109
879.461	5022
879.588	5006
879.715	5071
879.842	5178
879.97	4995
880.097	4778
880.224	4771
880.351	4790
880.478	4801
880.605	4820
880.732	4736
880.859	5170
880.986	4881
881.112	4873
881.239	4721
881.366	4630
881.493	4569
881.619	4569
881.746	4615
881.872	4622
881.999	4622
882.125	4736
882.252	4824
882.378	4839
882.505	4919
882.631	4782
882.757	4618
882.883	4729
883.01	4668
883.136	4649
883.262	4618
883.388	4615
883.514	4812
883.64	4934
883.766	4771
883.892	4611
884.018	4771
884.143	4881
884.269	4995
884.395	4656
884.52	4573
884.646	4649
884.772	4599
884.897	4516
885.023	4675
885.148	4797
885.274	4831
885.399	4847
885.524	4694
885.65	4694
885.775	4767
885.9	4740
886.025	4812
886.15	4759
886.275	4717
886.4	4683
886.525	4748
886.65	4668
886.775	4717
886.9	4946
887.025	5018
887.149	4793
887.274	4656
887.399	4573
887.523	4577
887.648	4561
887.773	4607
887.897	4767
888.021	4793
888.146	4660
888.27	4782
888.395	4908
888.519	4786
888.643	4778
888.767	4801
888.891	4706
889.015	4599
889.139	4645
889.263	4630
889.387	4729
889.511	4896
889.635	4824
889.759	4615
889.883	4615
890.006	4714
890.13	4816
890.254	4596
890.377	4622
890.501	4626
890.624	4535
890.748	4611
890.871	4489
890.995	4432
891.118	4386
891.241	4561
891.364	4588
891.488	4596
891.611	4436
891.734	4516
891.857	4577
891.98	4561
892.103	4679
892.226	4588
892.349	4542
892.471	4398
892.594	4538
892.717	4599
892.839	4569
892.962	4569
893.085	4653
893.207	4592
893.33	4478
893.452	4519
893.575	4611
893.697	4588
893.819	4767
893.941	4854
894.064	4759
894.186	4622
894.308	4580
894.43	4748
894.552	4862
894.674	4767
894.796	4508
894.918	4588
895.04	4573
895.161	4691
895.283	4664
895.405	4561
895.526	4596
895.648	4717
895.769	4702
895.891	4679
896.012	4740
896.134	4740
896.255	4634
896.376	4622
896.498	4599
896.619	4675
896.74	4596
896.861	4687
896.982	4911
897.103	5018
897.224	4801
897.345	4736
897.466	4687
897.587	4717
897.708	4858
897.828	4778
897.949	4645
898.07	4565
898.19	4622
898.311	4847
898.431	4683
898.552	4721
898.672	4820
898.792	4763
898.913	4752
899.033	4626
899.153	4485
899.273	4428
899.393	4512
899.513	4519
899.633	4481
899.753	4481
899.873	4516
899.993	4607
900.113	4546
900.232	4584
900.352	4519
900.472	4497
900.591	4398
900.711	4504
900.83	4417
900.95	4599
901.069	4687
901.189	4573
901.308	4371
901.427	4379
901.546	4356
901.665	4447
901.784	4508
901.904	4409
902.023	4344
902.141	4173
902.26	4211
902.379	4337
902.498	4200
902.617	4185
902.735	4409
902.854	4386
902.973	4337
903.091	4219
903.21	4219
903.328	4295
903.446	4246
903.565	4253
903.683	4329
903.801	4230
903.919	4386
904.038	4436
904.156	4344
904.274	4405
904.392	4375
904.51	4432
904.627	4443
904.745	4550
904.863	4626
904.981	4386
905.098	4341
905.216	4352
905.334	4424
905.451	4451
905.569	4440
905.686	4584
905.803	4584
905.921	4440
906.038	4523
906.155	4440
906.272	4455
906.389	4447
906.506	4341
906.623	4375
906.74	4379
906.857	4291
906.974	4356
907.091	4554
907.208	4702
907.324	4622
907.441	4523
907.557	4344
907.674	4314
907.79	4295
907.907	4398
908.023	4455
908.139	4459
908.256	4424
908.372	4481
908.488	4481
908.604	4344
908.72	4329
908.836	4405
908.952	4394
909.068	4447
909.184	4577
909.3	4443
909.415	4561
909.531	4561
909.647	4367
909.762	4344
909.878	4329
909.993	4451
910.108	4417
910.224	4447
910.339	4443
910.454	4363
910.57	4344
910.685	4314
910.8	4592
910.915	4580
911.03	4443
911.145	4318
911.259	4299
911.374	4337
911.489	4325
911.604	4284
911.718	4166
911.833	4204
911.947	4082
912.062	4021
912.176	4215
912.291	4242
912.405	4249
912.519	4466
912.633	4523
912.748	4386
912.862	4318
912.976	4158
913.09	4135
913.204	4150
913.318	4265
913.431	4363
913.545	4352
913.659	4455
913.772	4310
913.886	4276
914	4238
914.113	4375
914.226	4474
914.34	4367
914.453	4265
914.566	4386
914.68	4329
914.793	4325
914.906	4147
915.019	4093
915.132	4154
915.245	4188
915.358	4223
915.47	4238
915.583	4238
915.696	4284
915.809	4367
915.921	4428
916.034	4253
916.146	4227
916.259	4162
916.371	4352
916.483	4394
916.595	4265
916.708	4265
916.82	4325
916.932	4333
917.044	4356
917.156	4325
917.268	4238
917.38	4325
917.491	4314
917.603	4265
917.715	4390
917.826	4462
917.938	4322
918.049	4268
918.161	4375
918.272	4538
918.384	4558
918.495	4440
918.606	4272
918.717	4230
918.828	4360
918.939	4379
919.05	4227
919.161	4348
919.272	4166
919.383	4204
919.494	4481
919.604	4645
919.715	4455
919.826	4318
919.936	4356
920.047	4508
920.157	4478
920.267	4729
920.378	4546
920.488	4546
920.598	4740
920.708	4881
920.818	4744
920.928	4786
921.038	4919
921.148	4927
921.258	4599
921.368	4538
921.477	4493
921.587	4481
921.697	4402
921.806	4527
921.916	4493
922.025	4249
922.134	4249
922.244	4211
922.353	4329
922.462	4147
922.571	4150
922.68	3960
922.789	3975
922.898	4044
923.007	4063
923.116	4101
923.224	4059
923.333	4086
923.442	4013
923.55	3953
923.659	4021
923.767	4097
923.876	4002
923.984	4093
924.092	3987
924.201	4101
924.309	4040
924.417	4143
924.525	4120
924.633	4074
924.741	5006
924.849	3915
924.956	4131
925.064	3934
925.172	3918
925.279	3983
925.387	4032
925.494	4017
925.602	4215
925.709	4177
925.816	4063
925.924	4124
926.031	4223
926.138	4169
926.245	4227
926.352	4112
926.459	4280
926.566	4280
926.673	4139
926.779	4082
926.886	4074
926.993	3983
927.099	3941
927.206	3892
927.312	3953
927.419	4078
927.525	3975
927.631	4090
927.737	3953
927.843	3956
927.95	3812
928.056	3983
928.162	4032
928.267	4051
928.373	4611
928.479	4105
928.585	3857
928.69	4029
928.796	4059
928.901	3972
929.007	3850
929.112	3956
929.218	3991
929.323	3907
929.428	3930
929.533	4078
929.638	3876
929.743	3953
929.848	4010
929.953	4002
930.058	3922
930.163	3800
930.267	3770
930.372	3998
930.477	3774
930.581	4059
930.685	3918
930.79	3835
930.894	3838
930.998	3831
931.103	4002
931.207	3747
931.311	3679
931.415	3637
931.519	3507
931.623	3549
