Data from test_V78500241_1853.txt Node
Date: Fri Mar 25 17:01:53 CST 2022
User: usil
Spectrometer: V785-0024
Trigger mode: 0
Integration Time (sec): 4.000000E-1
Scans to average: 1
Nonlinearity correction enabled: false
Boxcar width: 0
Storing dark spectrum: false
XAxis mode: Wavelengths
Number of Pixels in Spectrum: 1024
>>>>>Begin Spectral Data<<<<<
801.071	7967
801.214	8050
801.356	7792
801.499	7833
801.641	7879
801.783	7788
801.926	7986
802.068	7932
802.211	7997
802.353	7936
802.496	7883
802.638	7860
802.78	7845
802.923	7849
803.065	7898
803.208	7830
803.35	7917
803.492	8027
803.635	8145
803.777	8054
803.919	8092
804.061	8393
804.204	8107
804.346	8107
804.488	7890
804.63	8054
804.773	8001
804.915	8046
805.057	8210
805.199	8130
805.341	8187
805.483	8248
805.626	8183
805.768	8081
805.91	8206
806.052	8233
806.194	8069
806.336	8237
806.478	8073
806.62	8073
806.762	8130
806.904	8286
807.046	8465
807.188	8336
807.33	8301
807.472	8294
807.614	8187
807.756	8145
807.898	7997
808.04	7906
808.182	7925
808.324	7818
808.465	7963
808.607	8100
808.749	8111
808.891	8168
809.033	8279
809.174	8206
809.316	8046
809.458	8065
809.6	7944
809.741	8027
809.883	8027
810.025	8126
810.166	8077
810.308	8008
810.45	7978
810.591	7860
810.733	7696
810.875	7666
811.016	7575
811.158	7464
811.299	7548
811.441	7750
811.582	7647
811.724	7582
811.865	7552
812.007	7529
812.148	7590
812.29	7620
812.431	7738
812.573	7913
812.714	7993
812.855	8107
812.997	8202
813.138	8271
813.279	8153
813.421	8103
813.562	7955
813.703	7803
813.845	7693
813.986	7415
814.127	7179
814.268	7217
814.41	7206
814.551	7179
814.692	7251
814.833	7122
814.974	7038
815.115	7152
815.256	6977
815.397	6913
815.539	6939
815.68	6856
815.821	6726
815.962	6818
816.103	6818
816.244	6642
816.385	6616
816.526	6604
816.666	6407
816.807	6300
816.948	6429
817.089	6456
817.23	6429
817.371	6346
817.512	6334
817.653	6350
817.793	6384
817.934	6388
818.075	6452
818.216	6433
818.356	6365
818.497	6285
818.638	6144
818.778	6091
818.919	6155
819.06	6155
819.2	6357
819.341	6338
819.481	6338
819.622	6513
819.762	6665
819.903	6707
820.043	6570
820.184	6540
820.324	6563
820.465	6700
820.605	6631
820.746	6604
820.886	6532
821.026	6684
821.167	6711
821.307	6757
821.447	6719
821.588	6681
821.728	6464
821.868	6506
822.008	6323
822.149	6357
822.289	6384
822.429	6098
822.569	6068
822.709	6129
822.849	5927
822.99	5923
823.13	5863
823.27	5920
823.41	5775
823.55	5699
823.69	5783
823.83	5809
823.97	5596
824.11	5535
824.25	5539
824.389	5562
824.529	5562
824.669	5516
824.809	5619
824.949	5646
825.089	5562
825.228	5543
825.368	5391
825.508	5326
825.648	5307
825.787	5334
825.927	5353
826.067	5254
826.206	5246
826.346	5376
826.485	5368
826.625	5421
826.765	5493
826.904	5482
827.044	5204
827.183	5185
827.323	5121
827.462	5216
827.601	5105
827.741	5140
827.88	5208
828.02	5147
828.159	5189
828.298	5296
828.437	5337
828.577	5193
828.716	5467
828.855	5269
828.994	5128
829.134	5128
829.273	5178
829.412	5113
829.551	5140
829.69	5121
829.829	5212
829.968	5349
830.107	5223
830.246	5288
830.385	5121
830.524	5086
830.663	5041
830.802	4949
830.941	4873
831.08	4900
831.219	4968
831.357	4965
831.496	5155
831.635	4900
831.774	4835
831.913	4854
832.051	4698
832.19	4736
832.329	4816
832.467	4664
832.606	4637
832.744	4748
832.883	4668
833.022	4714
833.16	4763
833.299	4809
833.437	4850
833.576	4793
833.714	4847
833.852	4892
833.991	4877
834.129	4980
834.267	4961
834.406	4923
834.544	4987
834.682	5010
834.821	4984
834.959	5181
835.097	5067
835.235	5132
835.373	5121
835.511	5162
835.65	5056
835.788	5045
835.926	4927
836.064	4896
836.202	4930
836.34	5201
836.478	5235
836.615	5201
836.753	5258
836.891	5364
837.029	5273
837.167	5242
837.305	5216
837.443	5181
837.58	5124
837.718	5284
837.856	5265
837.993	5208
838.131	5265
838.269	5231
838.406	5239
838.544	5181
838.681	5094
838.819	4984
838.956	4934
839.094	4915
839.231	5025
839.369	5132
839.506	5414
839.643	5277
839.781	5109
839.918	5056
840.055	5117
840.193	5105
840.33	5166
840.467	5197
840.604	5239
840.742	5452
840.879	5128
841.016	5117
841.153	5204
841.29	5414
841.427	5318
841.564	5364
841.701	5402
841.838	5334
841.975	5239
842.112	5330
842.249	5227
842.385	5136
842.522	5379
842.659	5197
842.796	5185
842.933	5208
843.069	5178
843.206	5216
843.343	5360
843.479	5280
843.616	5318
843.752	5052
843.889	5060
844.025	5277
844.162	5041
844.298	5223
844.435	5105
844.571	5048
844.708	5258
844.844	5288
844.98	5387
845.117	5334
845.253	5162
845.389	5117
845.525	5208
845.661	5147
845.798	5071
845.934	5159
846.07	5071
846.206	5265
846.342	5322
846.478	5189
846.614	5105
846.75	5018
846.886	4923
847.022	5151
847.158	5090
847.294	5067
847.429	5162
847.565	5128
847.701	5364
847.837	4843
847.972	4847
848.108	4949
848.244	4938
848.379	4782
848.515	4744
848.65	4721
848.786	4801
848.921	4835
849.057	4889
849.192	4930
849.328	4858
849.463	4900
849.598	4854
849.734	4736
849.869	4691
850.004	4672
850.14	4691
850.275	4618
850.41	4580
850.545	4626
850.68	4660
850.815	4664
850.95	4596
851.085	4847
851.22	4721
851.355	4725
851.49	4626
851.625	4656
851.76	4675
851.895	4577
852.03	4580
852.165	4649
852.299	4740
852.434	4847
852.569	4759
852.703	4809
852.838	4824
852.973	4972
853.107	4961
853.242	4744
853.376	4668
853.511	4584
853.645	4706
853.78	4843
853.914	4748
854.048	4706
854.183	4660
854.317	4710
854.451	4881
854.585	4664
854.72	4660
854.854	4812
854.988	4607
855.122	4683
855.256	4535
855.39	4694
855.524	4782
855.658	4736
855.792	4736
855.926	4763
856.06	4759
856.194	4843
856.327	4744
856.461	4653
856.595	4615
856.729	4637
856.862	4790
856.996	4744
857.13	4744
857.263	4736
857.397	4862
857.53	4649
857.664	4698
857.797	4828
857.931	4858
858.064	4767
858.197	4843
858.331	4653
858.464	4626
858.597	4561
858.731	4645
858.864	4668
858.997	4630
859.13	4660
859.263	4702
859.396	4774
859.529	4641
859.662	4573
859.795	4546
859.928	4668
860.061	4824
860.194	4759
860.327	4649
860.46	4596
860.592	4748
860.725	4767
860.858	4763
860.99	4656
861.123	4542
861.256	4577
861.388	4618
861.521	5421
861.653	4504
861.786	4493
861.918	4432
862.05	4584
862.183	4565
862.315	4615
862.447	4653
862.58	4592
862.712	4386
862.844	4352
862.976	4485
863.108	4428
863.24	4850
863.372	4386
863.504	4409
863.636	4481
863.768	4474
863.9	4451
864.032	4402
864.164	4440
864.296	4535
864.428	4596
864.559	4573
864.691	4561
864.823	4519
864.954	4531
865.086	4584
865.217	4542
865.349	4436
865.48	4497
865.612	4519
865.743	4675
865.875	4500
866.006	4451
866.137	4485
866.269	4413
866.4	4447
866.531	4493
866.662	4417
866.793	4481
866.924	4489
867.055	4519
867.186	4478
867.317	4428
867.448	4440
867.579	4443
867.71	4478
867.841	4383
867.972	4497
868.103	4478
868.233	4474
868.364	4508
868.495	4500
868.625	4660
868.756	4809
868.886	4618
869.017	4611
869.147	4805
869.278	4774
869.408	4683
869.539	4622
869.669	4771
869.799	4675
869.929	4797
870.06	4778
870.19	4984
870.32	4927
870.45	4953
870.58	5048
870.71	5117
870.84	5132
870.97	4999
871.1	4889
871.23	5166
871.36	5162
871.489	5025
871.619	5132
871.749	5117
871.879	5140
872.008	5185
872.138	5056
872.267	5006
872.397	4881
872.526	4797
872.656	4729
872.785	4812
872.915	4976
873.044	5060
873.173	4942
873.303	4980
873.432	4949
873.561	4991
873.69	4885
873.819	4915
873.948	4885
874.077	4885
874.206	4824
874.335	4797
874.464	4938
874.593	5056
874.722	4972
874.851	5132
874.979	5037
875.108	5147
875.237	4946
875.365	4911
875.494	4866
875.623	5025
875.751	4847
875.88	4911
876.008	4987
876.136	5094
876.265	5250
876.393	5311
876.521	5250
876.65	5235
876.778	5189
876.906	5060
877.034	5014
877.162	5022
877.29	5014
877.418	5052
877.546	5041
877.674	5071
877.802	4961
877.93	5022
878.058	4923
878.185	4927
878.313	4984
878.441	4946
878.568	4831
878.696	4900
878.824	4957
878.951	4995
879.079	5162
879.206	5318
879.333	5147
879.461	4930
879.588	5067
879.715	5143
879.842	5204
879.97	4976
880.097	4790
880.224	4782
880.351	4820
880.478	4847
880.605	4828
880.732	4847
880.859	5136
880.986	4908
881.112	4908
881.239	4835
881.366	4736
881.493	4637
881.619	4607
881.746	4653
881.872	4615
881.999	4668
882.125	4694
882.252	4812
882.378	4828
882.505	4923
882.631	4843
882.757	4649
882.883	4767
883.01	4790
883.136	4649
883.262	4569
883.388	4641
883.514	4824
883.64	4900
883.766	4839
883.892	4710
884.018	4721
884.143	4862
884.269	5037
884.395	4740
884.52	4664
884.646	4656
884.772	4634
884.897	4611
885.023	4634
885.148	4843
885.274	4870
885.399	4816
885.524	4710
885.65	4717
885.775	4778
885.9	4733
886.025	4896
886.15	4828
886.275	4714
886.4	4691
886.525	4763
886.65	4691
886.775	4725
886.9	4938
887.025	5037
887.149	4790
887.274	4714
887.399	4626
887.523	4577
887.648	4554
887.773	4618
887.897	4744
888.021	4782
888.146	4752
888.27	4790
888.395	4889
888.519	4782
888.643	4843
888.767	4820
888.891	4717
889.015	4615
889.139	4645
889.263	4641
889.387	4774
889.511	4847
889.635	4755
889.759	4664
889.883	4641
890.006	4771
890.13	4839
890.254	4622
890.377	4729
890.501	4504
890.624	4519
890.748	4611
890.871	4462
890.995	4443
891.118	4402
891.241	4542
891.364	4584
891.488	4615
891.611	4481
891.734	4519
891.857	4607
891.98	4550
892.103	4588
892.226	4618
892.349	4538
892.471	4424
892.594	4569
892.717	4626
892.839	4596
892.962	4569
893.085	4687
893.207	4611
893.33	4481
893.452	4508
893.575	4714
893.697	4580
893.819	4820
893.941	4828
894.064	4782
894.186	4584
894.308	4546
894.43	4721
894.552	4774
894.674	4771
894.796	4569
894.918	4645
895.04	4615
895.161	4721
895.283	4691
895.405	4596
895.526	4706
895.648	4683
895.769	4691
895.891	4714
896.012	4736
896.134	4752
896.255	4702
896.376	4618
896.498	4656
896.619	4683
896.74	4596
896.861	4664
896.982	4980
897.103	5041
897.224	4824
897.345	4793
897.466	4634
897.587	4736
897.708	4896
897.828	4763
897.949	4721
898.07	4577
898.19	4653
898.311	4854
898.431	4687
898.552	4717
898.672	4850
898.792	4809
898.913	4782
899.033	4683
899.153	4546
899.273	4459
899.393	4497
899.513	4538
899.633	4538
899.753	4519
899.873	4485
899.993	4588
900.113	4546
900.232	4645
900.352	4592
900.472	4519
900.591	4459
900.711	4523
900.83	4474
900.95	4596
901.069	4694
901.189	4592
901.308	4367
901.427	4360
901.546	4371
901.665	4478
901.784	4470
901.904	4360
902.023	4329
902.141	4154
902.26	4173
902.379	4295
902.498	4268
902.617	4261
902.735	4363
902.854	4443
902.973	4367
903.091	4276
903.21	4249
903.328	4306
903.446	4322
903.565	4276
903.683	4371
903.801	4287
903.919	4428
904.038	4440
904.156	4363
904.274	4409
904.392	4367
904.51	4409
904.627	4440
904.745	4569
904.863	4630
904.981	4413
905.098	4333
905.216	4413
905.334	4443
905.451	4481
905.569	4474
905.686	4569
905.803	4531
905.921	4413
906.038	4577
906.155	4466
906.272	4413
906.389	4462
906.506	4367
906.623	4371
906.74	4413
906.857	4284
906.974	4352
907.091	4584
907.208	4698
907.324	4603
907.441	4500
907.557	4322
907.674	4348
907.79	4341
907.907	4360
908.023	4561
908.139	4485
908.256	4443
908.372	4493
908.488	4470
908.604	4337
908.72	4352
908.836	4386
908.952	4402
909.068	4466
909.184	4523
909.3	4459
909.415	4573
909.531	4546
909.647	4383
909.762	4409
909.878	4348
909.993	4390
910.108	4421
910.224	4421
910.339	4402
910.454	4421
910.57	4348
910.685	4306
910.8	4675
910.915	4603
911.03	4497
911.145	4314
911.259	4337
911.374	4341
911.489	4284
911.604	4272
911.718	4185
911.833	4192
911.947	4101
912.062	4013
912.176	4227
912.291	4257
912.405	4242
912.519	4409
912.633	4478
912.748	4398
912.862	4310
912.976	4238
913.09	4112
913.204	4162
913.318	4284
913.431	4352
913.545	4383
913.659	4455
913.772	4383
913.886	4284
914	4246
914.113	4413
914.226	4409
914.34	4367
914.453	4207
914.566	4462
914.68	4337
914.793	4322
914.906	4200
915.019	4135
915.132	4112
915.245	4200
915.358	4204
915.47	4238
915.583	4280
915.696	4299
915.809	4417
915.921	4390
916.034	4219
916.146	4249
916.259	4211
916.371	4352
916.483	4337
916.595	4306
916.708	4295
916.82	4310
916.932	4337
917.044	4394
917.156	4341
917.268	4249
917.38	4249
917.491	4200
917.603	4341
917.715	4383
917.826	4451
917.938	4394
918.049	4253
918.161	4405
918.272	4497
918.384	4523
918.495	4489
918.606	4318
918.717	4272
918.828	4318
918.939	4329
919.05	4268
919.161	4337
919.272	4112
919.383	4219
919.494	4478
919.604	4630
919.715	4432
919.826	4356
919.936	4371
920.047	4497
920.157	4489
920.267	4675
920.378	4500
920.488	4478
920.598	4679
920.708	4881
920.818	4733
920.928	4767
921.038	4923
921.148	4919
921.258	4599
921.368	4550
921.477	4500
921.587	4436
921.697	4405
921.806	4516
921.916	4421
922.025	4299
922.134	4295
922.244	4253
922.353	4291
922.462	4192
922.571	4154
922.68	4010
922.789	3956
922.898	4036
923.007	3991
923.116	4090
923.224	4067
923.333	4086
923.442	3987
923.55	4017
923.659	4040
923.767	4074
923.876	4036
923.984	4143
924.092	3983
924.201	4040
924.309	4124
924.417	4101
924.525	3998
924.633	4101
924.741	5045
924.849	3953
924.956	4150
925.064	4021
925.172	3907
925.279	3972
925.387	4055
925.494	4082
925.602	4207
925.709	4173
925.816	4112
925.924	4135
926.031	4200
926.138	4200
926.245	4188
926.352	4105
926.459	4261
926.566	4344
926.673	4116
926.779	4124
926.886	4059
926.993	4025
927.099	3945
927.206	3926
927.312	3949
927.419	4040
927.525	4059
927.631	4086
927.737	3968
927.843	3956
927.95	3850
928.056	3968
928.162	3972
928.267	4051
928.373	4580
928.479	4116
928.585	3926
928.69	4025
928.796	4063
928.901	3979
929.007	3892
929.112	3991
929.218	3964
929.323	3983
929.428	3956
929.533	4124
929.638	3911
929.743	3941
929.848	4051
929.953	4002
930.058	3896
930.163	3800
930.267	3827
930.372	3968
930.477	3816
930.581	4055
930.685	3941
930.79	3861
930.894	3888
930.998	3838
931.103	4059
931.207	3720
931.311	3690
931.415	3663
931.519	3553
931.623	3530
