Data from test_V78500241_1937.txt Node
Date: Fri Mar 25 17:02:28 CST 2022
User: usil
Spectrometer: V785-0024
Trigger mode: 0
Integration Time (sec): 4.000000E-1
Scans to average: 1
Nonlinearity correction enabled: false
Boxcar width: 0
Storing dark spectrum: false
XAxis mode: Wavelengths
Number of Pixels in Spectrum: 1024
>>>>>Begin Spectral Data<<<<<
801.071	8027
801.214	7921
801.356	7932
801.499	7864
801.641	7830
801.783	7837
801.926	7852
802.068	7928
802.211	7864
802.353	7986
802.496	7856
802.638	7841
802.78	7830
802.923	7917
803.065	7849
803.208	7845
803.35	7951
803.492	8046
803.635	8107
803.777	7963
803.919	8115
804.061	8454
804.204	8180
804.346	8046
804.488	7944
804.63	8100
804.773	8008
804.915	8119
805.057	8256
805.199	8168
805.341	8153
805.483	8206
805.626	8183
805.768	8096
805.91	8206
806.052	8183
806.194	8054
806.336	8256
806.478	8027
806.62	8107
806.762	8088
806.904	8259
807.046	8503
807.188	8355
807.33	8305
807.472	8301
807.614	8199
807.756	8145
807.898	8012
808.04	7864
808.182	7849
808.324	7856
808.465	7890
808.607	8119
808.749	8062
808.891	8161
809.033	8336
809.174	8168
809.316	8119
809.458	8111
809.6	8020
809.741	8024
809.883	8039
810.025	8069
810.166	8027
810.308	8008
810.45	8050
810.591	7871
810.733	7715
810.875	7658
811.016	7472
811.158	7480
811.299	7567
811.441	7689
811.582	7681
811.724	7556
811.865	7552
812.007	7578
812.148	7586
812.29	7636
812.431	7772
812.573	7868
812.714	7997
812.855	8161
812.997	8229
813.138	8358
813.279	8119
813.421	8050
813.562	8001
813.703	7803
813.845	7693
813.986	7441
814.127	7255
814.268	7137
814.41	7145
814.551	7122
814.692	7198
814.833	7008
814.974	7175
815.115	7099
815.256	6981
815.397	6920
815.539	6920
815.68	6745
815.821	6722
815.962	6890
816.103	6791
816.244	6684
816.385	6601
816.526	6662
816.666	6486
816.807	6338
816.948	6490
817.089	6486
817.23	6399
817.371	6357
817.512	6426
817.653	6388
817.793	6327
817.934	6414
818.075	6460
818.216	6467
818.356	6418
818.497	6239
818.638	6064
818.778	6159
818.919	6129
819.06	6140
819.2	6334
819.341	6270
819.481	6304
819.622	6502
819.762	6700
819.903	6654
820.043	6601
820.184	6509
820.324	6563
820.465	6673
820.605	6650
820.746	6700
820.886	6498
821.026	6631
821.167	6696
821.307	6783
821.447	6738
821.588	6639
821.728	6547
821.868	6445
822.008	6334
822.149	6384
822.289	6258
822.429	6129
822.569	6034
822.709	6140
822.849	5897
822.99	5882
823.13	5912
823.27	5950
823.41	5809
823.55	5817
823.69	5726
823.83	5771
823.97	5684
824.11	5535
824.25	5532
824.389	5516
824.529	5543
824.669	5539
824.809	5634
824.949	5615
825.089	5619
825.228	5547
825.368	5417
825.508	5337
825.648	5303
825.787	5349
825.927	5402
826.067	5318
826.206	5292
826.346	5360
826.485	5402
826.625	5414
826.765	5551
826.904	5433
827.044	5265
827.183	5170
827.323	5132
827.462	5223
827.601	5132
827.741	5212
827.88	5178
828.02	5136
828.159	5242
828.298	5284
828.437	5402
828.577	5277
828.716	5482
828.855	5326
828.994	5109
829.134	5166
829.273	5174
829.412	5121
829.551	5155
829.69	5143
829.829	5265
829.968	5372
830.107	5280
830.246	5322
830.385	5227
830.524	5166
830.663	5121
830.802	4999
830.941	4904
831.08	4831
831.219	4923
831.357	4976
831.496	5113
831.635	4892
831.774	4892
831.913	4854
832.051	4736
832.19	4771
832.329	4862
832.467	4702
832.606	4622
832.744	4691
832.883	4679
833.022	4717
833.16	4793
833.299	4774
833.437	4824
833.576	4793
833.714	4812
833.852	4847
833.991	4934
834.129	4987
834.267	4934
834.406	4866
834.544	4946
834.682	4976
834.821	4991
834.959	5098
835.097	4972
835.235	5105
835.373	5071
835.511	5109
835.65	5033
835.788	5022
835.926	4900
836.064	4843
836.202	4938
836.34	5162
836.478	5201
836.615	5128
836.753	5136
836.891	5288
837.029	5193
837.167	5189
837.305	5170
837.443	5094
837.58	5121
837.718	5273
837.856	5216
837.993	5155
838.131	5273
838.269	5170
838.406	5124
838.544	5185
838.681	5014
838.819	4999
838.956	4877
839.094	4923
839.231	4961
839.369	5033
839.506	5376
839.643	5307
839.781	4999
839.918	5041
840.055	5109
840.193	5128
840.33	5121
840.467	5090
840.604	5170
840.742	5440
840.879	5056
841.016	5075
841.153	5094
841.29	5349
841.427	5364
841.564	5334
841.701	5330
841.838	5242
841.975	5227
842.112	5250
842.249	5166
842.385	5117
842.522	5284
842.659	5147
842.796	5147
842.933	5174
843.069	5143
843.206	5132
843.343	5345
843.479	5277
843.616	5284
843.752	5052
843.889	5010
844.025	5223
844.162	4980
844.298	5227
844.435	5037
844.571	5067
844.708	5197
844.844	5269
844.98	5414
845.117	5299
845.253	5136
845.389	5075
845.525	5121
845.661	5128
845.798	5037
845.934	5132
846.07	5025
846.206	5170
846.342	5288
846.478	5166
846.614	4961
846.75	5006
846.886	4908
847.022	5155
847.158	4999
847.294	5052
847.429	5136
847.565	5037
847.701	5242
847.837	4835
847.972	4812
848.108	4923
848.244	4938
848.379	4736
848.515	4733
848.65	4683
848.786	4717
848.921	4801
849.057	4881
849.192	4896
849.328	4797
849.463	4850
849.598	4778
849.734	4729
849.869	4717
850.004	4630
850.14	4668
850.275	4596
850.41	4523
850.545	4577
850.68	4630
850.815	4603
850.95	4565
851.085	4862
851.22	4744
851.355	4641
851.49	4611
851.625	4664
851.76	4641
851.895	4577
852.03	4565
852.165	4637
852.299	4694
852.434	4755
852.569	4729
852.703	4797
852.838	4828
852.973	4892
853.107	4900
853.242	4763
853.376	4656
853.511	4535
853.645	4611
853.78	4820
853.914	4668
854.048	4694
854.183	4634
854.317	4679
854.451	4911
854.585	4683
854.72	4653
854.854	4752
854.988	4592
855.122	4584
855.256	4470
855.39	4634
855.524	4790
855.658	4683
855.792	4691
855.926	4774
856.06	4774
856.194	4786
856.327	4687
856.461	4584
856.595	4592
856.729	4630
856.862	4729
856.996	4660
857.13	4748
857.263	4736
857.397	4755
857.53	4618
857.664	4698
857.797	4767
857.931	4771
858.064	4698
858.197	4767
858.331	4672
858.464	4603
858.597	4474
858.731	4618
858.864	4596
858.997	4618
859.13	4645
859.263	4649
859.396	4698
859.529	4550
859.662	4558
859.795	4535
859.928	4626
860.061	4790
860.194	4759
860.327	4569
860.46	4592
860.592	4736
860.725	4733
860.858	4683
860.99	4561
861.123	4538
861.256	4531
861.388	4592
861.521	5269
861.653	4478
861.786	4424
861.918	4447
862.05	4512
862.183	4527
862.315	4641
862.447	4611
862.58	4542
862.712	4371
862.844	4318
862.976	4451
863.108	4443
863.24	4790
863.372	4325
863.504	4443
863.636	4367
863.768	4478
863.9	4405
864.032	4352
864.164	4386
864.296	4489
864.428	4512
864.559	4538
864.691	4504
864.823	4489
864.954	4481
865.086	4558
865.217	4424
865.349	4447
865.48	4451
865.612	4516
865.743	4618
865.875	4466
866.006	4443
866.137	4455
866.269	4447
866.4	4436
866.531	4440
866.662	4436
866.793	4436
866.924	4428
867.055	4523
867.186	4466
867.317	4390
867.448	4390
867.579	4363
867.71	4383
867.841	4371
867.972	4443
868.103	4451
868.233	4451
868.364	4447
868.495	4508
868.625	4607
868.756	4736
868.886	4592
869.017	4580
869.147	4790
869.278	4797
869.408	4637
869.539	4691
869.669	4725
869.799	4637
869.929	4763
870.06	4725
870.19	4900
870.32	4858
870.45	4908
870.58	4965
870.71	5090
870.84	5056
870.97	4915
871.1	4915
871.23	5147
871.36	5067
871.489	5041
871.619	5052
871.749	5056
871.879	5113
872.008	5204
872.138	5037
872.267	4938
872.397	4885
872.526	4816
872.656	4714
872.785	4774
872.915	4889
873.044	4995
873.173	4915
873.303	4961
873.432	4946
873.561	4915
873.69	4881
873.819	4820
873.948	4919
874.077	4805
874.206	4740
874.335	4797
874.464	4949
874.593	5056
874.722	4999
874.851	5079
874.979	5045
875.108	5025
875.237	4915
875.365	4892
875.494	4858
875.623	4976
875.751	4816
875.88	4828
876.008	4968
876.136	4999
876.265	5223
876.393	5330
876.521	5204
876.65	5189
876.778	5155
876.906	5075
877.034	5079
877.162	5025
877.29	4953
877.418	5052
877.546	5003
877.674	4987
877.802	4999
877.93	4987
878.058	4927
878.185	4896
878.313	4980
878.441	4980
878.568	4763
878.696	4858
878.824	4934
878.951	5006
879.079	5140
879.206	5288
879.333	5098
879.461	4984
879.588	4991
879.715	5075
879.842	5273
879.97	4995
880.097	4744
880.224	4752
880.351	4820
880.478	4831
880.605	4828
880.732	4820
880.859	5071
880.986	4870
881.112	4843
881.239	4797
881.366	4694
881.493	4596
881.619	4565
881.746	4656
881.872	4637
881.999	4653
882.125	4675
882.252	4839
882.378	4835
882.505	5003
882.631	4820
882.757	4649
882.883	4744
883.01	4710
883.136	4698
883.262	4569
883.388	4599
883.514	4793
883.64	4847
883.766	4793
883.892	4656
884.018	4717
884.143	4866
884.269	5006
884.395	4664
884.52	4634
884.646	4637
884.772	4565
884.897	4508
885.023	4679
885.148	4774
885.274	4847
885.399	4854
885.524	4752
885.65	4698
885.775	4771
885.9	4691
886.025	4831
886.15	4812
886.275	4778
886.4	4660
886.525	4740
886.65	4645
886.775	4710
886.9	4885
887.025	4987
887.149	4835
887.274	4660
887.399	4542
887.523	4607
887.648	4615
887.773	4615
887.897	4767
888.021	4763
888.146	4668
888.27	4797
888.395	4908
888.519	4801
888.643	4843
888.767	4854
888.891	4714
889.015	4588
889.139	4649
889.263	4618
889.387	4748
889.511	4885
889.635	4797
889.759	4668
889.883	4637
890.006	4717
890.13	4850
890.254	4584
890.377	4710
890.501	4512
890.624	4516
890.748	4653
890.871	4447
890.995	4421
891.118	4371
891.241	4504
891.364	4558
891.488	4668
891.611	4535
891.734	4519
891.857	4538
891.98	4599
892.103	4637
892.226	4615
892.349	4516
892.471	4405
892.594	4531
892.717	4519
892.839	4527
892.962	4561
893.085	4675
893.207	4637
893.33	4424
893.452	4508
893.575	4683
893.697	4561
893.819	4805
893.941	4831
894.064	4774
894.186	4558
894.308	4580
894.43	4736
894.552	4793
894.674	4733
894.796	4527
894.918	4577
895.04	4596
895.161	4694
895.283	4706
895.405	4615
895.526	4630
895.648	4687
895.769	4664
895.891	4740
896.012	4736
896.134	4717
896.255	4656
896.376	4580
896.498	4691
896.619	4660
896.74	4592
896.861	4607
896.982	4908
897.103	5052
897.224	4828
897.345	4759
897.466	4691
897.587	4702
897.708	4843
897.828	4752
897.949	4687
898.07	4512
898.19	4634
898.311	4824
898.431	4634
898.552	4683
898.672	4839
898.792	4809
898.913	4717
899.033	4596
899.153	4504
899.273	4402
899.393	4504
899.513	4538
899.633	4497
899.753	4561
899.873	4493
899.993	4561
900.113	4500
900.232	4584
900.352	4554
900.472	4466
900.591	4428
900.711	4542
900.83	4481
900.95	4649
901.069	4725
901.189	4558
901.308	4398
901.427	4333
901.546	4337
901.665	4462
901.784	4527
901.904	4398
902.023	4329
902.141	4150
902.26	4158
902.379	4295
902.498	4234
902.617	4196
902.735	4329
902.854	4325
902.973	4333
903.091	4227
903.21	4230
903.328	4318
903.446	4284
903.565	4314
903.683	4341
903.801	4322
903.919	4421
904.038	4394
904.156	4337
904.274	4432
904.392	4413
904.51	4413
904.627	4447
904.745	4550
904.863	4645
904.981	4386
905.098	4325
905.216	4371
905.334	4443
905.451	4421
905.569	4424
905.686	4535
905.803	4550
905.921	4394
906.038	4573
906.155	4436
906.272	4447
906.389	4447
906.506	4352
906.623	4356
906.74	4417
906.857	4341
906.974	4348
907.091	4519
907.208	4630
907.324	4584
907.441	4497
907.557	4329
907.674	4390
907.79	4287
907.907	4394
908.023	4523
908.139	4500
908.256	4443
908.372	4455
908.488	4443
908.604	4314
908.72	4314
908.836	4386
908.952	4348
909.068	4367
909.184	4542
909.3	4466
909.415	4569
909.531	4550
909.647	4348
909.762	4379
909.878	4367
909.993	4421
910.108	4409
910.224	4424
910.339	4489
910.454	4417
910.57	4360
910.685	4295
910.8	4645
910.915	4630
911.03	4447
911.145	4284
911.259	4306
911.374	4367
911.489	4299
911.604	4276
911.718	4143
911.833	4181
911.947	4120
912.062	4063
912.176	4200
912.291	4207
912.405	4249
912.519	4436
912.633	4538
912.748	4386
912.862	4322
912.976	4177
913.09	4112
913.204	4200
913.318	4230
913.431	4348
913.545	4386
913.659	4413
913.772	4356
913.886	4238
914	4207
914.113	4405
914.226	4371
914.34	4405
914.453	4211
914.566	4432
914.68	4303
914.793	4337
914.906	4207
915.019	4135
915.132	4093
915.245	4158
915.358	4238
915.47	4257
915.583	4253
915.696	4291
915.809	4432
915.921	4421
916.034	4257
916.146	4249
916.259	4185
916.371	4405
916.483	4318
916.595	4246
916.708	4314
916.82	4318
916.932	4306
917.044	4291
917.156	4318
917.268	4257
917.38	4310
917.491	4253
917.603	4371
917.715	4352
917.826	4386
917.938	4352
918.049	4246
918.161	4390
918.272	4546
918.384	4527
918.495	4424
918.606	4310
918.717	4192
918.828	4333
918.939	4344
919.05	4284
919.161	4337
919.272	4158
919.383	4249
919.494	4443
919.604	4656
919.715	4394
919.826	4291
919.936	4398
920.047	4519
920.157	4443
920.267	4714
920.378	4546
920.488	4516
920.598	4698
920.708	4904
920.818	4694
920.928	4694
921.038	4911
921.148	4908
921.258	4645
921.368	4580
921.477	4474
921.587	4466
921.697	4383
921.806	4512
921.916	4383
922.025	4272
922.134	4234
922.244	4192
922.353	4333
922.462	4158
922.571	4124
922.68	4029
922.789	3968
922.898	4040
923.007	3975
923.116	4086
923.224	4067
923.333	4059
923.442	3979
923.55	3934
923.659	4029
923.767	4093
923.876	4002
923.984	4105
924.092	3975
924.201	4067
924.309	4059
924.417	4097
924.525	4063
924.633	4086
924.741	5064
924.849	3888
924.956	4105
925.064	3922
925.172	3911
925.279	4006
925.387	4048
925.494	4048
925.602	4219
925.709	4215
925.816	4036
925.924	4120
926.031	4246
926.138	4162
926.245	4204
926.352	4101
926.459	4253
926.566	4291
926.673	4105
926.779	4116
926.886	4051
926.993	3972
927.099	3975
927.206	3953
927.312	3953
927.419	4013
927.525	4059
927.631	4040
927.737	3972
927.843	3937
927.95	3831
928.056	3987
928.162	3987
928.267	4067
928.373	4531
928.479	4128
928.585	3873
928.69	4006
928.796	4086
928.901	3930
929.007	3850
929.112	4025
929.218	3956
929.323	3941
929.428	3934
929.533	4112
929.638	3873
929.743	3941
929.848	3968
929.953	3983
930.058	3892
930.163	3770
930.267	3808
930.372	3930
930.477	3778
930.581	4097
930.685	3892
930.79	3812
930.894	3880
930.998	3823
931.103	4021
931.207	3705
931.311	3652
931.415	3736
931.519	3557
931.623	3561
