Data from test_V78500241_2777.txt Node
Date: Fri Mar 25 17:08:18 CST 2022
User: usil
Spectrometer: V785-0024
Trigger mode: 0
Integration Time (sec): 4.000000E-1
Scans to average: 1
Nonlinearity correction enabled: false
Boxcar width: 0
Storing dark spectrum: false
XAxis mode: Wavelengths
Number of Pixels in Spectrum: 1024
>>>>>Begin Spectral Data<<<<<
801.071	8020
801.214	7974
801.356	7906
801.499	7993
801.641	7841
801.783	7818
801.926	7974
802.068	7982
802.211	7944
802.353	7947
802.496	7849
802.638	7879
802.78	7982
802.923	7875
803.065	7913
803.208	7818
803.35	8008
803.492	8077
803.635	8088
803.777	8005
803.919	8191
804.061	8465
804.204	8214
804.346	8065
804.488	7986
804.63	8035
804.773	8088
804.915	8043
805.057	8332
805.199	8142
805.341	8183
805.483	8309
805.626	8233
805.768	8176
805.91	8138
806.052	8199
806.194	8123
806.336	8366
806.478	8081
806.62	8119
806.762	8103
806.904	8206
807.046	8476
807.188	8370
807.33	8271
807.472	8355
807.614	8130
807.756	8172
807.898	8020
808.04	7921
808.182	7883
808.324	7875
808.465	7890
808.607	8092
808.749	8088
808.891	8259
809.033	8309
809.174	8229
809.316	8119
809.458	8092
809.6	8008
809.741	8054
809.883	8088
810.025	8096
810.166	8096
810.308	8096
810.45	8039
810.591	7803
810.733	7704
810.875	7655
811.016	7571
811.158	7495
811.299	7655
811.441	7784
811.582	7738
811.724	7620
811.865	7552
812.007	7628
812.148	7529
812.29	7655
812.431	7818
812.573	7818
812.714	7963
812.855	8115
812.997	8176
813.138	8309
813.279	8138
813.421	8172
813.562	8005
813.703	7860
813.845	7795
813.986	7445
814.127	7228
814.268	7228
814.41	7194
814.551	7118
814.692	7194
814.833	7072
814.974	7065
815.115	7103
815.256	6993
815.397	6943
815.539	6996
815.68	6791
815.821	6882
815.962	6875
816.103	6840
816.244	6734
816.385	6616
816.526	6665
816.666	6494
816.807	6308
816.948	6391
817.089	6486
817.23	6422
817.371	6403
817.512	6399
817.653	6384
817.793	6346
817.934	6486
818.075	6448
818.216	6395
818.356	6433
818.497	6327
818.638	6125
818.778	6083
818.919	6144
819.06	6159
819.2	6300
819.341	6296
819.481	6346
819.622	6521
819.762	6707
819.903	6719
820.043	6631
820.184	6593
820.324	6608
820.465	6696
820.605	6654
820.746	6681
820.886	6536
821.026	6642
821.167	6753
821.307	6779
821.447	6802
821.588	6681
821.728	6547
821.868	6399
822.008	6289
822.149	6410
822.289	6369
822.429	6228
822.569	6091
822.709	6152
822.849	5923
822.99	5954
823.13	5935
823.27	5984
823.41	5733
823.55	5813
823.69	5832
823.83	5794
823.97	5661
824.11	5528
824.25	5512
824.389	5558
824.529	5482
824.669	5573
824.809	5684
824.949	5646
825.089	5619
825.228	5535
825.368	5452
825.508	5364
825.648	5315
825.787	5341
825.927	5372
826.067	5277
826.206	5265
826.346	5345
826.485	5376
826.625	5398
826.765	5539
826.904	5512
827.044	5239
827.183	5201
827.323	5143
827.462	5261
827.601	5193
827.741	5174
827.88	5227
828.02	5155
828.159	5220
828.298	5303
828.437	5364
828.577	5227
828.716	5478
828.855	5322
828.994	5162
829.134	5185
829.273	5193
829.412	5124
829.551	5136
829.69	5162
829.829	5246
829.968	5345
830.107	5227
830.246	5250
830.385	5181
830.524	5155
830.663	5075
830.802	4984
830.941	4892
831.08	4885
831.219	4949
831.357	5006
831.496	5136
831.635	4862
831.774	4850
831.913	4850
832.051	4710
832.19	4729
832.329	4843
832.467	4740
832.606	4683
832.744	4774
832.883	4744
833.022	4675
833.16	4771
833.299	4763
833.437	4831
833.576	4790
833.714	4820
833.852	4896
833.991	4908
834.129	4976
834.267	4961
834.406	4877
834.544	4946
834.682	4999
834.821	4938
834.959	5147
835.097	4961
835.235	5098
835.373	5048
835.511	5083
835.65	5025
835.788	5064
835.926	4908
836.064	4850
836.202	4889
836.34	5143
836.478	5239
836.615	5117
836.753	5231
836.891	5280
837.029	5250
837.167	5197
837.305	5162
837.443	5098
837.58	5132
837.718	5250
837.856	5231
837.993	5109
838.131	5201
838.269	5227
838.406	5197
838.544	5162
838.681	5006
838.819	4980
838.956	4881
839.094	4866
839.231	4980
839.369	5067
839.506	5406
839.643	5242
839.781	5094
839.918	5018
840.055	5128
840.193	5109
840.33	5098
840.467	5086
840.604	5231
840.742	5414
840.879	5105
841.016	5102
841.153	5174
841.29	5379
841.427	5322
841.564	5318
841.701	5357
841.838	5265
841.975	5181
842.112	5269
842.249	5124
842.385	5075
842.522	5277
842.659	5170
842.796	5151
842.933	5197
843.069	5132
843.206	5124
843.343	5254
843.479	5193
843.616	5220
843.752	5064
843.889	5045
844.025	5197
844.162	5003
844.298	5201
844.435	5094
844.571	5041
844.708	5155
844.844	5296
844.98	5326
845.117	5280
845.253	5128
845.389	5075
845.525	5155
845.661	5121
845.798	4980
845.934	5151
846.07	5048
846.206	5151
846.342	5239
846.478	5151
846.614	5014
846.75	4957
846.886	4995
847.022	5128
847.158	4946
847.294	5094
847.429	5136
847.565	5010
847.701	5330
847.837	4866
847.972	4797
848.108	4923
848.244	4965
848.379	4820
848.515	4721
848.65	4729
848.786	4740
848.921	4744
849.057	4850
849.192	4873
849.328	4820
849.463	4850
849.598	4771
849.734	4774
849.869	4679
850.004	4615
850.14	4637
850.275	4588
850.41	4542
850.545	4599
850.68	4592
850.815	4630
850.95	4618
851.085	4816
851.22	4752
851.355	4668
851.49	4596
851.625	4607
851.76	4641
851.895	4577
852.03	4558
852.165	4596
852.299	4714
852.434	4809
852.569	4687
852.703	4759
852.838	4831
852.973	4938
853.107	4896
853.242	4721
853.376	4687
853.511	4546
853.645	4607
853.78	4767
853.914	4702
854.048	4672
854.183	4660
854.317	4702
854.451	4843
854.585	4630
854.72	4679
854.854	4744
854.988	4607
855.122	4626
855.256	4516
855.39	4649
855.524	4816
855.658	4694
855.792	4725
855.926	4672
856.06	4748
856.194	4793
856.327	4664
856.461	4577
856.595	4622
856.729	4653
856.862	4740
856.996	4717
857.13	4725
857.263	4778
857.397	4763
857.53	4675
857.664	4714
857.797	4725
857.931	4763
858.064	4675
858.197	4691
858.331	4645
858.464	4656
858.597	4462
858.731	4603
858.864	4592
858.997	4554
859.13	4637
859.263	4702
859.396	4736
859.529	4588
859.662	4561
859.795	4535
859.928	4611
860.061	4755
860.194	4763
860.327	4599
860.46	4542
860.592	4691
860.725	4736
860.858	4672
860.99	4565
861.123	4542
861.256	4481
861.388	4554
861.521	5318
861.653	4504
861.786	4405
861.918	4485
862.05	4535
862.183	4584
862.315	4569
862.447	4637
862.58	4523
862.712	4451
862.844	4375
862.976	4478
863.108	4428
863.24	4774
863.372	4333
863.504	4455
863.636	4348
863.768	4436
863.9	4466
864.032	4322
864.164	4436
864.296	4474
864.428	4519
864.559	4592
864.691	4462
864.823	4489
864.954	4554
865.086	4535
865.217	4489
865.349	4405
865.48	4485
865.612	4478
865.743	4634
865.875	4489
866.006	4432
866.137	4474
866.269	4466
866.4	4409
866.531	4432
866.662	4390
866.793	4398
866.924	4432
867.055	4470
867.186	4455
867.317	4428
867.448	4367
867.579	4417
867.71	4383
867.841	4375
867.972	4474
868.103	4489
868.233	4481
868.364	4424
868.495	4497
868.625	4698
868.756	4744
868.886	4588
869.017	4611
869.147	4786
869.278	4755
869.408	4637
869.539	4626
869.669	4691
869.799	4599
869.929	4812
870.06	4729
870.19	4942
870.32	4938
870.45	4919
870.58	4980
870.71	5105
870.84	5132
870.97	4976
871.1	4885
871.23	5094
871.36	5075
871.489	5048
871.619	5094
871.749	5109
871.879	5193
872.008	5159
872.138	5071
872.267	4991
872.397	4850
872.526	4797
872.656	4694
872.785	4812
872.915	4938
873.044	5033
873.173	4995
873.303	4957
873.432	4949
873.561	4938
873.69	4873
873.819	4870
873.948	4942
874.077	4786
874.206	4774
874.335	4759
874.464	4923
874.593	5025
874.722	4949
874.851	5079
874.979	5071
875.108	5048
875.237	4896
875.365	4858
875.494	4850
875.623	5014
875.751	4797
875.88	4915
876.008	4980
876.136	5060
876.265	5178
876.393	5341
876.521	5235
876.65	5216
876.778	5143
876.906	5025
877.034	4995
877.162	5048
877.29	5006
877.418	5102
877.546	5014
877.674	5052
877.802	5018
877.93	5048
878.058	4911
878.185	4923
878.313	4938
878.441	4896
878.568	4782
878.696	4854
878.824	4927
878.951	5029
879.079	5178
879.206	5273
879.333	5155
879.461	4987
879.588	5071
879.715	5113
879.842	5261
879.97	5056
880.097	4729
880.224	4725
880.351	4778
880.478	4862
880.605	4801
880.732	4778
880.859	5045
880.986	4847
881.112	4938
881.239	4790
881.366	4675
881.493	4588
881.619	4584
881.746	4630
881.872	4668
881.999	4603
882.125	4714
882.252	4805
882.378	4847
882.505	4946
882.631	4740
882.757	4672
882.883	4755
883.01	4752
883.136	4630
883.262	4599
883.388	4592
883.514	4778
883.64	4847
883.766	4809
883.892	4653
884.018	4725
884.143	4900
884.269	5003
884.395	4710
884.52	4630
884.646	4668
884.772	4558
884.897	4558
885.023	4626
885.148	4733
885.274	4873
885.399	4812
885.524	4706
885.65	4717
885.775	4782
885.9	4725
886.025	4858
886.15	4797
886.275	4721
886.4	4691
886.525	4717
886.65	4710
886.775	4721
886.9	4877
887.025	5018
887.149	4752
887.274	4634
887.399	4611
887.523	4664
887.648	4588
887.773	4580
887.897	4752
888.021	4763
888.146	4694
888.27	4839
888.395	4904
888.519	4797
888.643	4805
888.767	4820
888.891	4645
889.015	4580
889.139	4698
889.263	4641
889.387	4702
889.511	4858
889.635	4816
889.759	4645
889.883	4634
890.006	4710
890.13	4881
890.254	4634
890.377	4660
890.501	4535
890.624	4546
890.748	4584
890.871	4508
890.995	4428
891.118	4386
891.241	4478
891.364	4546
891.488	4641
891.611	4493
891.734	4538
891.857	4580
891.98	4588
892.103	4637
892.226	4550
892.349	4508
892.471	4481
892.594	4538
892.717	4656
892.839	4569
892.962	4630
893.085	4653
893.207	4569
893.33	4481
893.452	4489
893.575	4725
893.697	4592
893.819	4839
893.941	4771
894.064	4736
894.186	4558
894.308	4611
894.43	4710
894.552	4816
894.674	4793
894.796	4523
894.918	4584
895.04	4599
895.161	4759
895.283	4687
895.405	4607
895.526	4622
895.648	4645
895.769	4698
895.891	4687
896.012	4793
896.134	4717
896.255	4656
896.376	4641
896.498	4634
896.619	4668
896.74	4565
896.861	4656
896.982	4915
897.103	5045
897.224	4881
897.345	4729
897.466	4694
897.587	4778
897.708	4889
897.828	4820
897.949	4656
898.07	4523
898.19	4649
898.311	4793
898.431	4714
898.552	4744
898.672	4809
898.792	4782
898.913	4736
899.033	4588
899.153	4508
899.273	4432
899.393	4508
899.513	4519
899.633	4508
899.753	4504
899.873	4508
899.993	4634
900.113	4516
900.232	4599
900.352	4508
900.472	4447
900.591	4390
900.711	4409
900.83	4428
900.95	4607
901.069	4710
901.189	4565
901.308	4352
901.427	4314
901.546	4363
901.665	4478
901.784	4516
901.904	4386
902.023	4344
902.141	4223
902.26	4215
902.379	4295
902.498	4227
902.617	4234
902.735	4379
902.854	4371
902.973	4352
903.091	4230
903.21	4219
903.328	4287
903.446	4261
903.565	4299
903.683	4360
903.801	4318
903.919	4383
904.038	4405
904.156	4291
904.274	4398
904.392	4356
904.51	4432
904.627	4466
904.745	4542
904.863	4637
904.981	4348
905.098	4291
905.216	4367
905.334	4421
905.451	4432
905.569	4413
905.686	4599
905.803	4569
905.921	4421
906.038	4565
906.155	4459
906.272	4428
906.389	4459
906.506	4314
906.623	4348
906.74	4386
906.857	4310
906.974	4367
907.091	4569
907.208	4649
907.324	4596
907.441	4516
907.557	4344
907.674	4341
907.79	4344
907.907	4402
908.023	4493
908.139	4512
908.256	4447
908.372	4459
908.488	4447
908.604	4356
908.72	4306
908.836	4394
908.952	4314
909.068	4432
909.184	4596
909.3	4470
909.415	4538
909.531	4554
909.647	4344
909.762	4363
909.878	4352
909.993	4440
910.108	4390
910.224	4432
910.339	4504
910.454	4409
910.57	4371
910.685	4333
910.8	4634
910.915	4546
911.03	4497
911.145	4348
911.259	4386
911.374	4367
911.489	4299
911.604	4276
911.718	4185
911.833	4196
911.947	4105
912.062	4002
912.176	4219
912.291	4242
912.405	4261
912.519	4455
912.633	4466
912.748	4383
912.862	4268
912.976	4230
913.09	4078
913.204	4188
913.318	4287
913.431	4386
913.545	4337
913.659	4500
913.772	4390
913.886	4295
914	4234
914.113	4379
914.226	4481
914.34	4394
914.453	4207
914.566	4428
914.68	4322
914.793	4337
914.906	4181
915.019	4147
915.132	4067
915.245	4204
915.358	4200
915.47	4204
915.583	4249
915.696	4299
915.809	4440
915.921	4440
916.034	4276
916.146	4238
916.259	4261
916.371	4356
916.483	4356
916.595	4261
916.708	4325
916.82	4318
916.932	4314
917.044	4329
917.156	4333
917.268	4272
917.38	4284
917.491	4303
917.603	4360
917.715	4409
917.826	4443
917.938	4341
918.049	4246
918.161	4428
918.272	4554
918.384	4535
918.495	4443
918.606	4257
918.717	4227
918.828	4291
918.939	4379
919.05	4272
919.161	4341
919.272	4147
919.383	4215
919.494	4417
919.604	4615
919.715	4413
919.826	4383
919.936	4455
920.047	4531
920.157	4508
920.267	4683
920.378	4519
920.488	4493
920.598	4717
920.708	4911
920.818	4733
920.928	4782
921.038	4942
921.148	4930
921.258	4584
921.368	4512
921.477	4527
921.587	4470
921.697	4417
921.806	4508
921.916	4436
922.025	4287
922.134	4265
922.244	4249
922.353	4303
922.462	4169
922.571	4131
922.68	3983
922.789	3994
922.898	4055
923.007	3975
923.116	4078
923.224	4040
923.333	4059
923.442	3979
923.55	3979
923.659	4017
923.767	4112
923.876	3991
923.984	4116
924.092	3987
924.201	4078
924.309	4093
924.417	4166
924.525	4074
924.633	4059
924.741	4850
924.849	3876
924.956	4128
925.064	3915
925.172	3907
925.279	3941
925.387	4032
925.494	4067
925.602	4200
925.709	4185
925.816	3975
925.924	4120
926.031	4276
926.138	4162
926.245	4219
926.352	4090
926.459	4280
926.566	4295
926.673	4147
926.779	4067
926.886	4067
926.993	3956
927.099	3934
927.206	3926
927.312	3979
927.419	4044
927.525	4044
927.631	4150
927.737	3960
927.843	3987
927.95	3838
928.056	3953
928.162	4029
928.267	4059
928.373	4771
928.479	4128
928.585	3857
928.69	4032
928.796	4120
928.901	3964
929.007	3865
929.112	3975
929.218	3979
929.323	3945
929.428	3964
929.533	4063
929.638	3937
929.743	3949
929.848	4048
929.953	4013
930.058	3956
930.163	3762
930.267	3861
930.372	3987
930.477	3876
930.581	4097
930.685	3953
930.79	3850
930.894	3911
930.998	3846
931.103	4017
931.207	3724
931.311	3698
931.415	3682
931.519	3500
931.623	3568
