Data from test_V78500241_2476.txt Node
Date: Fri Mar 25 17:06:13 CST 2022
User: usil
Spectrometer: V785-0024
Trigger mode: 0
Integration Time (sec): 4.000000E-1
Scans to average: 1
Nonlinearity correction enabled: false
Boxcar width: 0
Storing dark spectrum: false
XAxis mode: Wavelengths
Number of Pixels in Spectrum: 1024
>>>>>Begin Spectral Data<<<<<
801.071	8001
801.214	7989
801.356	7852
801.499	7864
801.641	7845
801.783	7784
801.926	7989
802.068	8005
802.211	7986
802.353	8024
802.496	7852
802.638	7887
802.78	7883
802.923	7936
803.065	7856
803.208	7909
803.35	8081
803.492	8084
803.635	8218
803.777	8031
803.919	8130
804.061	8415
804.204	8183
804.346	8084
804.488	7959
804.63	8092
804.773	8001
804.915	8142
805.057	8267
805.199	8077
805.341	8187
805.483	8294
805.626	8339
805.768	8176
805.91	8142
806.052	8168
806.194	8081
806.336	8317
806.478	8046
806.62	8081
806.762	8157
806.904	8259
807.046	8469
807.188	8366
807.33	8381
807.472	8320
807.614	8199
807.756	8153
807.898	7978
808.04	7860
808.182	7845
808.324	7921
808.465	7982
808.607	8119
808.749	8149
808.891	8195
809.033	8343
809.174	8214
809.316	8096
809.458	8043
809.6	8077
809.741	8096
809.883	7989
810.025	8164
810.166	8138
810.308	8024
810.45	8027
810.591	7921
810.733	7681
810.875	7727
811.016	7571
811.158	7460
811.299	7662
811.441	7681
811.582	7666
811.724	7605
811.865	7605
812.007	7647
812.148	7556
812.29	7605
812.431	7712
812.573	7879
812.714	7967
812.855	8138
812.997	8187
813.138	8317
813.279	8161
813.421	8100
813.562	7993
813.703	7856
813.845	7784
813.986	7438
814.127	7266
814.268	7221
814.41	7149
814.551	7149
814.692	7240
814.833	7118
814.974	7137
815.115	7160
815.256	7038
815.397	6920
815.539	6947
815.68	6871
815.821	6757
815.962	6913
816.103	6878
816.244	6764
816.385	6707
816.526	6642
816.666	6593
816.807	6338
816.948	6471
817.089	6380
817.23	6437
817.371	6372
817.512	6365
817.653	6365
817.793	6395
817.934	6414
818.075	6471
818.216	6506
818.356	6410
818.497	6205
818.638	6155
818.778	6121
818.919	6148
819.06	6129
819.2	6342
819.341	6342
819.481	6357
819.622	6570
819.762	6722
819.903	6627
820.043	6631
820.184	6544
820.324	6642
820.465	6719
820.605	6658
820.746	6627
820.886	6570
821.026	6681
821.167	6730
821.307	6818
821.447	6810
821.588	6730
821.728	6612
821.868	6467
822.008	6334
822.149	6376
822.289	6308
822.429	6175
822.569	6144
822.709	6129
822.849	5946
822.99	5912
823.13	5916
823.27	5904
823.41	5824
823.55	5760
823.69	5836
823.83	5809
823.97	5668
824.11	5596
824.25	5520
824.389	5532
824.529	5573
824.669	5520
824.809	5604
824.949	5688
825.089	5726
825.228	5493
825.368	5429
825.508	5376
825.648	5337
825.787	5410
825.927	5383
826.067	5296
826.206	5334
826.346	5406
826.485	5421
826.625	5368
826.765	5505
826.904	5452
827.044	5239
827.183	5185
827.323	5147
827.462	5239
827.601	5208
827.741	5223
827.88	5220
828.02	5098
828.159	5242
828.298	5322
828.437	5379
828.577	5284
828.716	5471
828.855	5341
828.994	5197
829.134	5181
829.273	5193
829.412	5109
829.551	5147
829.69	5227
829.829	5250
829.968	5410
830.107	5246
830.246	5235
830.385	5170
830.524	5174
830.663	5102
830.802	5018
830.941	4900
831.08	4892
831.219	4953
831.357	5025
831.496	5102
831.635	4911
831.774	4847
831.913	4858
832.051	4721
832.19	4744
832.329	4816
832.467	4664
832.606	4626
832.744	4740
832.883	4740
833.022	4767
833.16	4801
833.299	4828
833.437	4858
833.576	4812
833.714	4831
833.852	4915
833.991	4866
834.129	4953
834.267	4942
834.406	4930
834.544	5006
834.682	4953
834.821	4957
834.959	5174
835.097	4953
835.235	5132
835.373	5124
835.511	5067
835.65	5041
835.788	5037
835.926	4904
836.064	4889
836.202	4927
836.34	5159
836.478	5220
836.615	5113
836.753	5250
836.891	5318
837.029	5284
837.167	5170
837.305	5166
837.443	5185
837.58	5086
837.718	5239
837.856	5254
837.993	5197
838.131	5201
838.269	5212
838.406	5261
838.544	5174
838.681	5060
838.819	5018
838.956	4919
839.094	4881
839.231	4984
839.369	5083
839.506	5486
839.643	5250
839.781	5109
839.918	5045
840.055	5079
840.193	5098
840.33	5124
840.467	5159
840.604	5166
840.742	5406
840.879	5147
841.016	5113
841.153	5155
841.29	5353
841.427	5315
841.564	5315
841.701	5368
841.838	5337
841.975	5189
842.112	5227
842.249	5132
842.385	5094
842.522	5349
842.659	5227
842.796	5140
842.933	5197
843.069	5128
843.206	5162
843.343	5326
843.479	5311
843.616	5299
843.752	5048
843.889	4999
844.025	5193
844.162	5033
844.298	5239
844.435	5128
844.571	5102
844.708	5109
844.844	5284
844.98	5334
845.117	5315
845.253	5151
845.389	5075
845.525	5166
845.661	5147
845.798	5052
845.934	5079
846.07	5075
846.206	5166
846.342	5280
846.478	5155
846.614	5075
846.75	4984
846.886	4984
847.022	5132
847.158	5022
847.294	5056
847.429	5117
847.565	5071
847.701	5322
847.837	4904
847.972	4816
848.108	4965
848.244	4953
848.379	4748
848.515	4771
848.65	4698
848.786	4759
848.921	4782
849.057	4896
849.192	4919
849.328	4812
849.463	4854
849.598	4847
849.734	4752
849.869	4679
850.004	4634
850.14	4714
850.275	4615
850.41	4527
850.545	4577
850.68	4596
850.815	4641
850.95	4626
851.085	4873
851.22	4759
851.355	4641
851.49	4611
851.625	4626
851.76	4645
851.895	4588
852.03	4569
852.165	4626
852.299	4752
852.434	4771
852.569	4691
852.703	4774
852.838	4831
852.973	4942
853.107	4949
853.242	4702
853.376	4706
853.511	4630
853.645	4626
853.78	4763
853.914	4694
854.048	4656
854.183	4679
854.317	4698
854.451	4862
854.585	4694
854.72	4649
854.854	4710
854.988	4588
855.122	4656
855.256	4538
855.39	4672
855.524	4748
855.658	4733
855.792	4744
855.926	4672
856.06	4755
856.194	4835
856.327	4725
856.461	4641
856.595	4672
856.729	4626
856.862	4778
856.996	4611
857.13	4714
857.263	4824
857.397	4725
857.53	4637
857.664	4729
857.797	4759
857.931	4759
858.064	4664
858.197	4710
858.331	4691
858.464	4656
858.597	4512
858.731	4611
858.864	4622
858.997	4580
859.13	4645
859.263	4710
859.396	4736
859.529	4611
859.662	4546
859.795	4569
859.928	4615
860.061	4774
860.194	4763
860.327	4611
860.46	4527
860.592	4691
860.725	4752
860.858	4683
860.99	4569
861.123	4512
861.256	4485
861.388	4599
861.521	5159
861.653	4481
861.786	4428
861.918	4432
862.05	4538
862.183	4500
862.315	4569
862.447	4641
862.58	4527
862.712	4394
862.844	4287
862.976	4504
863.108	4462
863.24	4862
863.372	4306
863.504	4436
863.636	4428
863.768	4432
863.9	4421
864.032	4344
864.164	4409
864.296	4462
864.428	4538
864.559	4554
864.691	4523
864.823	4550
864.954	4497
865.086	4500
865.217	4504
865.349	4432
865.48	4481
865.612	4470
865.743	4618
865.875	4470
866.006	4386
866.137	4485
866.269	4459
866.4	4424
866.531	4402
866.662	4421
866.793	4413
866.924	4402
867.055	4478
867.186	4451
867.317	4375
867.448	4394
867.579	4375
867.71	4383
867.841	4325
867.972	4466
868.103	4462
868.233	4421
868.364	4451
868.495	4493
868.625	4668
868.756	4744
868.886	4546
869.017	4656
869.147	4740
869.278	4759
869.408	4687
869.539	4698
869.669	4748
869.799	4664
869.929	4782
870.06	4740
870.19	4965
870.32	4927
870.45	4923
870.58	4946
870.71	5079
870.84	5128
870.97	4938
871.1	4870
871.23	5151
871.36	5086
871.489	4999
871.619	5079
871.749	5109
871.879	5071
872.008	5189
872.138	5048
872.267	4965
872.397	4816
872.526	4793
872.656	4691
872.785	4816
872.915	4908
873.044	5067
873.173	4908
873.303	4987
873.432	4965
873.561	4965
873.69	4915
873.819	4877
873.948	4911
874.077	4816
874.206	4771
874.335	4820
874.464	4915
874.593	5029
874.722	4980
874.851	5136
874.979	5083
875.108	5010
875.237	4938
875.365	4870
875.494	4904
875.623	4972
875.751	4847
875.88	4930
876.008	4984
876.136	5033
876.265	5223
876.393	5337
876.521	5277
876.65	5261
876.778	5155
876.906	5029
877.034	5029
877.162	4995
877.29	4995
877.418	5064
877.546	5052
877.674	5041
877.802	5014
877.93	5018
878.058	4942
878.185	4858
878.313	4957
878.441	4911
878.568	4793
878.696	4843
878.824	4965
878.951	5025
879.079	5174
879.206	5273
879.333	5086
879.461	4953
879.588	5003
879.715	5147
879.842	5174
879.97	4972
880.097	4778
880.224	4767
880.351	4828
880.478	4858
880.605	4816
880.732	4809
880.859	5098
880.986	4900
881.112	4854
881.239	4778
881.366	4611
881.493	4630
881.619	4622
881.746	4645
881.872	4664
881.999	4675
882.125	4641
882.252	4854
882.378	4843
882.505	4938
882.631	4809
882.757	4725
882.883	4740
883.01	4733
883.136	4622
883.262	4588
883.388	4634
883.514	4790
883.64	4805
883.766	4839
883.892	4649
884.018	4744
884.143	4892
884.269	5041
884.395	4710
884.52	4618
884.646	4634
884.772	4596
884.897	4554
885.023	4611
885.148	4782
885.274	4892
885.399	4812
885.524	4744
885.65	4725
885.775	4729
885.9	4748
886.025	4843
886.15	4790
886.275	4694
886.4	4679
886.525	4694
886.65	4660
886.775	4672
886.9	4968
887.025	5006
887.149	4816
887.274	4653
887.399	4580
887.523	4603
887.648	4558
887.773	4569
887.897	4805
888.021	4771
888.146	4702
888.27	4850
888.395	4892
888.519	4778
888.643	4820
888.767	4866
888.891	4675
889.015	4622
889.139	4618
889.263	4580
889.387	4683
889.511	4862
889.635	4812
889.759	4656
889.883	4679
890.006	4729
890.13	4835
890.254	4679
890.377	4694
890.501	4538
890.624	4538
890.748	4637
890.871	4497
890.995	4424
891.118	4421
891.241	4485
891.364	4538
891.488	4618
891.611	4508
891.734	4558
891.857	4649
891.98	4542
892.103	4668
892.226	4603
892.349	4512
892.471	4405
892.594	4596
892.717	4577
892.839	4558
892.962	4611
893.085	4691
893.207	4645
893.33	4417
893.452	4481
893.575	4615
893.697	4561
893.819	4809
893.941	4831
894.064	4752
894.186	4531
894.308	4542
894.43	4744
894.552	4801
894.674	4729
894.796	4573
894.918	4622
895.04	4550
895.161	4702
895.283	4645
895.405	4550
895.526	4656
895.648	4744
895.769	4679
895.891	4687
896.012	4733
896.134	4721
896.255	4645
896.376	4622
896.498	4645
896.619	4675
896.74	4596
896.861	4641
896.982	4938
897.103	5048
897.224	4835
897.345	4752
897.466	4649
897.587	4702
897.708	4835
897.828	4790
897.949	4706
898.07	4554
898.19	4668
898.311	4831
898.431	4672
898.552	4736
898.672	4763
898.792	4797
898.913	4721
899.033	4634
899.153	4500
899.273	4409
899.393	4497
899.513	4554
899.633	4531
899.753	4554
899.873	4516
899.993	4580
900.113	4516
900.232	4626
900.352	4569
900.472	4470
900.591	4386
900.711	4481
900.83	4451
900.95	4622
901.069	4660
901.189	4558
901.308	4344
901.427	4341
901.546	4394
901.665	4493
901.784	4489
901.904	4421
902.023	4318
902.141	4192
902.26	4196
902.379	4306
902.498	4223
902.617	4204
902.735	4337
902.854	4409
902.973	4333
903.091	4207
903.21	4249
903.328	4314
903.446	4227
903.565	4287
903.683	4348
903.801	4268
903.919	4398
904.038	4443
904.156	4333
904.274	4398
904.392	4383
904.51	4367
904.627	4455
904.745	4535
904.863	4645
904.981	4360
905.098	4299
905.216	4394
905.334	4413
905.451	4409
905.569	4405
905.686	4569
905.803	4565
905.921	4398
906.038	4497
906.155	4462
906.272	4367
906.389	4451
906.506	4360
906.623	4371
906.74	4398
906.857	4314
906.974	4367
907.091	4565
907.208	4626
907.324	4565
907.441	4478
907.557	4322
907.674	4356
907.79	4299
907.907	4360
908.023	4519
908.139	4455
908.256	4383
908.372	4451
908.488	4424
908.604	4325
908.72	4367
908.836	4356
908.952	4379
909.068	4402
909.184	4569
909.3	4497
909.415	4577
909.531	4546
909.647	4337
909.762	4341
909.878	4299
909.993	4443
910.108	4379
910.224	4386
910.339	4424
910.454	4436
910.57	4325
910.685	4341
910.8	4588
910.915	4569
911.03	4497
911.145	4341
911.259	4386
911.374	4409
911.489	4280
911.604	4295
911.718	4139
911.833	4204
911.947	4090
912.062	4006
912.176	4211
912.291	4204
912.405	4238
912.519	4447
912.633	4497
912.748	4413
912.862	4280
912.976	4223
913.09	4059
913.204	4169
913.318	4219
913.431	4306
913.545	4367
913.659	4489
913.772	4379
913.886	4223
914	4238
914.113	4383
914.226	4394
914.34	4348
914.453	4253
914.566	4405
914.68	4337
914.793	4341
914.906	4131
915.019	4097
915.132	4109
915.245	4158
915.358	4219
915.47	4230
915.583	4242
915.696	4276
915.809	4375
915.921	4409
916.034	4249
916.146	4303
916.259	4211
916.371	4398
916.483	4348
916.595	4238
916.708	4261
916.82	4360
916.932	4337
917.044	4314
917.156	4337
917.268	4268
917.38	4276
917.491	4242
917.603	4371
917.715	4421
917.826	4424
917.938	4360
918.049	4276
918.161	4386
918.272	4573
918.384	4603
918.495	4451
918.606	4265
918.717	4242
918.828	4344
918.939	4375
919.05	4249
919.161	4344
919.272	4158
919.383	4280
919.494	4459
919.604	4637
919.715	4421
919.826	4344
919.936	4348
920.047	4508
920.157	4459
920.267	4645
920.378	4531
920.488	4512
920.598	4725
920.708	4858
920.818	4774
920.928	4736
921.038	4991
921.148	4938
921.258	4603
921.368	4584
921.477	4519
921.587	4462
921.697	4398
921.806	4546
921.916	4432
922.025	4261
922.134	4268
922.244	4234
922.353	4356
922.462	4154
922.571	4086
922.68	3991
922.789	3968
922.898	3998
923.007	4013
923.116	4109
923.224	4044
923.333	4082
923.442	3987
923.55	3987
923.659	4025
923.767	4093
923.876	4010
923.984	4150
924.092	3960
924.201	4143
924.309	4051
924.417	4109
924.525	4086
924.633	4128
924.741	5029
924.849	3892
924.956	4131
925.064	3926
925.172	3888
925.279	3968
925.387	4109
925.494	4029
925.602	4185
925.709	4207
925.816	4071
925.924	4120
926.031	4173
926.138	4158
926.245	4219
926.352	4139
926.459	4215
926.566	4325
926.673	4120
926.779	4063
926.886	4082
926.993	4013
927.099	3949
927.206	3922
927.312	3945
927.419	4036
927.525	4032
927.631	4124
927.737	3983
927.843	3945
927.95	3842
928.056	3968
928.162	3953
928.267	4036
928.373	4672
928.479	4105
928.585	3892
928.69	4032
928.796	4040
928.901	3949
929.007	3827
929.112	4059
929.218	4002
929.323	3964
929.428	3949
929.533	4086
929.638	3903
929.743	3949
929.848	4029
929.953	4017
930.058	3896
930.163	3789
930.267	3812
930.372	3994
930.477	3812
930.581	4112
930.685	3941
930.79	3812
930.894	3838
930.998	3838
931.103	4021
931.207	3743
931.311	3701
931.415	3694
931.519	3545
931.623	3572
