Data from test_V78500241_2359.txt Node
Date: Fri Mar 25 17:05:24 CST 2022
User: usil
Spectrometer: V785-0024
Trigger mode: 0
Integration Time (sec): 4.000000E-1
Scans to average: 1
Nonlinearity correction enabled: false
Boxcar width: 0
Storing dark spectrum: false
XAxis mode: Wavelengths
Number of Pixels in Spectrum: 1024
>>>>>Begin Spectral Data<<<<<
801.071	8008
801.214	7955
801.356	7822
801.499	7799
801.641	7830
801.783	7833
801.926	7928
802.068	7921
802.211	7951
802.353	8024
802.496	7883
802.638	7852
802.78	7883
802.923	7860
803.065	7864
803.208	7864
803.35	7970
803.492	8077
803.635	8138
803.777	7989
803.919	8081
804.061	8415
804.204	8138
804.346	8039
804.488	7917
804.63	8069
804.773	7944
804.915	8134
805.057	8305
805.199	8199
805.341	8187
805.483	8210
805.626	8183
805.768	8134
805.91	8214
806.052	8202
806.194	8062
806.336	8317
806.478	8142
806.62	8046
806.762	8100
806.904	8176
807.046	8434
807.188	8400
807.33	8301
807.472	8336
807.614	8180
807.756	8218
807.898	7993
808.04	7852
808.182	7852
808.324	7925
808.465	7944
808.607	8100
808.749	8145
808.891	8225
809.033	8290
809.174	8229
809.316	8084
809.458	8062
809.6	8001
809.741	8088
809.883	8073
810.025	8096
810.166	8005
810.308	7982
810.45	7970
810.591	7906
810.733	7765
810.875	7651
811.016	7483
811.158	7453
811.299	7620
811.441	7700
811.582	7670
811.724	7552
811.865	7499
812.007	7575
812.148	7594
812.29	7658
812.431	7757
812.573	7860
812.714	7936
812.855	8142
812.997	8180
813.138	8244
813.279	8103
813.421	8058
813.562	7978
813.703	7830
813.845	7738
813.986	7415
814.127	7263
814.268	7228
814.41	7209
814.551	7168
814.692	7228
814.833	7107
814.974	7103
815.115	7126
815.256	6939
815.397	6901
815.539	7004
815.68	6798
815.821	6779
815.962	6871
816.103	6825
816.244	6681
816.385	6669
816.526	6631
816.666	6525
816.807	6315
816.948	6464
817.089	6486
817.23	6433
817.371	6426
817.512	6388
817.653	6369
817.793	6395
817.934	6441
818.075	6486
818.216	6437
818.356	6467
818.497	6270
818.638	6129
818.778	6152
818.919	6167
819.06	6163
819.2	6327
819.341	6346
819.481	6399
819.622	6566
819.762	6749
819.903	6669
820.043	6578
820.184	6582
820.324	6559
820.465	6669
820.605	6658
820.746	6593
820.886	6517
821.026	6627
821.167	6669
821.307	6783
821.447	6806
821.588	6760
821.728	6574
821.868	6445
822.008	6353
822.149	6342
822.289	6292
822.429	6152
822.569	6106
822.709	6129
822.849	5885
822.99	5908
823.13	5893
823.27	5893
823.41	5783
823.55	5798
823.69	5752
823.83	5764
823.97	5661
824.11	5505
824.25	5516
824.389	5589
824.529	5570
824.669	5532
824.809	5589
824.949	5619
825.089	5608
825.228	5535
825.368	5376
825.508	5360
825.648	5334
825.787	5387
825.927	5357
826.067	5307
826.206	5307
826.346	5379
826.485	5368
826.625	5406
826.765	5558
826.904	5482
827.044	5284
827.183	5185
827.323	5083
827.462	5197
827.601	5151
827.741	5178
827.88	5239
828.02	5113
828.159	5216
828.298	5261
828.437	5315
828.577	5303
828.716	5516
828.855	5318
828.994	5185
829.134	5193
829.273	5239
829.412	5140
829.551	5147
829.69	5193
829.829	5265
829.968	5360
830.107	5292
830.246	5318
830.385	5231
830.524	5197
830.663	5067
830.802	5025
830.941	4919
831.08	4881
831.219	4995
831.357	4995
831.496	5227
831.635	4953
831.774	4904
831.913	4862
832.051	4797
832.19	4797
832.329	4896
832.467	4721
832.606	4694
832.744	4759
832.883	4801
833.022	4778
833.16	4801
833.299	4885
833.437	4900
833.576	4900
833.714	4881
833.852	4938
833.991	4934
834.129	5022
834.267	4972
834.406	4923
834.544	4999
834.682	5045
834.821	5037
834.959	5178
835.097	5010
835.235	5178
835.373	5140
835.511	5170
835.65	5056
835.788	5037
835.926	5003
836.064	4976
836.202	4968
836.34	5181
836.478	5280
836.615	5162
836.753	5258
836.891	5353
837.029	5254
837.167	5246
837.305	5201
837.443	5197
837.58	5193
837.718	5299
837.856	5239
837.993	5136
838.131	5246
838.269	5235
838.406	5307
838.544	5227
838.681	5113
838.819	5048
838.956	4919
839.094	4923
839.231	5003
839.369	5151
839.506	5463
839.643	5368
839.781	5140
839.918	5075
840.055	5109
840.193	5136
840.33	5155
840.467	5181
840.604	5204
840.742	5410
840.879	5105
841.016	5151
841.153	5140
841.29	5440
841.427	5421
841.564	5341
841.701	5414
841.838	5334
841.975	5296
842.112	5307
842.249	5208
842.385	5155
842.522	5398
842.659	5220
842.796	5170
842.933	5189
843.069	5204
843.206	5181
843.343	5353
843.479	5250
843.616	5258
843.752	5060
843.889	5045
844.025	5223
844.162	5041
844.298	5239
844.435	5143
844.571	5090
844.708	5239
844.844	5364
844.98	5387
845.117	5299
845.253	5143
845.389	5140
845.525	5212
845.661	5174
845.798	5045
845.934	5189
846.07	5105
846.206	5223
846.342	5246
846.478	5181
846.614	5014
846.75	4984
846.886	4995
847.022	5223
847.158	5052
847.294	5083
847.429	5105
847.565	5094
847.701	5383
847.837	4873
847.972	4862
848.108	5014
848.244	4938
848.379	4793
848.515	4786
848.65	4755
848.786	4740
848.921	4820
849.057	4892
849.192	4957
849.328	4877
849.463	4908
849.598	4752
849.734	4809
849.869	4702
850.004	4618
850.14	4675
850.275	4668
850.41	4561
850.545	4580
850.68	4630
850.815	4721
850.95	4664
851.085	4892
851.22	4763
851.355	4683
851.49	4634
851.625	4683
851.76	4717
851.895	4592
852.03	4542
852.165	4698
852.299	4721
852.434	4824
852.569	4767
852.703	4843
852.838	4923
852.973	4968
853.107	4972
853.242	4763
853.376	4717
853.511	4554
853.645	4691
853.78	4866
853.914	4725
854.048	4767
854.183	4653
854.317	4740
854.451	4862
854.585	4668
854.72	4668
854.854	4790
854.988	4622
855.122	4641
855.256	4580
855.39	4714
855.524	4839
855.658	4786
855.792	4774
855.926	4771
856.06	4778
856.194	4790
856.327	4717
856.461	4668
856.595	4611
856.729	4660
856.862	4812
856.996	4717
857.13	4763
857.263	4812
857.397	4843
857.53	4645
857.664	4767
857.797	4797
857.931	4767
858.064	4733
858.197	4809
858.331	4675
858.464	4660
858.597	4519
858.731	4694
858.864	4637
858.997	4641
859.13	4698
859.263	4729
859.396	4706
859.529	4630
859.662	4584
859.795	4516
859.928	4622
860.061	4771
860.194	4797
860.327	4626
860.46	4607
860.592	4752
860.725	4763
860.858	4706
860.99	4577
861.123	4523
861.256	4569
861.388	4702
861.521	5254
861.653	4523
861.786	4447
861.918	4478
862.05	4580
862.183	4588
862.315	4584
862.447	4702
862.58	4565
862.712	4375
862.844	4383
862.976	4519
863.108	4527
863.24	4896
863.372	4341
863.504	4405
863.636	4470
863.768	4470
863.9	4485
864.032	4398
864.164	4432
864.296	4485
864.428	4565
864.559	4664
864.691	4592
864.823	4519
864.954	4508
865.086	4504
865.217	4462
865.349	4500
865.48	4470
865.612	4519
865.743	4653
865.875	4500
866.006	4424
866.137	4512
866.269	4459
866.4	4443
866.531	4424
866.662	4436
866.793	4432
866.924	4451
867.055	4516
867.186	4478
867.317	4478
867.448	4405
867.579	4424
867.71	4451
867.841	4383
867.972	4508
868.103	4455
868.233	4455
868.364	4481
868.495	4443
868.625	4717
868.756	4782
868.886	4580
869.017	4615
869.147	4786
869.278	4831
869.408	4698
869.539	4656
869.669	4767
869.799	4679
869.929	4801
870.06	4763
870.19	4972
870.32	4957
870.45	4946
870.58	5029
870.71	5079
870.84	5113
870.97	5018
871.1	4919
871.23	5162
871.36	5201
871.489	5094
871.619	5094
871.749	5098
871.879	5121
872.008	5246
872.138	5048
872.267	5033
872.397	4870
872.526	4816
872.656	4774
872.785	4862
872.915	4965
873.044	5067
873.173	4968
873.303	5022
873.432	4991
873.561	5022
873.69	4870
873.819	4858
873.948	4911
874.077	4809
874.206	4767
874.335	4831
874.464	4961
874.593	5083
874.722	4976
874.851	5109
874.979	5041
875.108	5064
875.237	5003
875.365	4908
875.494	4923
875.623	4995
875.751	4866
875.88	4870
876.008	4976
876.136	5067
876.265	5235
876.393	5372
876.521	5315
876.65	5284
876.778	5197
876.906	5079
877.034	5121
877.162	5064
877.29	5037
877.418	5045
877.546	5060
877.674	5025
877.802	5014
877.93	5003
878.058	4961
878.185	4908
878.313	5056
878.441	4995
878.568	4881
878.696	4911
878.824	4938
878.951	5071
879.079	5140
879.206	5269
879.333	5147
879.461	5018
879.588	4995
879.715	5102
879.842	5239
879.97	5060
880.097	4820
880.224	4748
880.351	4858
880.478	4809
880.605	4812
880.732	4797
880.859	5098
880.986	4885
881.112	4953
881.239	4748
881.366	4687
881.493	4645
881.619	4603
881.746	4660
881.872	4736
881.999	4660
882.125	4710
882.252	4782
882.378	4873
882.505	4934
882.631	4797
882.757	4717
882.883	4755
883.01	4748
883.136	4717
883.262	4611
883.388	4622
883.514	4839
883.64	4896
883.766	4793
883.892	4672
884.018	4759
884.143	4919
884.269	5045
884.395	4710
884.52	4672
884.646	4641
884.772	4573
884.897	4596
885.023	4687
885.148	4767
885.274	4881
885.399	4854
885.524	4725
885.65	4702
885.775	4748
885.9	4721
886.025	4812
886.15	4801
886.275	4763
886.4	4664
886.525	4759
886.65	4721
886.775	4725
886.9	4953
887.025	5071
887.149	4812
887.274	4694
887.399	4599
887.523	4645
887.648	4599
887.773	4554
887.897	4786
888.021	4790
888.146	4694
888.27	4839
888.395	4942
888.519	4793
888.643	4820
888.767	4847
888.891	4694
889.015	4588
889.139	4634
889.263	4634
889.387	4774
889.511	4915
889.635	4797
889.759	4660
889.883	4622
890.006	4710
890.13	4862
890.254	4641
890.377	4672
890.501	4607
890.624	4538
890.748	4675
890.871	4542
890.995	4466
891.118	4417
891.241	4565
891.364	4580
891.488	4656
891.611	4512
891.734	4554
891.857	4664
891.98	4554
892.103	4702
892.226	4630
892.349	4519
892.471	4451
892.594	4535
892.717	4611
892.839	4573
892.962	4607
893.085	4691
893.207	4611
893.33	4493
893.452	4546
893.575	4702
893.697	4615
893.819	4816
893.941	4820
894.064	4809
894.186	4580
894.308	4580
894.43	4744
894.552	4870
894.674	4702
894.796	4558
894.918	4599
895.04	4607
895.161	4721
895.283	4675
895.405	4596
895.526	4653
895.648	4694
895.769	4672
895.891	4733
896.012	4748
896.134	4748
896.255	4675
896.376	4630
896.498	4584
896.619	4698
896.74	4565
896.861	4634
896.982	4957
897.103	5041
897.224	4843
897.345	4809
897.466	4660
897.587	4736
897.708	4862
897.828	4782
897.949	4630
898.07	4584
898.19	4641
898.311	4816
898.431	4698
898.552	4748
898.672	4843
898.792	4805
898.913	4733
899.033	4656
899.153	4546
899.273	4436
899.393	4500
899.513	4519
899.633	4531
899.753	4565
899.873	4516
899.993	4599
900.113	4516
900.232	4653
900.352	4569
900.472	4478
900.591	4443
900.711	4500
900.83	4428
900.95	4611
901.069	4763
901.189	4561
901.308	4371
901.427	4314
901.546	4386
901.665	4497
901.784	4500
901.904	4383
902.023	4325
902.141	4238
902.26	4158
902.379	4291
902.498	4314
902.617	4246
902.735	4402
902.854	4390
902.973	4363
903.091	4261
903.21	4227
903.328	4284
903.446	4249
903.565	4287
903.683	4363
903.801	4322
903.919	4409
904.038	4470
904.156	4318
904.274	4493
904.392	4424
904.51	4417
904.627	4489
904.745	4603
904.863	4672
904.981	4466
905.098	4291
905.216	4363
905.334	4413
905.451	4459
905.569	4443
905.686	4607
905.803	4622
905.921	4451
906.038	4565
906.155	4500
906.272	4432
906.389	4500
906.506	4383
906.623	4424
906.74	4474
906.857	4356
906.974	4424
907.091	4630
907.208	4710
907.324	4660
907.441	4497
907.557	4402
907.674	4440
907.79	4367
907.907	4455
908.023	4489
908.139	4542
908.256	4497
908.372	4500
908.488	4440
908.604	4386
908.72	4375
908.836	4417
908.952	4459
909.068	4451
909.184	4634
909.3	4500
909.415	4630
909.531	4630
909.647	4409
909.762	4443
909.878	4379
909.993	4485
910.108	4440
910.224	4489
910.339	4478
910.454	4451
910.57	4432
910.685	4352
910.8	4683
910.915	4668
911.03	4550
911.145	4363
911.259	4417
911.374	4360
911.489	4333
911.604	4306
911.718	4215
911.833	4272
911.947	4090
912.062	4044
912.176	4280
912.291	4272
912.405	4314
912.519	4455
912.633	4466
912.748	4428
912.862	4344
912.976	4227
913.09	4162
913.204	4215
913.318	4287
913.431	4421
913.545	4481
913.659	4474
913.772	4421
913.886	4253
914	4310
914.113	4424
914.226	4523
914.34	4443
914.453	4287
914.566	4402
914.68	4333
914.793	4383
914.906	4223
915.019	4139
915.132	4147
915.245	4207
915.358	4230
915.47	4268
915.583	4261
915.696	4371
915.809	4413
915.921	4451
916.034	4268
916.146	4299
916.259	4280
916.371	4356
916.483	4428
916.595	4314
916.708	4329
916.82	4333
916.932	4333
917.044	4352
917.156	4348
917.268	4306
917.38	4310
917.491	4322
917.603	4394
917.715	4462
917.826	4470
917.938	4348
918.049	4306
918.161	4443
918.272	4611
918.384	4577
918.495	4459
918.606	4394
918.717	4314
918.828	4367
918.939	4413
919.05	4287
919.161	4386
919.272	4169
919.383	4272
919.494	4535
919.604	4653
919.715	4455
919.826	4402
919.936	4459
920.047	4573
920.157	4538
920.267	4733
920.378	4592
920.488	4535
920.598	4774
920.708	4942
920.818	4786
920.928	4828
921.038	5033
921.148	4957
921.258	4683
921.368	4615
921.477	4512
921.587	4485
921.697	4459
921.806	4573
921.916	4493
922.025	4314
922.134	4272
922.244	4242
922.353	4371
922.462	4242
922.571	4185
922.68	4002
922.789	3979
922.898	4074
923.007	3998
923.116	4093
923.224	4082
923.333	4124
923.442	4017
923.55	4032
923.659	4051
923.767	4120
923.876	4067
923.984	4124
924.092	3994
924.201	4124
924.309	4173
924.417	4192
924.525	4090
924.633	4101
924.741	5052
924.849	3949
924.956	4200
925.064	3975
925.172	3941
925.279	3991
925.387	4109
925.494	4105
925.602	4249
925.709	4219
925.816	4059
925.924	4181
926.031	4253
926.138	4200
926.245	4204
926.352	4082
926.459	4299
926.566	4348
926.673	4185
926.779	4120
926.886	4135
926.993	3998
927.099	3994
927.206	3987
927.312	3975
927.419	4112
927.525	4074
927.631	4101
927.737	4002
927.843	3968
927.95	3896
928.056	3998
928.162	4032
928.267	4101
928.373	4577
928.479	4150
928.585	3915
928.69	4021
928.796	4116
928.901	3998
929.007	3903
929.112	3991
929.218	4006
929.323	3998
929.428	3998
929.533	4150
929.638	3922
929.743	3998
929.848	4074
929.953	4055
930.058	3945
930.163	3781
930.267	3865
930.372	4010
930.477	3812
930.581	4139
930.685	3998
930.79	3827
930.894	3918
930.998	3888
931.103	4051
931.207	3728
931.311	3755
931.415	3675
931.519	3530
931.623	3587
