Data from test_V78500241_1060.txt Node
Date: Fri Mar 25 16:56:22 CST 2022
User: usil
Spectrometer: V785-0024
Trigger mode: 0
Integration Time (sec): 4.000000E-1
Scans to average: 1
Nonlinearity correction enabled: false
Boxcar width: 0
Storing dark spectrum: false
XAxis mode: Wavelengths
Number of Pixels in Spectrum: 1024
>>>>>Begin Spectral Data<<<<<
801.071	8050
801.214	7989
801.356	7860
801.499	7841
801.641	7742
801.783	7776
801.926	7993
802.068	7845
802.211	7932
802.353	7932
802.496	7746
802.638	7868
802.78	7909
802.923	7940
803.065	7894
803.208	7898
803.35	8031
803.492	8180
803.635	8138
803.777	8012
803.919	8176
804.061	8488
804.204	8161
804.346	8046
804.488	7928
804.63	8096
804.773	8024
804.915	8073
805.057	8237
805.199	8172
805.341	8183
805.483	8286
805.626	8187
805.768	8161
805.91	8180
806.052	8202
806.194	8031
806.336	8263
806.478	8115
806.62	8062
806.762	8119
806.904	8210
807.046	8427
807.188	8317
807.33	8259
807.472	8286
807.614	8149
807.756	8103
807.898	7986
808.04	7868
808.182	7864
808.324	7921
808.465	7871
808.607	8031
808.749	8123
808.891	8157
809.033	8294
809.174	8263
809.316	8050
809.458	8039
809.6	7936
809.741	7951
809.883	8001
810.025	8054
810.166	7974
810.308	8043
810.45	8020
810.591	7879
810.733	7731
810.875	7643
811.016	7559
811.158	7468
811.299	7556
811.441	7708
811.582	7666
811.724	7514
811.865	7506
812.007	7559
812.148	7624
812.29	7594
812.431	7616
812.573	7799
812.714	7947
812.855	8065
812.997	8210
813.138	8233
813.279	8199
813.421	8084
813.562	8035
813.703	7864
813.845	7765
813.986	7422
814.127	7217
814.268	7160
814.41	7141
814.551	7107
814.692	7194
814.833	7031
814.974	7053
815.115	7069
815.256	6973
815.397	6909
815.539	6935
815.68	6837
815.821	6795
815.962	6897
816.103	6837
816.244	6734
816.385	6639
816.526	6601
816.666	6506
816.807	6281
816.948	6399
817.089	6464
817.23	6414
817.371	6315
817.512	6350
817.653	6384
817.793	6376
817.934	6418
818.075	6475
818.216	6437
818.356	6391
818.497	6171
818.638	6133
818.778	6144
818.919	6102
819.06	6178
819.2	6308
819.341	6334
819.481	6369
819.622	6544
819.762	6719
819.903	6684
820.043	6642
820.184	6551
820.324	6528
820.465	6642
820.605	6749
820.746	6593
820.886	6486
821.026	6623
821.167	6677
821.307	6749
821.447	6681
821.588	6650
821.728	6506
821.868	6536
822.008	6414
822.149	6395
822.289	6380
822.429	6175
822.569	6095
822.709	6144
822.849	5950
822.99	5855
823.13	5999
823.27	5961
823.41	5752
823.55	5798
823.69	5809
823.83	5752
823.97	5649
824.11	5554
824.25	5455
824.389	5589
824.529	5577
824.669	5528
824.809	5680
824.949	5623
825.089	5630
825.228	5577
825.368	5444
825.508	5417
825.648	5379
825.787	5334
825.927	5406
826.067	5318
826.206	5311
826.346	5395
826.485	5402
826.625	5433
826.765	5558
826.904	5505
827.044	5273
827.183	5239
827.323	5124
827.462	5246
827.601	5227
827.741	5181
827.88	5242
828.02	5181
828.159	5265
828.298	5292
828.437	5410
828.577	5299
828.716	5474
828.855	5341
828.994	5197
829.134	5223
829.273	5223
829.412	5132
829.551	5155
829.69	5227
829.829	5246
829.968	5410
830.107	5277
830.246	5326
830.385	5212
830.524	5159
830.663	5102
830.802	4946
830.941	4953
831.08	4900
831.219	5037
831.357	5071
831.496	5155
831.635	4995
831.774	4858
831.913	4877
832.051	4774
832.19	4790
832.329	4870
832.467	4710
832.606	4691
832.744	4698
832.883	4736
833.022	4744
833.16	4850
833.299	4900
833.437	4850
833.576	4828
833.714	4862
833.852	4870
833.991	4946
834.129	4965
834.267	4991
834.406	5006
834.544	4995
834.682	5010
834.821	4980
834.959	5151
835.097	5067
835.235	5170
835.373	5109
835.511	5128
835.65	5056
835.788	5045
835.926	4900
836.064	4919
836.202	4908
836.34	5189
836.478	5280
836.615	5162
836.753	5223
836.891	5303
837.029	5258
837.167	5269
837.305	5151
837.443	5143
837.58	5174
837.718	5299
837.856	5212
837.993	5193
838.131	5280
838.269	5235
838.406	5318
838.544	5208
838.681	5022
838.819	5014
838.956	4927
839.094	4942
839.231	5014
839.369	5102
839.506	5448
839.643	5265
839.781	5094
839.918	4999
840.055	5109
840.193	5124
840.33	5159
840.467	5162
840.604	5208
840.742	5482
840.879	5048
841.016	5147
841.153	5170
841.29	5414
841.427	5364
841.564	5318
841.701	5398
841.838	5265
841.975	5254
842.112	5265
842.249	5178
842.385	5185
842.522	5353
842.659	5189
842.796	5086
842.933	5204
843.069	5197
843.206	5170
843.343	5349
843.479	5227
843.616	5337
843.752	5083
843.889	5003
844.025	5307
844.162	5048
844.298	5277
844.435	5090
844.571	5060
844.708	5239
844.844	5353
844.98	5337
845.117	5326
845.253	5193
845.389	5147
845.525	5201
845.661	5159
845.798	5064
845.934	5155
846.07	5075
846.206	5212
846.342	5288
846.478	5170
846.614	5010
846.75	4965
846.886	4972
847.022	5143
847.158	5033
847.294	5109
847.429	5071
847.565	5075
847.701	5292
847.837	4870
847.972	4793
848.108	4904
848.244	4976
848.379	4782
848.515	4767
848.65	4778
848.786	4721
848.921	4763
849.057	4946
849.192	4919
849.328	4877
849.463	4866
849.598	4786
849.734	4759
849.869	4714
850.004	4668
850.14	4691
850.275	4675
850.41	4535
850.545	4573
850.68	4653
850.815	4694
850.95	4618
851.085	4843
851.22	4774
851.355	4653
851.49	4683
851.625	4641
851.76	4683
851.895	4569
852.03	4577
852.165	4683
852.299	4706
852.434	4786
852.569	4774
852.703	4782
852.838	4927
852.973	4927
853.107	4976
853.242	4717
853.376	4710
853.511	4538
853.645	4615
853.78	4797
853.914	4771
854.048	4664
854.183	4656
854.317	4717
854.451	4835
854.585	4691
854.72	4698
854.854	4774
854.988	4596
855.122	4660
855.256	4569
855.39	4664
855.524	4778
855.658	4752
855.792	4740
855.926	4748
856.06	4774
856.194	4755
856.327	4691
856.461	4672
856.595	4611
856.729	4634
856.862	4759
856.996	4714
857.13	4740
857.263	4793
857.397	4820
857.53	4672
857.664	4698
857.797	4812
857.931	4797
858.064	4706
858.197	4755
858.331	4653
858.464	4599
858.597	4577
858.731	4622
858.864	4649
858.997	4592
859.13	4672
859.263	4691
859.396	4771
859.529	4607
859.662	4588
859.795	4546
859.928	4618
860.061	4759
860.194	4771
860.327	4653
860.46	4573
860.592	4733
860.725	4710
860.858	4809
860.99	4573
861.123	4538
861.256	4558
861.388	4618
861.521	5334
861.653	4500
861.786	4455
861.918	4481
862.05	4535
862.183	4542
862.315	4599
862.447	4645
862.58	4577
862.712	4417
862.844	4310
862.976	4417
863.108	4504
863.24	4896
863.372	4394
863.504	4371
863.636	4413
863.768	4481
863.9	4424
864.032	4383
864.164	4409
864.296	4493
864.428	4565
864.559	4611
864.691	4546
864.823	4535
864.954	4485
865.086	4504
865.217	4489
865.349	4443
865.48	4455
865.612	4538
865.743	4653
865.875	4481
866.006	4428
866.137	4485
866.269	4497
866.4	4432
866.531	4413
866.662	4402
866.793	4394
866.924	4421
867.055	4497
867.186	4527
867.317	4459
867.448	4386
867.579	4405
867.71	4428
867.841	4398
867.972	4451
868.103	4443
868.233	4447
868.364	4451
868.495	4497
868.625	4660
868.756	4748
868.886	4573
869.017	4599
869.147	4805
869.278	4725
869.408	4668
869.539	4653
869.669	4740
869.799	4634
869.929	4774
870.06	4656
870.19	4968
870.32	4942
870.45	4911
870.58	5006
870.71	5071
870.84	5064
870.97	4984
871.1	4930
871.23	5151
871.36	5204
871.489	5052
871.619	5159
871.749	5090
871.879	5113
872.008	5220
872.138	5064
872.267	4984
872.397	4839
872.526	4824
872.656	4702
872.785	4759
872.915	4938
873.044	5056
873.173	4968
873.303	4953
873.432	4980
873.561	4965
873.69	4866
873.819	4854
873.948	4908
874.077	4843
874.206	4767
874.335	4767
874.464	4930
874.593	5090
874.722	4972
874.851	5117
874.979	5064
875.108	5022
875.237	4911
875.365	4877
875.494	4927
875.623	4991
875.751	4854
875.88	4911
876.008	4984
876.136	5006
876.265	5170
876.393	5330
876.521	5235
876.65	5227
876.778	5113
876.906	5098
877.034	5029
877.162	5102
877.29	5003
877.418	5060
877.546	5071
877.674	5094
877.802	5018
877.93	5022
878.058	4904
878.185	4835
878.313	4980
878.441	4984
878.568	4805
878.696	4900
878.824	4953
878.951	5003
879.079	5128
879.206	5303
879.333	5162
879.461	4976
879.588	5018
879.715	5151
879.842	5235
879.97	5010
880.097	4820
880.224	4744
880.351	4809
880.478	4847
880.605	4771
880.732	4805
880.859	5064
880.986	4870
881.112	4904
881.239	4797
881.366	4733
881.493	4603
881.619	4641
881.746	4626
881.872	4634
881.999	4672
882.125	4721
882.252	4725
882.378	4835
882.505	4980
882.631	4812
882.757	4668
882.883	4744
883.01	4748
883.136	4717
883.262	4626
883.388	4641
883.514	4870
883.64	4847
883.766	4755
883.892	4649
884.018	4767
884.143	4885
884.269	5006
884.395	4748
884.52	4634
884.646	4691
884.772	4584
884.897	4599
885.023	4679
885.148	4824
885.274	4820
885.399	4767
885.524	4710
885.65	4694
885.775	4812
885.9	4740
886.025	4915
886.15	4820
886.275	4683
886.4	4679
886.525	4729
886.65	4717
886.775	4698
886.9	4923
887.025	5006
887.149	4870
887.274	4660
887.399	4573
887.523	4599
887.648	4535
887.773	4569
887.897	4759
888.021	4790
888.146	4714
888.27	4835
888.395	4923
888.519	4858
888.643	4820
888.767	4850
888.891	4710
889.015	4626
889.139	4714
889.263	4626
889.387	4782
889.511	4885
889.635	4828
889.759	4626
889.883	4645
890.006	4752
890.13	4797
890.254	4622
890.377	4702
890.501	4569
890.624	4542
890.748	4626
890.871	4519
890.995	4417
891.118	4383
891.241	4535
891.364	4546
891.488	4637
891.611	4523
891.734	4538
891.857	4645
891.98	4554
892.103	4675
892.226	4577
892.349	4504
892.471	4417
892.594	4508
892.717	4577
892.839	4554
892.962	4554
893.085	4649
893.207	4580
893.33	4474
893.452	4523
893.575	4668
893.697	4596
893.819	4774
893.941	4797
894.064	4752
894.186	4592
894.308	4577
894.43	4736
894.552	4809
894.674	4774
894.796	4580
894.918	4626
895.04	4584
895.161	4714
895.283	4679
895.405	4516
895.526	4607
895.648	4653
895.769	4717
895.891	4725
896.012	4714
896.134	4721
896.255	4675
896.376	4653
896.498	4622
896.619	4694
896.74	4603
896.861	4645
896.982	4965
897.103	5117
897.224	4831
897.345	4721
897.466	4687
897.587	4714
897.708	4839
897.828	4748
897.949	4668
898.07	4535
898.19	4615
898.311	4786
898.431	4721
898.552	4771
898.672	4805
898.792	4816
898.913	4744
899.033	4656
899.153	4558
899.273	4447
899.393	4497
899.513	4500
899.633	4531
899.753	4554
899.873	4538
899.993	4615
900.113	4542
900.232	4554
900.352	4542
900.472	4485
900.591	4432
900.711	4451
900.83	4443
900.95	4580
901.069	4725
901.189	4481
901.308	4367
901.427	4291
901.546	4413
901.665	4462
901.784	4573
901.904	4318
902.023	4325
902.141	4200
902.26	4158
902.379	4344
902.498	4234
902.617	4196
902.735	4371
902.854	4428
902.973	4383
903.091	4219
903.21	4188
903.328	4299
903.446	4249
903.565	4276
903.683	4356
903.801	4291
903.919	4394
904.038	4386
904.156	4295
904.274	4459
904.392	4383
904.51	4421
904.627	4481
904.745	4554
904.863	4580
904.981	4371
905.098	4314
905.216	4337
905.334	4447
905.451	4417
905.569	4432
905.686	4523
905.803	4565
905.921	4379
906.038	4538
906.155	4470
906.272	4375
906.389	4436
906.506	4352
906.623	4367
906.74	4371
906.857	4280
906.974	4409
907.091	4569
907.208	4706
907.324	4603
907.441	4497
907.557	4352
907.674	4363
907.79	4295
907.907	4421
908.023	4538
908.139	4478
908.256	4421
908.372	4466
908.488	4417
908.604	4352
908.72	4299
908.836	4398
908.952	4367
909.068	4436
909.184	4577
909.3	4508
909.415	4607
909.531	4512
909.647	4337
909.762	4379
909.878	4306
909.993	4413
910.108	4447
910.224	4432
910.339	4531
910.454	4394
910.57	4356
910.685	4295
910.8	4691
910.915	4592
911.03	4512
911.145	4303
911.259	4333
911.374	4360
911.489	4325
911.604	4272
911.718	4185
911.833	4215
911.947	4021
912.062	4013
912.176	4188
912.291	4227
912.405	4280
912.519	4462
912.633	4478
912.748	4371
912.862	4299
912.976	4204
913.09	4105
913.204	4169
913.318	4295
913.431	4367
913.545	4352
913.659	4421
913.772	4344
913.886	4242
914	4265
914.113	4367
914.226	4459
914.34	4390
914.453	4253
914.566	4443
914.68	4318
914.793	4303
914.906	4101
915.019	4101
915.132	4086
915.245	4177
915.358	4162
915.47	4238
915.583	4276
915.696	4299
915.809	4363
915.921	4459
916.034	4230
916.146	4249
916.259	4253
916.371	4356
916.483	4394
916.595	4246
916.708	4303
916.82	4310
916.932	4303
917.044	4333
917.156	4383
917.268	4207
917.38	4310
917.491	4303
917.603	4348
917.715	4451
917.826	4424
917.938	4333
918.049	4196
918.161	4386
918.272	4588
918.384	4523
918.495	4481
918.606	4333
918.717	4249
918.828	4318
918.939	4314
919.05	4200
919.161	4310
919.272	4135
919.383	4238
919.494	4428
919.604	4626
919.715	4424
919.826	4348
919.936	4386
920.047	4550
920.157	4497
920.267	4672
920.378	4535
920.488	4493
920.598	4729
920.708	4877
920.818	4717
920.928	4759
921.038	4968
921.148	4877
921.258	4649
921.368	4573
921.477	4497
921.587	4409
921.697	4405
921.806	4550
921.916	4455
922.025	4287
922.134	4299
922.244	4192
922.353	4287
922.462	4177
922.571	4150
922.68	4002
922.789	3975
922.898	4082
923.007	3979
923.116	4109
923.224	4074
923.333	4101
923.442	4002
923.55	3968
923.659	4021
923.767	4109
923.876	4021
923.984	4166
924.092	3975
924.201	4059
924.309	4029
924.417	4173
924.525	4071
924.633	4131
924.741	5014
924.849	3884
924.956	4128
925.064	3907
925.172	3880
925.279	3926
925.387	4055
925.494	4059
925.602	4227
925.709	4196
925.816	4059
925.924	4124
926.031	4200
926.138	4143
926.245	4238
926.352	4162
926.459	4280
926.566	4314
926.673	4166
926.779	4109
926.886	4067
926.993	3972
927.099	3949
927.206	3937
927.312	3968
927.419	4013
927.525	4029
927.631	4109
927.737	3945
927.843	3903
927.95	3854
928.056	3953
928.162	3979
928.267	4044
928.373	4702
928.479	4124
928.585	3854
928.69	4025
928.796	4017
928.901	3949
929.007	3865
929.112	3991
929.218	3983
929.323	3949
929.428	3991
929.533	4128
929.638	3896
929.743	3953
929.848	4048
929.953	3941
930.058	3945
930.163	3774
930.267	3835
930.372	3998
930.477	3778
930.581	4105
930.685	3926
930.79	3850
930.894	3892
930.998	3850
931.103	4044
931.207	3675
931.311	3682
931.415	3641
931.519	3538
931.623	3542
