Data from test_V78500241_893.txt Node
Date: Fri Mar 25 16:55:12 CST 2022
User: usil
Spectrometer: V785-0024
Trigger mode: 0
Integration Time (sec): 4.000000E-1
Scans to average: 1
Nonlinearity correction enabled: false
Boxcar width: 0
Storing dark spectrum: false
XAxis mode: Wavelengths
Number of Pixels in Spectrum: 1024
>>>>>Begin Spectral Data<<<<<
801.071	8077
801.214	8012
801.356	7932
801.499	7902
801.641	7734
801.783	7879
801.926	7967
802.068	7925
802.211	8008
802.353	7974
802.496	7887
802.638	7860
802.78	7898
802.923	7928
803.065	7902
803.208	7902
803.35	8050
803.492	8096
803.635	8210
803.777	8062
803.919	8138
804.061	8442
804.204	8092
804.346	8054
804.488	7932
804.63	8134
804.773	8073
804.915	8145
805.057	8286
805.199	8164
805.341	8248
805.483	8267
805.626	8210
805.768	8153
805.91	8218
806.052	8180
806.194	8134
806.336	8328
806.478	8065
806.62	8115
806.762	8164
806.904	8301
807.046	8488
807.188	8377
807.33	8332
807.472	8347
807.614	8206
807.756	8065
807.898	8027
808.04	7967
808.182	7925
808.324	7879
808.465	8001
808.607	7989
808.749	8142
808.891	8202
809.033	8271
809.174	8191
809.316	8081
809.458	8069
809.6	8020
809.741	8050
809.883	8005
810.025	8081
810.166	8081
810.308	8024
810.45	8058
810.591	7963
810.733	7727
810.875	7647
811.016	7476
811.158	7548
811.299	7651
811.441	7769
811.582	7719
811.724	7620
811.865	7521
812.007	7586
812.148	7620
812.29	7666
812.431	7708
812.573	7841
812.714	7944
812.855	8138
812.997	8290
813.138	8358
813.279	8191
813.421	8119
813.562	8031
813.703	7875
813.845	7765
813.986	7514
814.127	7278
814.268	7285
814.41	7225
814.551	7076
814.692	7160
814.833	7080
814.974	7110
815.115	7099
815.256	6977
815.397	6897
815.539	7012
815.68	6837
815.821	6821
815.962	6837
816.103	6863
816.244	6692
816.385	6677
816.526	6642
816.666	6532
816.807	6315
816.948	6429
817.089	6521
817.23	6437
817.371	6471
817.512	6304
817.653	6426
817.793	6422
817.934	6407
818.075	6433
818.216	6426
818.356	6395
818.497	6258
818.638	6152
818.778	6178
818.919	6159
819.06	6133
819.2	6311
819.341	6334
819.481	6361
819.622	6532
819.762	6711
819.903	6741
820.043	6604
820.184	6597
820.324	6620
820.465	6692
820.605	6688
820.746	6593
820.886	6517
821.026	6692
821.167	6711
821.307	6779
821.447	6757
821.588	6688
821.728	6559
821.868	6509
822.008	6365
822.149	6422
822.289	6365
822.429	6106
822.569	6102
822.709	6091
822.849	5901
822.99	5939
823.13	5961
823.27	5901
823.41	5844
823.55	5733
823.69	5760
823.83	5851
823.97	5676
824.11	5562
824.25	5501
824.389	5573
824.529	5585
824.669	5520
824.809	5600
824.949	5676
825.089	5608
825.228	5558
825.368	5455
825.508	5360
825.648	5318
825.787	5364
825.927	5406
826.067	5315
826.206	5315
826.346	5410
826.485	5448
826.625	5402
826.765	5543
826.904	5493
827.044	5269
827.183	5220
827.323	5132
827.462	5227
827.601	5178
827.741	5235
827.88	5250
828.02	5136
828.159	5292
828.298	5299
828.437	5353
828.577	5269
828.716	5474
828.855	5307
828.994	5181
829.134	5159
829.273	5185
829.412	5060
829.551	5109
829.69	5170
829.829	5239
829.968	5345
830.107	5307
830.246	5254
830.385	5140
830.524	5181
830.663	5147
830.802	5006
830.941	4923
831.08	4854
831.219	4999
831.357	5006
831.496	5223
831.635	4911
831.774	4858
831.913	4850
832.051	4717
832.19	4774
832.329	4870
832.467	4763
832.606	4641
832.744	4694
832.883	4717
833.022	4782
833.16	4824
833.299	4870
833.437	4835
833.576	4824
833.714	4824
833.852	4858
833.991	4911
834.129	5006
834.267	4991
834.406	4919
834.544	4968
834.682	4972
834.821	4984
834.959	5147
835.097	5022
835.235	5113
835.373	5117
835.511	5083
835.65	5033
835.788	4991
835.926	4911
836.064	4900
836.202	4896
836.34	5140
836.478	5147
836.615	5140
836.753	5246
836.891	5273
837.029	5216
837.167	5223
837.305	5185
837.443	5147
837.58	5067
837.718	5223
837.856	5197
837.993	5121
838.131	5280
838.269	5189
838.406	5193
838.544	5208
838.681	5052
838.819	4984
838.956	4942
839.094	4877
839.231	4987
839.369	5048
839.506	5425
839.643	5208
839.781	5090
839.918	5056
840.055	5060
840.193	5086
840.33	5109
840.467	5170
840.604	5174
840.742	5383
840.879	5022
841.016	5102
841.153	5155
841.29	5334
841.427	5330
841.564	5330
841.701	5330
841.838	5288
841.975	5223
842.112	5258
842.249	5159
842.385	5121
842.522	5322
842.659	5140
842.796	5159
842.933	5204
843.069	5147
843.206	5136
843.343	5246
843.479	5201
843.616	5269
843.752	5029
843.889	4976
844.025	5181
844.162	4991
844.298	5212
844.435	5086
844.571	5048
844.708	5227
844.844	5326
844.98	5364
845.117	5269
845.253	5155
845.389	5128
845.525	5143
845.661	5140
845.798	5052
845.934	5105
846.07	5094
846.206	5174
846.342	5303
846.478	5185
846.614	5029
846.75	4972
846.886	4930
847.022	5090
847.158	5003
847.294	5018
847.429	5079
847.565	5048
847.701	5368
847.837	4828
847.972	4805
848.108	4930
848.244	4858
848.379	4801
848.515	4812
848.65	4683
848.786	4767
848.921	4782
849.057	4923
849.192	4900
849.328	4820
849.463	4839
849.598	4824
849.734	4759
849.869	4710
850.004	4641
850.14	4626
850.275	4577
850.41	4565
850.545	4599
850.68	4626
850.815	4645
850.95	4668
851.085	4850
851.22	4748
851.355	4721
851.49	4649
851.625	4660
851.76	4603
851.895	4523
852.03	4554
852.165	4668
852.299	4778
852.434	4797
852.569	4782
852.703	4790
852.838	4877
852.973	4923
853.107	4976
853.242	4759
853.376	4725
853.511	4584
853.645	4618
853.78	4885
853.914	4740
854.048	4744
854.183	4683
854.317	4774
854.451	4904
854.585	4717
854.72	4660
854.854	4790
854.988	4637
855.122	4645
855.256	4569
855.39	4717
855.524	4831
855.658	4752
855.792	4755
855.926	4736
856.06	4793
856.194	4870
856.327	4702
856.461	4641
856.595	4660
856.729	4603
856.862	4793
856.996	4736
857.13	4763
857.263	4763
857.397	4835
857.53	4714
857.664	4714
857.797	4778
857.931	4801
858.064	4748
858.197	4744
858.331	4675
858.464	4637
858.597	4561
858.731	4660
858.864	4691
858.997	4618
859.13	4694
859.263	4706
859.396	4744
859.529	4603
859.662	4603
859.795	4561
859.928	4660
860.061	4786
860.194	4805
860.327	4626
860.46	4565
860.592	4691
860.725	4797
860.858	4755
860.99	4618
861.123	4535
861.256	4546
861.388	4641
861.521	5208
861.653	4497
861.786	4443
861.918	4497
862.05	4512
862.183	4580
862.315	4622
862.447	4645
862.58	4565
862.712	4409
862.844	4348
862.976	4493
863.108	4462
863.24	4805
863.372	4356
863.504	4462
863.636	4462
863.768	4538
863.9	4481
864.032	4417
864.164	4451
864.296	4504
864.428	4542
864.559	4584
864.691	4558
864.823	4554
864.954	4527
865.086	4538
865.217	4504
865.349	4398
865.48	4470
865.612	4497
865.743	4634
865.875	4489
866.006	4417
866.137	4481
866.269	4474
866.4	4440
866.531	4470
866.662	4451
866.793	4466
866.924	4470
867.055	4504
867.186	4531
867.317	4436
867.448	4394
867.579	4383
867.71	4413
867.841	4367
867.972	4512
868.103	4459
868.233	4466
868.364	4497
868.495	4527
868.625	4691
868.756	4755
868.886	4622
869.017	4660
869.147	4786
869.278	4793
869.408	4675
869.539	4687
869.669	4744
869.799	4664
869.929	4778
870.06	4759
870.19	4968
870.32	4930
870.45	4953
870.58	5018
870.71	5132
870.84	5083
870.97	4968
871.1	4923
871.23	5181
871.36	5140
871.489	5041
871.619	5121
871.749	5128
871.879	5181
872.008	5212
872.138	5052
872.267	4949
872.397	4881
872.526	4835
872.656	4755
872.785	4835
872.915	4995
873.044	5075
873.173	4980
873.303	4995
873.432	4980
873.561	4987
873.69	4889
873.819	4889
873.948	4946
874.077	4839
874.206	4805
874.335	4778
874.464	4972
874.593	5075
874.722	4934
874.851	5132
874.979	5086
875.108	5018
875.237	4949
875.365	4885
875.494	4866
875.623	4999
875.751	4854
875.88	4892
876.008	4961
876.136	5052
876.265	5181
876.393	5334
876.521	5296
876.65	5250
876.778	5166
876.906	5083
877.034	5083
877.162	5060
877.29	4999
877.418	5048
877.546	5052
877.674	5067
877.802	5060
877.93	5033
878.058	4938
878.185	4889
878.313	5033
878.441	4980
878.568	4805
878.696	4858
878.824	4984
878.951	5018
879.079	5113
879.206	5311
879.333	5136
879.461	5018
879.588	4984
879.715	5071
879.842	5265
879.97	5010
880.097	4809
880.224	4771
880.351	4816
880.478	4820
880.605	4790
880.732	4828
880.859	5143
880.986	4896
881.112	4923
881.239	4793
881.366	4714
881.493	4645
881.619	4588
881.746	4641
881.872	4660
881.999	4691
882.125	4725
882.252	4839
882.378	4873
882.505	4946
882.631	4809
882.757	4672
882.883	4725
883.01	4736
883.136	4668
883.262	4637
883.388	4611
883.514	4805
883.64	4885
883.766	4812
883.892	4675
884.018	4721
884.143	4919
884.269	5003
884.395	4672
884.52	4599
884.646	4641
884.772	4565
884.897	4607
885.023	4668
885.148	4767
885.274	4881
885.399	4828
885.524	4748
885.65	4694
885.775	4763
885.9	4694
886.025	4896
886.15	4820
886.275	4744
886.4	4740
886.525	4717
886.65	4744
886.775	4717
886.9	4957
887.025	5067
887.149	4881
887.274	4683
887.399	4596
887.523	4637
887.648	4584
887.773	4603
887.897	4759
888.021	4793
888.146	4672
888.27	4839
888.395	4976
888.519	4752
888.643	4831
888.767	4835
888.891	4653
889.015	4645
889.139	4664
889.263	4580
889.387	4797
889.511	4850
889.635	4831
889.759	4637
889.883	4675
890.006	4748
890.13	4847
890.254	4668
890.377	4702
890.501	4584
890.624	4500
890.748	4645
890.871	4508
890.995	4421
891.118	4402
891.241	4535
891.364	4516
891.488	4672
891.611	4516
891.734	4554
891.857	4599
891.98	4603
892.103	4664
892.226	4611
892.349	4546
892.471	4443
892.594	4584
892.717	4607
892.839	4588
892.962	4577
893.085	4630
893.207	4618
893.33	4402
893.452	4554
893.575	4698
893.697	4558
893.819	4774
893.941	4847
894.064	4835
894.186	4603
894.308	4596
894.43	4729
894.552	4881
894.674	4824
894.796	4596
894.918	4637
895.04	4588
895.161	4748
895.283	4679
895.405	4641
895.526	4603
895.648	4725
895.769	4675
895.891	4668
896.012	4752
896.134	4744
896.255	4630
896.376	4645
896.498	4660
896.619	4733
896.74	4611
896.861	4691
896.982	4957
897.103	5064
897.224	4858
897.345	4706
897.466	4683
897.587	4752
897.708	4820
897.828	4774
897.949	4683
898.07	4550
898.19	4637
898.311	4854
898.431	4698
898.552	4763
898.672	4850
898.792	4748
898.913	4759
899.033	4672
899.153	4508
899.273	4489
899.393	4459
899.513	4500
899.633	4527
899.753	4542
899.873	4516
899.993	4626
900.113	4599
900.232	4569
900.352	4519
900.472	4478
900.591	4348
900.711	4523
900.83	4470
900.95	4561
901.069	4706
901.189	4519
901.308	4405
901.427	4337
901.546	4394
901.665	4466
901.784	4504
901.904	4379
902.023	4363
902.141	4234
902.26	4185
902.379	4268
902.498	4360
902.617	4185
902.735	4386
902.854	4383
902.973	4352
903.091	4242
903.21	4238
903.328	4356
903.446	4268
903.565	4295
903.683	4375
903.801	4363
903.919	4436
904.038	4466
904.156	4325
904.274	4459
904.392	4390
904.51	4447
904.627	4478
904.745	4584
904.863	4592
904.981	4440
905.098	4341
905.216	4398
905.334	4447
905.451	4455
905.569	4432
905.686	4535
905.803	4577
905.921	4417
906.038	4561
906.155	4493
906.272	4428
906.389	4462
906.506	4337
906.623	4325
906.74	4394
906.857	4341
906.974	4428
907.091	4584
907.208	4653
907.324	4592
907.441	4519
907.557	4360
907.674	4344
907.79	4337
907.907	4383
908.023	4516
908.139	4493
908.256	4481
908.372	4497
908.488	4447
908.604	4352
908.72	4360
908.836	4367
908.952	4398
909.068	4405
909.184	4618
909.3	4478
909.415	4622
909.531	4554
909.647	4398
909.762	4348
909.878	4356
909.993	4383
910.108	4398
910.224	4428
910.339	4497
910.454	4413
910.57	4360
910.685	4329
910.8	4649
910.915	4603
911.03	4493
911.145	4291
911.259	4341
911.374	4348
911.489	4333
911.604	4284
911.718	4253
911.833	4234
911.947	4063
912.062	4017
912.176	4188
912.291	4249
912.405	4322
912.519	4489
912.633	4546
912.748	4394
912.862	4299
912.976	4196
913.09	4139
913.204	4185
913.318	4257
913.431	4421
913.545	4360
913.659	4424
913.772	4333
913.886	4204
914	4261
914.113	4360
914.226	4443
914.34	4451
914.453	4253
914.566	4447
914.68	4352
914.793	4295
914.906	4169
915.019	4158
915.132	4032
915.245	4207
915.358	4154
915.47	4238
915.583	4257
915.696	4299
915.809	4379
915.921	4413
916.034	4284
916.146	4253
916.259	4268
916.371	4337
916.483	4352
916.595	4329
916.708	4333
916.82	4341
916.932	4363
917.044	4306
917.156	4386
917.268	4299
917.38	4303
917.491	4253
917.603	4390
917.715	4405
917.826	4489
917.938	4341
918.049	4249
918.161	4390
918.272	4531
918.384	4538
918.495	4504
918.606	4310
918.717	4242
918.828	4325
918.939	4352
919.05	4219
919.161	4295
919.272	4090
919.383	4207
919.494	4470
919.604	4634
919.715	4481
919.826	4348
919.936	4363
920.047	4508
920.157	4447
920.267	4755
920.378	4550
920.488	4493
920.598	4733
920.708	4908
920.818	4698
920.928	4733
921.038	4904
921.148	4965
921.258	4603
921.368	4519
921.477	4516
921.587	4447
921.697	4363
921.806	4546
921.916	4390
922.025	4230
922.134	4287
922.244	4204
922.353	4322
922.462	4181
922.571	4090
922.68	3994
922.789	3987
922.898	4048
923.007	4051
923.116	4105
923.224	4086
923.333	4044
923.442	4006
923.55	3991
923.659	4055
923.767	4131
923.876	4025
923.984	4112
924.092	3907
924.201	4090
924.309	4112
924.417	4116
924.525	4067
924.633	4116
924.741	4896
924.849	3926
924.956	4143
925.064	3964
925.172	3873
925.279	3953
925.387	4078
925.494	4013
925.602	4207
925.709	4158
925.816	4044
925.924	4074
926.031	4219
926.138	4150
926.245	4207
926.352	4093
926.459	4276
926.566	4299
926.673	4177
926.779	4093
926.886	4101
926.993	4010
927.099	3953
927.206	3884
927.312	3941
927.419	4032
927.525	4029
927.631	4086
927.737	3945
927.843	3922
927.95	3831
928.056	3953
928.162	3998
928.267	4090
928.373	4584
928.479	4120
928.585	3873
928.69	3998
928.796	4063
928.901	3991
929.007	3842
929.112	4002
929.218	3972
929.323	3918
929.428	3964
929.533	4105
929.638	3915
929.743	3907
929.848	4044
929.953	3956
930.058	3926
930.163	3800
930.267	3827
930.372	3945
930.477	3827
930.581	4082
930.685	3922
930.79	3835
930.894	3907
930.998	3838
931.103	4036
931.207	3732
931.311	3717
931.415	3652
931.519	3504
931.623	3526
