Data from test_V78500241_2311.txt Node
Date: Fri Mar 25 17:05:04 CST 2022
User: usil
Spectrometer: V785-0024
Trigger mode: 0
Integration Time (sec): 4.000000E-1
Scans to average: 1
Nonlinearity correction enabled: false
Boxcar width: 0
Storing dark spectrum: false
XAxis mode: Wavelengths
Number of Pixels in Spectrum: 1024
>>>>>Begin Spectral Data<<<<<
801.071	8050
801.214	8100
801.356	7898
801.499	7951
801.641	7883
801.783	7860
801.926	8012
802.068	8046
802.211	8020
802.353	8012
802.496	7982
802.638	7940
802.78	7974
802.923	7974
803.065	7940
803.208	7814
803.35	8096
803.492	8077
803.635	8157
803.777	8065
803.919	8130
804.061	8514
804.204	8214
804.346	8126
804.488	7986
804.63	8088
804.773	8043
804.915	8119
805.057	8377
805.199	8168
805.341	8294
805.483	8237
805.626	8240
805.768	8191
805.91	8256
806.052	8263
806.194	8172
806.336	8328
806.478	8130
806.62	8119
806.762	8267
806.904	8393
807.046	8465
807.188	8434
807.33	8320
807.472	8366
807.614	8191
807.756	8142
807.898	8084
808.04	7963
808.182	7906
808.324	7928
808.465	8012
808.607	8119
808.749	8161
808.891	8317
809.033	8332
809.174	8252
809.316	8138
809.458	8161
809.6	8062
809.741	8138
809.883	8081
810.025	8103
810.166	8123
810.308	8020
810.45	8020
810.591	7909
810.733	7704
810.875	7685
811.016	7521
811.158	7495
811.299	7632
811.441	7757
811.582	7704
811.724	7639
811.865	7594
812.007	7662
812.148	7670
812.29	7693
812.431	7719
812.573	7906
812.714	8062
812.855	8206
812.997	8195
813.138	8237
813.279	8176
813.421	8092
813.562	7959
813.703	7830
813.845	7784
813.986	7403
814.127	7324
814.268	7305
814.41	7202
814.551	7225
814.692	7228
814.833	7129
814.974	7080
815.115	7091
815.256	6958
815.397	6962
815.539	6989
815.68	6894
815.821	6783
815.962	6939
816.103	6848
816.244	6703
816.385	6669
816.526	6669
816.666	6490
816.807	6361
816.948	6471
817.089	6555
817.23	6479
817.371	6467
817.512	6410
817.653	6384
817.793	6414
817.934	6426
818.075	6490
818.216	6448
818.356	6483
818.497	6262
818.638	6106
818.778	6163
818.919	6171
819.06	6186
819.2	6399
819.341	6350
819.481	6372
819.622	6517
819.762	6760
819.903	6734
820.043	6738
820.184	6582
820.324	6662
820.465	6741
820.605	6707
820.746	6700
820.886	6589
821.026	6684
821.167	6791
821.307	6848
821.447	6798
821.588	6662
821.728	6555
821.868	6528
822.008	6353
822.149	6376
822.289	6372
822.429	6155
822.569	6152
822.709	6125
822.849	5984
822.99	5980
823.13	5950
823.27	5961
823.41	5844
823.55	5813
823.69	5824
823.83	5802
823.97	5695
824.11	5539
824.25	5532
824.389	5623
824.529	5653
824.669	5581
824.809	5638
824.949	5703
825.089	5596
825.228	5600
825.368	5425
825.508	5398
825.648	5387
825.787	5387
825.927	5429
826.067	5280
826.206	5330
826.346	5353
826.485	5376
826.625	5425
826.765	5600
826.904	5509
827.044	5315
827.183	5239
827.323	5151
827.462	5277
827.601	5193
827.741	5212
827.88	5231
828.02	5136
828.159	5299
828.298	5322
828.437	5345
828.577	5299
828.716	5478
828.855	5368
828.994	5220
829.134	5170
829.273	5178
829.412	5181
829.551	5140
829.69	5166
829.829	5258
829.968	5433
830.107	5334
830.246	5284
830.385	5235
830.524	5181
830.663	5079
830.802	5037
830.941	4927
831.08	4866
831.219	4980
831.357	5006
831.496	5254
831.635	4934
831.774	4873
831.913	4892
832.051	4702
832.19	4797
832.329	4885
832.467	4706
832.606	4664
832.744	4763
832.883	4744
833.022	4771
833.16	4850
833.299	4889
833.437	4839
833.576	4892
833.714	4866
833.852	4904
833.991	4911
834.129	5003
834.267	5014
834.406	4965
834.544	4991
834.682	4976
834.821	4976
834.959	5193
835.097	4991
835.235	5235
835.373	5067
835.511	5098
835.65	5060
835.788	5037
835.926	4953
836.064	4881
836.202	4968
836.34	5181
836.478	5254
836.615	5124
836.753	5220
836.891	5288
837.029	5288
837.167	5178
837.305	5143
837.443	5159
837.58	5102
837.718	5315
837.856	5197
837.993	5140
838.131	5269
838.269	5185
838.406	5174
838.544	5193
838.681	5064
838.819	4980
838.956	4942
839.094	4984
839.231	5010
839.369	5098
839.506	5444
839.643	5254
839.781	5143
839.918	5029
840.055	5151
840.193	5151
840.33	5090
840.467	5166
840.604	5261
840.742	5459
840.879	5155
841.016	5147
841.153	5197
841.29	5360
841.427	5402
841.564	5330
841.701	5376
841.838	5357
841.975	5242
842.112	5296
842.249	5185
842.385	5136
842.522	5322
842.659	5216
842.796	5185
842.933	5223
843.069	5178
843.206	5201
843.343	5307
843.479	5303
843.616	5292
843.752	5033
843.889	5025
844.025	5231
844.162	5014
844.298	5227
844.435	5102
844.571	5083
844.708	5231
844.844	5311
844.98	5318
845.117	5269
845.253	5140
845.389	5121
845.525	5140
845.661	5151
845.798	5052
845.934	5155
846.07	5037
846.206	5235
846.342	5280
846.478	5189
846.614	5025
846.75	5037
846.886	4987
847.022	5151
847.158	5075
847.294	5094
847.429	5147
847.565	5086
847.701	5299
847.837	4870
847.972	4831
848.108	4949
848.244	4942
848.379	4805
848.515	4759
848.65	4736
848.786	4763
848.921	4801
849.057	4870
849.192	4911
849.328	4881
849.463	4820
849.598	4793
849.734	4831
849.869	4691
850.004	4653
850.14	4672
850.275	4660
850.41	4527
850.545	4577
850.68	4653
850.815	4641
850.95	4656
851.085	4824
851.22	4755
851.355	4706
851.49	4626
851.625	4660
851.76	4664
851.895	4588
852.03	4573
852.165	4675
852.299	4744
852.434	4774
852.569	4740
852.703	4790
852.838	4839
852.973	4919
853.107	4946
853.242	4771
853.376	4675
853.511	4580
853.645	4653
853.78	4843
853.914	4683
854.048	4706
854.183	4683
854.317	4725
854.451	4862
854.585	4698
854.72	4630
854.854	4755
854.988	4626
855.122	4660
855.256	4558
855.39	4702
855.524	4790
855.658	4675
855.792	4740
855.926	4759
856.06	4771
856.194	4816
856.327	4698
856.461	4634
856.595	4588
856.729	4622
856.862	4752
856.996	4706
857.13	4755
857.263	4801
857.397	4820
857.53	4637
857.664	4733
857.797	4793
857.931	4736
858.064	4698
858.197	4759
858.331	4691
858.464	4618
858.597	4561
858.731	4622
858.864	4637
858.997	4588
859.13	4691
859.263	4710
859.396	4683
859.529	4588
859.662	4558
859.795	4535
859.928	4630
860.061	4809
860.194	4733
860.327	4599
860.46	4599
860.592	4668
860.725	4729
860.858	4694
860.99	4573
861.123	4558
861.256	4500
861.388	4630
861.521	5231
861.653	4474
861.786	4474
861.918	4474
862.05	4489
862.183	4546
862.315	4584
862.447	4675
862.58	4550
862.712	4394
862.844	4341
862.976	4500
863.108	4451
863.24	4923
863.372	4310
863.504	4447
863.636	4386
863.768	4504
863.9	4432
864.032	4348
864.164	4409
864.296	4527
864.428	4596
864.559	4645
864.691	4584
864.823	4535
864.954	4512
865.086	4497
865.217	4504
865.349	4455
865.48	4474
865.612	4481
865.743	4630
865.875	4519
866.006	4459
866.137	4512
866.269	4481
866.4	4462
866.531	4459
866.662	4417
866.793	4447
866.924	4409
867.055	4485
867.186	4481
867.317	4462
867.448	4352
867.579	4367
867.71	4386
867.841	4375
867.972	4489
868.103	4470
868.233	4485
868.364	4443
868.495	4516
868.625	4717
868.756	4744
868.886	4550
869.017	4634
869.147	4717
869.278	4771
869.408	4675
869.539	4592
869.669	4752
869.799	4683
869.929	4763
870.06	4748
870.19	4980
870.32	4946
870.45	4946
870.58	5018
870.71	5102
870.84	5109
870.97	4942
871.1	4881
871.23	5128
871.36	5140
871.489	5025
871.619	5067
871.749	5090
871.879	5094
872.008	5151
872.138	5003
872.267	4995
872.397	4858
872.526	4797
872.656	4748
872.785	4839
872.915	4961
873.044	5064
873.173	4946
873.303	4961
873.432	4995
873.561	4984
873.69	4919
873.819	4908
873.948	4919
874.077	4870
874.206	4778
874.335	4786
874.464	4889
874.593	5003
874.722	4984
874.851	5090
874.979	5086
875.108	5014
875.237	4892
875.365	4900
875.494	4896
875.623	4980
875.751	4809
875.88	4896
876.008	4980
876.136	5033
876.265	5265
876.393	5337
876.521	5231
876.65	5208
876.778	5166
876.906	5140
877.034	4995
877.162	5048
877.29	5033
877.418	5056
877.546	5056
877.674	5083
877.802	5018
877.93	5060
878.058	4942
878.185	4892
878.313	4938
878.441	5014
878.568	4801
878.696	4896
878.824	5052
878.951	5003
879.079	5147
879.206	5273
879.333	5102
879.461	4980
879.588	4984
879.715	5143
879.842	5189
879.97	5086
880.097	4774
880.224	4736
880.351	4843
880.478	4816
880.605	4824
880.732	4824
880.859	5037
880.986	4961
881.112	4923
881.239	4767
881.366	4660
881.493	4561
881.619	4637
881.746	4675
881.872	4645
881.999	4675
882.125	4698
882.252	4828
882.378	4793
882.505	4972
882.631	4748
882.757	4725
882.883	4725
883.01	4748
883.136	4714
883.262	4599
883.388	4622
883.514	4767
883.64	4885
883.766	4755
883.892	4698
884.018	4672
884.143	4900
884.269	5010
884.395	4714
884.52	4634
884.646	4687
884.772	4554
884.897	4561
885.023	4618
885.148	4774
885.274	4862
885.399	4790
885.524	4717
885.65	4710
885.775	4748
885.9	4710
886.025	4847
886.15	4797
886.275	4706
886.4	4679
886.525	4733
886.65	4649
886.775	4725
886.9	4930
887.025	5052
887.149	4843
887.274	4660
887.399	4542
887.523	4649
887.648	4561
887.773	4573
887.897	4736
888.021	4793
888.146	4672
888.27	4862
888.395	4911
888.519	4755
888.643	4812
888.767	4835
888.891	4694
889.015	4615
889.139	4649
889.263	4569
889.387	4706
889.511	4873
889.635	4816
889.759	4641
889.883	4634
890.006	4733
890.13	4778
890.254	4599
890.377	4729
890.501	4531
890.624	4523
890.748	4653
890.871	4478
890.995	4447
891.118	4402
891.241	4546
891.364	4535
891.488	4675
891.611	4459
891.734	4519
891.857	4599
891.98	4561
892.103	4641
892.226	4558
892.349	4519
892.471	4455
892.594	4550
892.717	4565
892.839	4558
892.962	4577
893.085	4717
893.207	4634
893.33	4497
893.452	4508
893.575	4698
893.697	4580
893.819	4763
893.941	4793
894.064	4752
894.186	4558
894.308	4538
894.43	4740
894.552	4866
894.674	4683
894.796	4561
894.918	4615
895.04	4531
895.161	4710
895.283	4634
895.405	4577
895.526	4596
895.648	4702
895.769	4725
895.891	4672
896.012	4694
896.134	4694
896.255	4641
896.376	4615
896.498	4592
896.619	4634
896.74	4588
896.861	4641
896.982	4938
897.103	5033
897.224	4839
897.345	4771
897.466	4653
897.587	4721
897.708	4881
897.828	4782
897.949	4630
898.07	4538
898.19	4649
898.311	4828
898.431	4675
898.552	4748
898.672	4858
898.792	4793
898.913	4721
899.033	4641
899.153	4478
899.273	4421
899.393	4497
899.513	4485
899.633	4512
899.753	4523
899.873	4554
899.993	4592
900.113	4550
900.232	4615
900.352	4550
900.472	4516
900.591	4424
900.711	4504
900.83	4500
900.95	4588
901.069	4672
901.189	4538
901.308	4341
901.427	4333
901.546	4325
901.665	4424
901.784	4527
901.904	4394
902.023	4276
902.141	4242
902.26	4173
902.379	4291
902.498	4242
902.617	4196
902.735	4367
902.854	4413
902.973	4383
903.091	4238
903.21	4188
903.328	4299
903.446	4284
903.565	4230
903.683	4322
903.801	4299
903.919	4383
904.038	4432
904.156	4341
904.274	4497
904.392	4386
904.51	4424
904.627	4432
904.745	4538
904.863	4634
904.981	4440
905.098	4295
905.216	4375
905.334	4424
905.451	4428
905.569	4417
905.686	4542
905.803	4641
905.921	4413
906.038	4573
906.155	4485
906.272	4417
906.389	4478
906.506	4405
906.623	4375
906.74	4394
906.857	4280
906.974	4371
907.091	4596
907.208	4656
907.324	4531
907.441	4470
907.557	4356
907.674	4348
907.79	4333
907.907	4379
908.023	4485
908.139	4428
908.256	4432
908.372	4481
908.488	4474
908.604	4371
908.72	4352
908.836	4367
908.952	4356
909.068	4405
909.184	4523
909.3	4478
909.415	4596
909.531	4531
909.647	4329
909.762	4348
909.878	4356
909.993	4421
910.108	4398
910.224	4455
910.339	4440
910.454	4402
910.57	4352
910.685	4291
910.8	4694
910.915	4607
911.03	4459
911.145	4322
911.259	4367
911.374	4337
911.489	4287
911.604	4246
911.718	4128
911.833	4200
911.947	4048
912.062	4059
912.176	4234
912.291	4238
912.405	4257
912.519	4478
912.633	4489
912.748	4390
912.862	4360
912.976	4177
913.09	4082
913.204	4162
913.318	4200
913.431	4413
913.545	4402
913.659	4432
913.772	4360
913.886	4219
914	4246
914.113	4333
914.226	4409
914.34	4337
914.453	4249
914.566	4478
914.68	4287
914.793	4337
914.906	4158
915.019	4101
915.132	4105
915.245	4154
915.358	4219
915.47	4257
915.583	4280
915.696	4246
915.809	4417
915.921	4436
916.034	4227
916.146	4238
916.259	4234
916.371	4383
916.483	4352
916.595	4268
916.708	4341
916.82	4325
916.932	4337
917.044	4325
917.156	4333
917.268	4207
917.38	4306
917.491	4253
917.603	4276
917.715	4443
917.826	4428
917.938	4322
918.049	4234
918.161	4428
918.272	4561
918.384	4607
918.495	4405
918.606	4310
918.717	4207
918.828	4291
918.939	4344
919.05	4249
919.161	4287
919.272	4128
919.383	4192
919.494	4390
919.604	4649
919.715	4417
919.826	4375
919.936	4375
920.047	4493
920.157	4470
920.267	4694
920.378	4527
920.488	4519
920.598	4717
920.708	4847
920.818	4748
920.928	4744
921.038	4927
921.148	4839
921.258	4603
921.368	4535
921.477	4455
921.587	4459
921.697	4398
921.806	4577
921.916	4432
922.025	4246
922.134	4268
922.244	4211
922.353	4310
922.462	4200
922.571	4131
922.68	4021
922.789	3964
922.898	4025
923.007	4006
923.116	4101
923.224	4040
923.333	4059
923.442	3979
923.55	3964
923.659	4040
923.767	4105
923.876	3972
923.984	4112
924.092	3949
924.201	4029
924.309	4093
924.417	4116
924.525	4044
924.633	4093
924.741	5014
924.849	3941
924.956	4086
925.064	3934
925.172	3911
925.279	3960
925.387	4044
925.494	4071
925.602	4200
925.709	4196
925.816	4002
925.924	4124
926.031	4249
926.138	4162
926.245	4162
926.352	4071
926.459	4272
926.566	4299
926.673	4143
926.779	4048
926.886	4074
926.993	3975
927.099	3926
927.206	3926
927.312	3930
927.419	4055
927.525	4029
927.631	4067
927.737	3972
927.843	3979
927.95	3873
928.056	3918
928.162	4006
928.267	4032
928.373	4687
928.479	4067
928.585	3911
928.69	3991
928.796	4097
928.901	4006
929.007	3854
929.112	3941
929.218	3956
929.323	3918
929.428	3949
929.533	4105
929.638	3869
929.743	3934
929.848	4048
929.953	3964
930.058	3937
930.163	3755
930.267	3812
930.372	3956
930.477	3755
930.581	4082
930.685	3953
930.79	3827
930.894	3903
930.998	3827
931.103	4082
931.207	3724
931.311	3667
931.415	3660
931.519	3519
931.623	3500
