Data from test_V78500241_252.txt Node
Date: Fri Mar 25 16:50:45 CST 2022
User: usil
Spectrometer: V785-0024
Trigger mode: 0
Integration Time (sec): 4.000000E-1
Scans to average: 1
Nonlinearity correction enabled: false
Boxcar width: 0
Storing dark spectrum: false
XAxis mode: Wavelengths
Number of Pixels in Spectrum: 1024
>>>>>Begin Spectral Data<<<<<
801.071	8130
801.214	7978
801.356	7879
801.499	7887
801.641	7784
801.783	7818
801.926	8020
802.068	7978
802.211	8031
802.353	8065
802.496	7852
802.638	7944
802.78	7986
802.923	7978
803.065	7845
803.208	7799
803.35	7982
803.492	8084
803.635	8100
803.777	8005
803.919	8168
804.061	8442
804.204	8096
804.346	8130
804.488	7989
804.63	8164
804.773	7959
804.915	8100
805.057	8252
805.199	8161
805.341	8199
805.483	8218
805.626	8180
805.768	8039
805.91	8183
806.052	8229
806.194	8149
806.336	8309
806.478	8130
806.62	8092
806.762	8065
806.904	8214
807.046	8492
807.188	8351
807.33	8343
807.472	8328
807.614	8259
807.756	8119
807.898	7989
808.04	7913
808.182	7944
808.324	7887
808.465	7936
808.607	8054
808.749	8130
808.891	8225
809.033	8332
809.174	8195
809.316	8062
809.458	8111
809.6	7982
809.741	7989
809.883	8062
810.025	8073
810.166	8039
810.308	8008
810.45	8016
810.591	7849
810.733	7750
810.875	7727
811.016	7476
811.158	7457
811.299	7643
811.441	7772
811.582	7689
811.724	7578
811.865	7514
812.007	7670
812.148	7647
812.29	7666
812.431	7792
812.573	7951
812.714	7967
812.855	8187
812.997	8214
813.138	8263
813.279	8214
813.421	8142
813.562	8001
813.703	7856
813.845	7761
813.986	7411
814.127	7247
814.268	7206
814.41	7194
814.551	7175
814.692	7198
814.833	7110
814.974	7114
815.115	7069
815.256	6894
815.397	6939
815.539	6932
815.68	6810
815.821	6810
815.962	6890
816.103	6806
816.244	6681
816.385	6623
816.526	6620
816.666	6551
816.807	6308
816.948	6391
817.089	6460
817.23	6452
817.371	6418
817.512	6384
817.653	6391
817.793	6342
817.934	6399
818.075	6426
818.216	6388
818.356	6441
818.497	6289
818.638	6110
818.778	6152
818.919	6114
819.06	6159
819.2	6273
819.341	6353
819.481	6376
819.622	6456
819.762	6677
819.903	6654
820.043	6574
820.184	6559
820.324	6597
820.465	6665
820.605	6612
820.746	6597
820.886	6517
821.026	6639
821.167	6650
821.307	6802
821.447	6738
821.588	6673
821.728	6563
821.868	6528
822.008	6311
822.149	6388
822.289	6289
822.429	6182
822.569	6095
822.709	6163
822.849	5923
822.99	5916
823.13	5897
823.27	5946
823.41	5813
823.55	5790
823.69	5790
823.83	5745
823.97	5691
824.11	5558
824.25	5562
824.389	5562
824.529	5630
824.669	5547
824.809	5634
824.949	5688
825.089	5619
825.228	5604
825.368	5410
825.508	5322
825.648	5334
825.787	5391
825.927	5414
826.067	5277
826.206	5326
826.346	5364
826.485	5425
826.625	5429
826.765	5570
826.904	5493
827.044	5292
827.183	5239
827.323	5197
827.462	5197
827.601	5185
827.741	5189
827.88	5258
828.02	5071
828.159	5235
828.298	5269
828.437	5353
828.577	5292
828.716	5493
828.855	5292
828.994	5208
829.134	5197
829.273	5231
829.412	5140
829.551	5166
829.69	5204
829.829	5280
829.968	5383
830.107	5322
830.246	5288
830.385	5216
830.524	5166
830.663	5067
830.802	4980
830.941	4870
831.08	4885
831.219	4972
831.357	4968
831.496	5181
831.635	4968
831.774	4850
831.913	4870
832.051	4752
832.19	4740
832.329	4790
832.467	4698
832.606	4664
832.744	4748
832.883	4733
833.022	4694
833.16	4820
833.299	4858
833.437	4820
833.576	4873
833.714	4805
833.852	4896
833.991	4885
834.129	4961
834.267	5022
834.406	4934
834.544	4957
834.682	5018
834.821	4965
834.959	5216
835.097	4949
835.235	5151
835.373	5071
835.511	5143
835.65	5079
835.788	5048
835.926	4877
836.064	4915
836.202	4900
836.34	5212
836.478	5250
836.615	5132
836.753	5231
836.891	5318
837.029	5239
837.167	5204
837.305	5147
837.443	5197
837.58	5079
837.718	5235
837.856	5201
837.993	5181
838.131	5341
838.269	5231
838.406	5208
838.544	5212
838.681	5079
838.819	4980
838.956	4877
839.094	4930
839.231	5025
839.369	5052
839.506	5402
839.643	5254
839.781	5086
839.918	4999
840.055	5113
840.193	5041
840.33	5071
840.467	5132
840.604	5147
840.742	5406
840.879	5136
841.016	5132
841.153	5174
841.29	5402
841.427	5349
841.564	5299
841.701	5334
841.838	5299
841.975	5273
842.112	5227
842.249	5166
842.385	5132
842.522	5376
842.659	5178
842.796	5185
842.933	5223
843.069	5174
843.206	5121
843.343	5311
843.479	5223
843.616	5303
843.752	5041
843.889	5037
844.025	5185
844.162	5018
844.298	5223
844.435	5094
844.571	5056
844.708	5185
844.844	5337
844.98	5398
845.117	5280
845.253	5185
845.389	5052
845.525	5193
845.661	5136
845.798	4995
845.934	5151
846.07	5075
846.206	5204
846.342	5235
846.478	5159
846.614	5033
846.75	4995
846.886	4904
847.022	5124
847.158	4984
847.294	5086
847.429	5143
847.565	5067
847.701	5349
847.837	4835
847.972	4801
848.108	4980
848.244	4938
848.379	4801
848.515	4733
848.65	4687
848.786	4714
848.921	4786
849.057	4873
849.192	4965
849.328	4752
849.463	4873
849.598	4763
849.734	4752
849.869	4634
850.004	4637
850.14	4641
850.275	4622
850.41	4580
850.545	4508
850.68	4653
850.815	4645
850.95	4611
851.085	4858
851.22	4694
851.355	4721
851.49	4603
851.625	4683
851.76	4596
851.895	4592
852.03	4573
852.165	4611
852.299	4740
852.434	4835
852.569	4729
852.703	4801
852.838	4828
852.973	4911
853.107	4968
853.242	4778
853.376	4683
853.511	4573
853.645	4672
853.78	4797
853.914	4664
854.048	4660
854.183	4694
854.317	4660
854.451	4858
854.585	4656
854.72	4611
854.854	4790
854.988	4596
855.122	4656
855.256	4538
855.39	4626
855.524	4824
855.658	4702
855.792	4717
855.926	4717
856.06	4767
856.194	4790
856.327	4649
856.461	4615
856.595	4634
856.729	4649
856.862	4797
856.996	4714
857.13	4736
857.263	4809
857.397	4809
857.53	4645
857.664	4752
857.797	4736
857.931	4790
858.064	4691
858.197	4725
858.331	4653
858.464	4592
858.597	4504
858.731	4618
858.864	4645
858.997	4622
859.13	4649
859.263	4649
859.396	4755
859.529	4607
859.662	4561
859.795	4531
859.928	4626
860.061	4755
860.194	4752
860.327	4577
860.46	4622
860.592	4691
860.725	4748
860.858	4752
860.99	4554
861.123	4527
861.256	4531
861.388	4630
861.521	5440
861.653	4519
861.786	4485
861.918	4470
862.05	4527
862.183	4554
862.315	4603
862.447	4660
862.58	4550
862.712	4371
862.844	4360
862.976	4481
863.108	4481
863.24	4911
863.372	4337
863.504	4432
863.636	4394
863.768	4485
863.9	4489
864.032	4363
864.164	4424
864.296	4478
864.428	4565
864.559	4588
864.691	4546
864.823	4538
864.954	4481
865.086	4523
865.217	4405
865.349	4447
865.48	4462
865.612	4478
865.743	4615
865.875	4466
866.006	4428
866.137	4489
866.269	4466
866.4	4455
866.531	4459
866.662	4409
866.793	4424
866.924	4405
867.055	4497
867.186	4508
867.317	4451
867.448	4379
867.579	4394
867.71	4360
867.841	4360
867.972	4455
868.103	4443
868.233	4440
868.364	4462
868.495	4500
868.625	4675
868.756	4763
868.886	4542
869.017	4569
869.147	4740
869.278	4763
869.408	4664
869.539	4698
869.669	4725
869.799	4626
869.929	4752
870.06	4729
870.19	4965
870.32	4949
870.45	4984
870.58	5003
870.71	5086
870.84	5083
870.97	4965
871.1	4889
871.23	5083
871.36	5128
871.489	5010
871.619	5014
871.749	5105
871.879	5128
872.008	5185
872.138	5109
872.267	4961
872.397	4889
872.526	4820
872.656	4748
872.785	4854
872.915	4949
873.044	5083
873.173	4915
873.303	4942
873.432	4934
873.561	4919
873.69	4870
873.819	4873
873.948	4911
874.077	4870
874.206	4797
874.335	4847
874.464	4904
874.593	5067
874.722	4965
874.851	5090
874.979	5029
875.108	5029
875.237	4942
875.365	4847
875.494	4877
875.623	4968
875.751	4816
875.88	4858
876.008	4953
876.136	5018
876.265	5254
876.393	5364
876.521	5292
876.65	5220
876.778	5174
876.906	5010
877.034	5029
877.162	5067
877.29	4942
877.418	5056
877.546	5037
877.674	5071
877.802	4987
877.93	5033
878.058	4923
878.185	4873
878.313	4984
878.441	4938
878.568	4771
878.696	4847
878.824	5003
878.951	4980
879.079	5113
879.206	5273
879.333	5098
879.461	4980
879.588	4999
879.715	5132
879.842	5235
879.97	5060
880.097	4790
880.224	4778
880.351	4790
880.478	4831
880.605	4854
880.732	4793
880.859	5090
880.986	4839
881.112	4896
881.239	4816
881.366	4683
881.493	4554
881.619	4569
881.746	4592
881.872	4645
881.999	4611
882.125	4683
882.252	4835
882.378	4801
882.505	4984
882.631	4858
882.757	4714
882.883	4710
883.01	4733
883.136	4664
883.262	4603
883.388	4626
883.514	4828
883.64	4858
883.766	4771
883.892	4675
884.018	4691
884.143	4885
884.269	5010
884.395	4694
884.52	4603
884.646	4668
884.772	4611
884.897	4584
885.023	4656
885.148	4786
885.274	4858
885.399	4873
885.524	4748
885.65	4694
885.775	4771
885.9	4706
886.025	4885
886.15	4831
886.275	4790
886.4	4683
886.525	4748
886.65	4717
886.775	4721
886.9	4968
887.025	5041
887.149	4797
887.274	4645
887.399	4592
887.523	4603
887.648	4599
887.773	4577
887.897	4786
888.021	4809
888.146	4755
888.27	4786
888.395	4919
888.519	4740
888.643	4866
888.767	4831
888.891	4706
889.015	4588
889.139	4660
889.263	4672
889.387	4752
889.511	4873
889.635	4790
889.759	4653
889.883	4645
890.006	4752
890.13	4858
890.254	4626
890.377	4679
890.501	4584
890.624	4565
890.748	4630
890.871	4500
890.995	4451
891.118	4413
891.241	4516
891.364	4584
891.488	4607
891.611	4516
891.734	4516
891.857	4607
891.98	4538
892.103	4603
892.226	4622
892.349	4561
892.471	4474
892.594	4561
892.717	4615
892.839	4573
892.962	4565
893.085	4653
893.207	4599
893.33	4462
893.452	4546
893.575	4668
893.697	4596
893.819	4816
893.941	4820
894.064	4816
894.186	4637
894.308	4592
894.43	4740
894.552	4820
894.674	4797
894.796	4615
894.918	4512
895.04	4565
895.161	4668
895.283	4694
895.405	4554
895.526	4603
895.648	4725
895.769	4679
895.891	4683
896.012	4740
896.134	4694
896.255	4691
896.376	4603
896.498	4683
896.619	4687
896.74	4618
896.861	4649
896.982	4965
897.103	5090
897.224	4862
897.345	4729
897.466	4660
897.587	4733
897.708	4862
897.828	4801
897.949	4611
898.07	4535
898.19	4645
898.311	4820
898.431	4717
898.552	4729
898.672	4820
898.792	4767
898.913	4744
899.033	4637
899.153	4500
899.273	4447
899.393	4508
899.513	4523
899.633	4538
899.753	4588
899.873	4478
899.993	4599
900.113	4569
900.232	4626
900.352	4558
900.472	4500
900.591	4386
900.711	4485
900.83	4466
900.95	4630
901.069	4645
901.189	4535
901.308	4360
901.427	4310
901.546	4421
901.665	4489
901.784	4470
901.904	4432
902.023	4356
902.141	4192
902.26	4200
902.379	4291
902.498	4257
902.617	4238
902.735	4375
902.854	4421
902.973	4325
903.091	4207
903.21	4200
903.328	4310
903.446	4272
903.565	4287
903.683	4394
903.801	4318
903.919	4413
904.038	4432
904.156	4333
904.274	4436
904.392	4394
904.51	4455
904.627	4508
904.745	4569
904.863	4615
904.981	4413
905.098	4303
905.216	4398
905.334	4447
905.451	4402
905.569	4421
905.686	4596
905.803	4561
905.921	4417
906.038	4569
906.155	4474
906.272	4363
906.389	4489
906.506	4363
906.623	4402
906.74	4402
906.857	4341
906.974	4367
907.091	4599
907.208	4702
907.324	4577
907.441	4504
907.557	4352
907.674	4348
907.79	4318
907.907	4394
908.023	4519
908.139	4466
908.256	4497
908.372	4497
908.488	4413
908.604	4371
908.72	4299
908.836	4360
908.952	4363
909.068	4432
909.184	4584
909.3	4489
909.415	4588
909.531	4497
909.647	4356
909.762	4383
909.878	4352
909.993	4493
910.108	4447
910.224	4447
910.339	4512
910.454	4394
910.57	4356
910.685	4291
910.8	4664
910.915	4611
911.03	4527
911.145	4341
911.259	4383
911.374	4386
911.489	4303
911.604	4314
911.718	4177
911.833	4215
911.947	4147
912.062	4059
912.176	4230
912.291	4295
912.405	4268
912.519	4451
912.633	4538
912.748	4402
912.862	4303
912.976	4173
913.09	4131
913.204	4200
913.318	4238
913.431	4371
913.545	4451
913.659	4402
913.772	4352
913.886	4211
914	4219
914.113	4375
914.226	4383
914.34	4363
914.453	4257
914.566	4409
914.68	4299
914.793	4303
914.906	4188
915.019	4135
915.132	4067
915.245	4150
915.358	4185
915.47	4242
915.583	4223
915.696	4284
915.809	4440
915.921	4451
916.034	4287
916.146	4227
916.259	4215
916.371	4379
916.483	4318
916.595	4314
916.708	4344
916.82	4299
916.932	4348
917.044	4329
917.156	4287
917.268	4249
917.38	4265
917.491	4284
917.603	4341
917.715	4409
917.826	4462
917.938	4367
918.049	4246
918.161	4398
918.272	4569
918.384	4538
918.495	4512
918.606	4276
918.717	4299
918.828	4341
918.939	4363
919.05	4337
919.161	4325
919.272	4158
919.383	4227
919.494	4436
919.604	4649
919.715	4402
919.826	4371
919.936	4417
920.047	4535
920.157	4561
920.267	4725
920.378	4554
920.488	4512
920.598	4721
920.708	4892
920.818	4759
920.928	4809
921.038	4957
921.148	4949
921.258	4637
921.368	4573
921.477	4478
921.587	4493
921.697	4383
921.806	4512
921.916	4417
922.025	4265
922.134	4268
922.244	4230
922.353	4322
922.462	4181
922.571	4139
922.68	3987
922.789	3991
922.898	4067
923.007	3941
923.116	4105
923.224	4078
923.333	4078
923.442	4017
923.55	4002
923.659	4013
923.767	4116
923.876	4025
923.984	4101
924.092	4029
924.201	4101
924.309	4128
924.417	4131
924.525	4055
924.633	4173
924.741	5064
924.849	3960
924.956	4116
925.064	3960
925.172	3907
925.279	3956
925.387	4021
925.494	4097
925.602	4238
925.709	4219
925.816	4067
925.924	4185
926.031	4253
926.138	4192
926.245	4196
926.352	4105
926.459	4265
926.566	4329
926.673	4169
926.779	4105
926.886	4112
926.993	4010
927.099	4002
927.206	3960
927.312	3937
927.419	4055
927.525	4002
927.631	4063
927.737	3975
927.843	3937
927.95	3838
928.056	3945
928.162	3994
928.267	4071
928.373	4561
928.479	4120
928.585	3850
928.69	4055
928.796	4071
928.901	4002
929.007	3827
929.112	4017
929.218	4013
929.323	3937
929.428	3937
929.533	4086
929.638	3892
929.743	4002
929.848	4048
929.953	4017
930.058	3926
930.163	3812
930.267	3850
930.372	3926
930.477	3831
930.581	4112
930.685	3960
930.79	3831
930.894	3880
930.998	3907
931.103	4063
931.207	3728
931.311	3701
931.415	3694
931.519	3576
931.623	3572
