Data from test_V78500241_1213.txt Node
Date: Fri Mar 25 16:57:26 CST 2022
User: usil
Spectrometer: V785-0024
Trigger mode: 0
Integration Time (sec): 4.000000E-1
Scans to average: 1
Nonlinearity correction enabled: false
Boxcar width: 0
Storing dark spectrum: false
XAxis mode: Wavelengths
Number of Pixels in Spectrum: 1024
>>>>>Begin Spectral Data<<<<<
801.071	8046
801.214	8024
801.356	7898
801.499	7841
801.641	7731
801.783	7757
801.926	7928
802.068	7868
802.211	7955
802.353	7974
802.496	7868
802.638	7769
802.78	7944
802.923	7955
803.065	7875
803.208	7860
803.35	7947
803.492	8039
803.635	8138
803.777	8027
803.919	8149
804.061	8450
804.204	8134
804.346	8088
804.488	7947
804.63	8081
804.773	8065
804.915	8046
805.057	8290
805.199	8149
805.341	8221
805.483	8240
805.626	8157
805.768	8100
805.91	8229
806.052	8199
806.194	8073
806.336	8294
806.478	8145
806.62	8020
806.762	8145
806.904	8282
807.046	8518
807.188	8282
807.33	8279
807.472	8225
807.614	8096
807.756	8103
807.898	7974
808.04	7898
808.182	7864
808.324	7967
808.465	7887
808.607	8062
808.749	8130
808.891	8164
809.033	8259
809.174	8065
809.316	8092
809.458	8046
809.6	8020
809.741	8016
809.883	8058
810.025	8005
810.166	8020
810.308	8035
810.45	8027
810.591	7883
810.733	7658
810.875	7643
811.016	7514
811.158	7502
811.299	7575
811.441	7742
811.582	7647
811.724	7578
811.865	7533
812.007	7556
812.148	7586
812.29	7605
812.431	7685
812.573	7792
812.714	7982
812.855	8043
812.997	8111
813.138	8275
813.279	8240
813.421	8115
813.562	8008
813.703	7917
813.845	7742
813.986	7457
814.127	7217
814.268	7251
814.41	7145
814.551	7152
814.692	7137
814.833	7050
814.974	7091
815.115	7061
815.256	6989
815.397	6947
815.539	6935
815.68	6844
815.821	6772
815.962	6863
816.103	6795
816.244	6684
816.385	6608
816.526	6646
816.666	6486
816.807	6350
816.948	6445
817.089	6467
817.23	6464
817.371	6407
817.512	6372
817.653	6380
817.793	6350
817.934	6372
818.075	6422
818.216	6464
818.356	6353
818.497	6205
818.638	6079
818.778	6144
818.919	6098
819.06	6155
819.2	6334
819.341	6270
819.481	6270
819.622	6563
819.762	6749
819.903	6681
820.043	6563
820.184	6597
820.324	6578
820.465	6681
820.605	6650
820.746	6639
820.886	6513
821.026	6650
821.167	6730
821.307	6806
821.447	6783
821.588	6684
821.728	6528
821.868	6506
822.008	6338
822.149	6353
822.289	6365
822.429	6159
822.569	6068
822.709	6125
822.849	5908
822.99	5836
823.13	5927
823.27	5935
823.41	5798
823.55	5756
823.69	5767
823.83	5714
823.97	5680
824.11	5539
824.25	5474
824.389	5497
824.529	5615
824.669	5509
824.809	5630
824.949	5665
825.089	5604
825.228	5604
825.368	5379
825.508	5349
825.648	5357
825.787	5368
825.927	5318
826.067	5273
826.206	5258
826.346	5322
826.485	5395
826.625	5398
826.765	5501
826.904	5486
827.044	5258
827.183	5204
827.323	5102
827.462	5265
827.601	5162
827.741	5147
827.88	5181
828.02	5159
828.159	5185
828.298	5303
828.437	5322
828.577	5296
828.716	5455
828.855	5311
828.994	5109
829.134	5109
829.273	5166
829.412	5121
829.551	5140
829.69	5105
829.829	5250
829.968	5357
830.107	5246
830.246	5223
830.385	5162
830.524	5098
830.663	5079
830.802	5003
830.941	4889
831.08	4908
831.219	4911
831.357	4980
831.496	5147
831.635	4919
831.774	4816
831.913	4862
832.051	4714
832.19	4694
832.329	4831
832.467	4694
832.606	4634
832.744	4759
832.883	4660
833.022	4664
833.16	4702
833.299	4824
833.437	4782
833.576	4835
833.714	4858
833.852	4850
833.991	4866
834.129	4953
834.267	4927
834.406	4862
834.544	4930
834.682	4938
834.821	4934
834.959	5121
835.097	4972
835.235	5128
835.373	5025
835.511	5124
835.65	4999
835.788	5037
835.926	4866
836.064	4831
836.202	4908
836.34	5090
836.478	5162
836.615	5098
836.753	5162
836.891	5265
837.029	5239
837.167	5162
837.305	5124
837.443	5113
837.58	5045
837.718	5216
837.856	5174
837.993	5151
838.131	5254
838.269	5159
838.406	5189
838.544	5147
838.681	5052
838.819	5033
838.956	4877
839.094	4904
839.231	4976
839.369	5045
839.506	5425
839.643	5299
839.781	5056
839.918	4980
840.055	5033
840.193	5102
840.33	5086
840.467	5117
840.604	5258
840.742	5433
840.879	5048
841.016	5090
841.153	5159
841.29	5341
841.427	5341
841.564	5299
841.701	5364
841.838	5296
841.975	5220
842.112	5265
842.249	5140
842.385	5048
842.522	5322
842.659	5151
842.796	5159
842.933	5220
843.069	5121
843.206	5121
843.343	5242
843.479	5204
843.616	5280
843.752	4972
843.889	4999
844.025	5258
844.162	4976
844.298	5197
844.435	5105
844.571	5041
844.708	5166
844.844	5280
844.98	5330
845.117	5227
845.253	5109
845.389	5102
845.525	5128
845.661	5124
845.798	5029
845.934	5143
846.07	5033
846.206	5178
846.342	5254
846.478	5159
846.614	5010
846.75	4927
846.886	4927
847.022	5060
847.158	5064
847.294	5090
847.429	5018
847.565	5060
847.701	5288
847.837	4889
847.972	4763
848.108	4934
848.244	4877
848.379	4801
848.515	4729
848.65	4683
848.786	4725
848.921	4710
849.057	4885
849.192	4877
849.328	4797
849.463	4862
849.598	4801
849.734	4755
849.869	4675
850.004	4622
850.14	4637
850.275	4565
850.41	4561
850.545	4573
850.68	4584
850.815	4607
850.95	4615
851.085	4820
851.22	4733
851.355	4687
851.49	4634
851.625	4634
851.76	4622
851.895	4565
852.03	4565
852.165	4626
852.299	4691
852.434	4755
852.569	4744
852.703	4793
852.838	4786
852.973	4911
853.107	4927
853.242	4706
853.376	4637
853.511	4561
853.645	4577
853.78	4797
853.914	4672
854.048	4679
854.183	4641
854.317	4729
854.451	4797
854.585	4664
854.72	4656
854.854	4710
854.988	4558
855.122	4668
855.256	4478
855.39	4611
855.524	4778
855.658	4694
855.792	4717
855.926	4694
856.06	4736
856.194	4748
856.327	4683
856.461	4599
856.595	4645
856.729	4618
856.862	4782
856.996	4668
857.13	4702
857.263	4786
857.397	4748
857.53	4675
857.664	4702
857.797	4721
857.931	4736
858.064	4679
858.197	4729
858.331	4645
858.464	4603
858.597	4538
858.731	4615
858.864	4653
858.997	4569
859.13	4691
859.263	4679
859.396	4721
859.529	4584
859.662	4565
859.795	4538
859.928	4599
860.061	4721
860.194	4809
860.327	4637
860.46	4569
860.592	4714
860.725	4729
860.858	4706
860.99	4599
861.123	4538
861.256	4516
861.388	4588
861.521	5250
861.653	4421
861.786	4436
861.918	4462
862.05	4531
862.183	4538
862.315	4611
862.447	4622
862.58	4531
862.712	4360
862.844	4306
862.976	4440
863.108	4409
863.24	4847
863.372	4371
863.504	4417
863.636	4402
863.768	4451
863.9	4394
864.032	4314
864.164	4413
864.296	4455
864.428	4527
864.559	4542
864.691	4546
864.823	4462
864.954	4519
865.086	4447
865.217	4424
865.349	4371
865.48	4440
865.612	4451
865.743	4596
865.875	4455
866.006	4390
866.137	4462
866.269	4417
866.4	4424
866.531	4443
866.662	4405
866.793	4375
866.924	4432
867.055	4474
867.186	4455
867.317	4398
867.448	4375
867.579	4375
867.71	4367
867.841	4303
867.972	4432
868.103	4398
868.233	4459
868.364	4436
868.495	4459
868.625	4607
868.756	4767
868.886	4550
869.017	4588
869.147	4771
869.278	4729
869.408	4641
869.539	4618
869.669	4721
869.799	4618
869.929	4767
870.06	4740
870.19	4942
870.32	4866
870.45	4957
870.58	5045
870.71	5105
870.84	5075
870.97	4915
871.1	4908
871.23	5121
871.36	5166
871.489	5010
871.619	5083
871.749	5064
871.879	5132
872.008	5155
872.138	5041
872.267	5018
872.397	4858
872.526	4793
872.656	4653
872.785	4748
872.915	4900
873.044	5014
873.173	4881
873.303	4957
873.432	4889
873.561	4927
873.69	4904
873.819	4843
873.948	4919
874.077	4889
874.206	4812
874.335	4759
874.464	4930
874.593	5033
874.722	4976
874.851	5075
874.979	5064
875.108	4995
875.237	4892
875.365	4889
875.494	4847
875.623	4976
875.751	4809
875.88	4877
876.008	4938
876.136	5003
876.265	5181
876.393	5258
876.521	5235
876.65	5197
876.778	5079
876.906	5052
877.034	5003
877.162	5052
877.29	4942
877.418	5045
877.546	5045
877.674	5052
877.802	5003
877.93	5010
878.058	4889
878.185	4843
878.313	4927
878.441	4919
878.568	4797
878.696	4904
878.824	4968
878.951	5003
879.079	5109
879.206	5254
879.333	5109
879.461	4965
879.588	4991
879.715	5132
879.842	5201
879.97	5010
880.097	4805
880.224	4736
880.351	4759
880.478	4805
880.605	4790
880.732	4771
880.859	5033
880.986	4900
881.112	4919
881.239	4733
881.366	4641
881.493	4558
881.619	4588
881.746	4641
881.872	4622
881.999	4641
882.125	4672
882.252	4748
882.378	4740
882.505	4953
882.631	4797
882.757	4664
882.883	4740
883.01	4698
883.136	4694
883.262	4573
883.388	4580
883.514	4812
883.64	4862
883.766	4752
883.892	4679
884.018	4740
884.143	4911
884.269	5048
884.395	4691
884.52	4618
884.646	4637
884.772	4580
884.897	4596
885.023	4656
885.148	4801
885.274	4816
885.399	4797
885.524	4740
885.65	4656
885.775	4702
885.9	4725
886.025	4885
886.15	4801
886.275	4729
886.4	4675
886.525	4702
886.65	4649
886.775	4725
886.9	4877
887.025	5056
887.149	4801
887.274	4702
887.399	4577
887.523	4573
887.648	4569
887.773	4561
887.897	4763
888.021	4774
888.146	4664
888.27	4820
888.395	4881
888.519	4763
888.643	4790
888.767	4809
888.891	4675
889.015	4592
889.139	4714
889.263	4588
889.387	4736
889.511	4896
889.635	4763
889.759	4641
889.883	4653
890.006	4721
890.13	4824
890.254	4573
890.377	4637
890.501	4550
890.624	4497
890.748	4607
890.871	4443
890.995	4428
891.118	4413
891.241	4470
891.364	4592
891.488	4618
891.611	4527
891.734	4561
891.857	4599
891.98	4588
892.103	4630
892.226	4550
892.349	4542
892.471	4436
892.594	4542
892.717	4546
892.839	4580
892.962	4573
893.085	4653
893.207	4569
893.33	4470
893.452	4531
893.575	4679
893.697	4565
893.819	4793
893.941	4858
894.064	4820
894.186	4637
894.308	4565
894.43	4706
894.552	4778
894.674	4714
894.796	4535
894.918	4622
895.04	4519
895.161	4683
895.283	4672
895.405	4584
895.526	4607
895.648	4691
895.769	4714
895.891	4717
896.012	4698
896.134	4702
896.255	4645
896.376	4611
896.498	4588
896.619	4634
896.74	4626
896.861	4679
896.982	4915
897.103	5086
897.224	4797
897.345	4755
897.466	4702
897.587	4694
897.708	4881
897.828	4763
897.949	4649
898.07	4558
898.19	4603
898.311	4824
898.431	4683
898.552	4687
898.672	4774
898.792	4805
898.913	4755
899.033	4607
899.153	4516
899.273	4432
899.393	4508
899.513	4531
899.633	4535
899.753	4538
899.873	4436
899.993	4573
900.113	4508
900.232	4607
900.352	4531
900.472	4523
900.591	4421
900.711	4489
900.83	4398
900.95	4569
901.069	4698
901.189	4523
901.308	4371
901.427	4329
901.546	4379
901.665	4447
901.784	4531
901.904	4383
902.023	4322
902.141	4162
902.26	4154
902.379	4303
902.498	4223
902.617	4181
902.735	4341
902.854	4390
902.973	4325
903.091	4181
903.21	4215
903.328	4284
903.446	4291
903.565	4234
903.683	4379
903.801	4257
903.919	4402
904.038	4432
904.156	4295
904.274	4421
904.392	4363
904.51	4440
904.627	4478
904.745	4588
904.863	4694
904.981	4417
905.098	4322
905.216	4352
905.334	4417
905.451	4440
905.569	4405
905.686	4565
905.803	4527
905.921	4371
906.038	4580
906.155	4474
906.272	4402
906.389	4440
906.506	4352
906.623	4371
906.74	4417
906.857	4284
906.974	4348
907.091	4577
907.208	4664
907.324	4615
907.441	4481
907.557	4318
907.674	4348
907.79	4322
907.907	4367
908.023	4497
908.139	4432
908.256	4413
908.372	4432
908.488	4398
908.604	4348
908.72	4329
908.836	4325
908.952	4409
909.068	4413
909.184	4573
909.3	4493
909.415	4577
909.531	4546
909.647	4344
909.762	4386
909.878	4325
909.993	4447
910.108	4348
910.224	4409
910.339	4481
910.454	4379
910.57	4348
910.685	4303
910.8	4698
910.915	4577
911.03	4485
911.145	4363
911.259	4310
911.374	4367
911.489	4284
911.604	4337
911.718	4109
911.833	4158
911.947	4059
912.062	3998
912.176	4215
912.291	4238
912.405	4261
912.519	4436
912.633	4516
912.748	4394
912.862	4295
912.976	4196
913.09	4116
913.204	4196
913.318	4284
913.431	4325
913.545	4322
913.659	4447
913.772	4356
913.886	4265
914	4227
914.113	4284
914.226	4451
914.34	4383
914.453	4230
914.566	4443
914.68	4318
914.793	4356
914.906	4173
915.019	4131
915.132	4074
915.245	4177
915.358	4207
915.47	4219
915.583	4272
915.696	4265
915.809	4409
915.921	4417
916.034	4242
916.146	4238
916.259	4227
916.371	4337
916.483	4394
916.595	4265
916.708	4329
916.82	4318
916.932	4303
917.044	4322
917.156	4341
917.268	4246
917.38	4268
917.491	4234
917.603	4306
917.715	4432
917.826	4402
917.938	4303
918.049	4284
918.161	4356
918.272	4508
918.384	4504
918.495	4455
918.606	4299
918.717	4230
918.828	4318
918.939	4344
919.05	4207
919.161	4310
919.272	4112
919.383	4215
919.494	4428
919.604	4611
919.715	4428
919.826	4363
919.936	4360
920.047	4489
920.157	4462
920.267	4691
920.378	4569
920.488	4535
920.598	4683
920.708	4877
920.818	4725
920.928	4702
921.038	4934
921.148	4885
921.258	4558
921.368	4493
921.477	4500
921.587	4409
921.697	4318
921.806	4519
921.916	4383
922.025	4265
922.134	4242
922.244	4200
922.353	4314
922.462	4147
922.571	4147
922.68	4010
922.789	3953
922.898	4025
923.007	3987
923.116	4105
923.224	4078
923.333	4051
923.442	3987
923.55	3983
923.659	3979
923.767	4124
923.876	3979
923.984	4086
924.092	3994
924.201	4086
924.309	4025
924.417	4071
924.525	4044
924.633	4086
924.741	5037
924.849	3880
924.956	4116
925.064	4006
925.172	3888
925.279	3975
925.387	4040
925.494	3998
925.602	4196
925.709	4143
925.816	4032
925.924	4120
926.031	4238
926.138	4162
926.245	4166
926.352	4067
926.459	4242
926.566	4272
926.673	4147
926.779	4086
926.886	4078
926.993	3907
927.099	3915
927.206	3956
927.312	3903
927.419	4029
927.525	4082
927.631	4097
927.737	3960
927.843	3964
927.95	3835
928.056	3941
928.162	3979
928.267	4071
928.373	4645
928.479	4090
928.585	3865
928.69	4006
928.796	4048
928.901	3941
929.007	3804
929.112	4040
929.218	3945
929.323	3896
929.428	3907
929.533	4105
929.638	3903
929.743	3937
929.848	4010
929.953	4025
930.058	3926
930.163	3781
930.267	3835
930.372	3922
930.477	3838
930.581	4055
930.685	3915
930.79	3816
930.894	3896
930.998	3835
931.103	4017
931.207	3751
931.311	3720
931.415	3637
931.519	3511
931.623	3526
