Data from test_V78500241_1144.txt Node
Date: Fri Mar 25 16:56:57 CST 2022
User: usil
Spectrometer: V785-0024
Trigger mode: 0
Integration Time (sec): 4.000000E-1
Scans to average: 1
Nonlinearity correction enabled: false
Boxcar width: 0
Storing dark spectrum: false
XAxis mode: Wavelengths
Number of Pixels in Spectrum: 1024
>>>>>Begin Spectral Data<<<<<
801.071	8069
801.214	8039
801.356	7986
801.499	7868
801.641	7822
801.783	7852
801.926	7989
802.068	7875
802.211	7921
802.353	7963
802.496	7814
802.638	7849
802.78	7883
802.923	7909
803.065	7841
803.208	7856
803.35	8005
803.492	8138
803.635	8123
803.777	8024
803.919	8164
804.061	8476
804.204	8161
804.346	8054
804.488	7963
804.63	8088
804.773	7989
804.915	8020
805.057	8210
805.199	8195
805.341	8233
805.483	8263
805.626	8145
805.768	8115
805.91	8180
806.052	8286
806.194	8100
806.336	8256
806.478	8115
806.62	7978
806.762	8164
806.904	8290
807.046	8484
807.188	8336
807.33	8279
807.472	8252
807.614	8123
807.756	8058
807.898	7967
808.04	7932
808.182	7864
808.324	7860
808.465	7925
808.607	8084
808.749	8046
808.891	8134
809.033	8267
809.174	8221
809.316	8046
809.458	8035
809.6	8016
809.741	7978
809.883	8012
810.025	8050
810.166	7989
810.308	8043
810.45	7997
810.591	7871
810.733	7643
810.875	7632
811.016	7575
811.158	7464
811.299	7567
811.441	7761
811.582	7715
811.724	7616
811.865	7544
812.007	7556
812.148	7609
812.29	7609
812.431	7723
812.573	7856
812.714	7928
812.855	8073
812.997	8164
813.138	8252
813.279	8202
813.421	8103
813.562	7959
813.703	7788
813.845	7731
813.986	7434
814.127	7263
814.268	7217
814.41	7198
814.551	7129
814.692	7152
814.833	7069
814.974	7080
815.115	7019
815.256	6947
815.397	6916
815.539	6962
815.68	6768
815.821	6776
815.962	6837
816.103	6821
816.244	6719
816.385	6604
816.526	6662
816.666	6448
816.807	6281
816.948	6441
817.089	6513
817.23	6437
817.371	6384
817.512	6380
817.653	6403
817.793	6346
817.934	6445
818.075	6426
818.216	6361
818.356	6365
818.497	6216
818.638	6129
818.778	6163
818.919	6197
819.06	6133
819.2	6331
819.341	6357
819.481	6346
819.622	6490
819.762	6662
819.903	6722
820.043	6574
820.184	6559
820.324	6525
820.465	6696
820.605	6662
820.746	6597
820.886	6509
821.026	6623
821.167	6673
821.307	6814
821.447	6749
821.588	6620
821.728	6555
821.868	6544
822.008	6277
822.149	6296
822.289	6304
822.429	6117
822.569	6068
822.709	6076
822.849	5897
822.99	5931
823.13	5855
823.27	5836
823.41	5767
823.55	5767
823.69	5695
823.83	5779
823.97	5653
824.11	5535
824.25	5490
824.389	5551
824.529	5592
824.669	5429
824.809	5646
824.949	5676
825.089	5611
825.228	5543
825.368	5349
825.508	5288
825.648	5292
825.787	5364
825.927	5337
826.067	5307
826.206	5277
826.346	5376
826.485	5395
826.625	5425
826.765	5512
826.904	5459
827.044	5220
827.183	5220
827.323	5128
827.462	5201
827.601	5162
827.741	5151
827.88	5212
828.02	5064
828.159	5220
828.298	5277
828.437	5364
828.577	5284
828.716	5425
828.855	5341
828.994	5109
829.134	5132
829.273	5128
829.412	5124
829.551	5128
829.69	5181
829.829	5261
829.968	5322
830.107	5273
830.246	5254
830.385	5151
830.524	5117
830.663	5033
830.802	4915
830.941	4835
831.08	4866
831.219	4942
831.357	4987
831.496	5121
831.635	4911
831.774	4843
831.913	4786
832.051	4691
832.19	4771
832.329	4843
832.467	4698
832.606	4630
832.744	4748
832.883	4691
833.022	4698
833.16	4733
833.299	4778
833.437	4831
833.576	4862
833.714	4831
833.852	4858
833.991	4843
834.129	4968
834.267	4961
834.406	4843
834.544	4942
834.682	4968
834.821	4946
834.959	5109
835.097	4957
835.235	5128
835.373	5075
835.511	5060
835.65	4999
835.788	5014
835.926	4904
836.064	4790
836.202	4927
836.34	5143
836.478	5174
836.615	5094
836.753	5197
836.891	5296
837.029	5254
837.167	5136
837.305	5109
837.443	5094
837.58	5079
837.718	5250
837.856	5185
837.993	5132
838.131	5201
838.269	5208
838.406	5151
838.544	5140
838.681	5067
838.819	5010
838.956	4854
839.094	4908
839.231	4968
839.369	5064
839.506	5364
839.643	5258
839.781	5052
839.918	4949
840.055	5090
840.193	5022
840.33	5052
840.467	5090
840.604	5189
840.742	5421
840.879	5071
841.016	5086
841.153	5105
841.29	5368
841.427	5349
841.564	5311
841.701	5372
841.838	5246
841.975	5216
842.112	5220
842.249	5105
842.385	5098
842.522	5311
842.659	5143
842.796	5090
842.933	5128
843.069	5147
843.206	5147
843.343	5284
843.479	5208
843.616	5216
843.752	5045
843.889	4946
844.025	5212
844.162	4972
844.298	5159
844.435	5033
844.571	5025
844.708	5201
844.844	5296
844.98	5273
845.117	5242
845.253	5151
845.389	5086
845.525	5105
845.661	5117
845.798	5006
845.934	5140
846.07	5025
846.206	5231
846.342	5326
846.478	5143
846.614	4999
846.75	4968
846.886	4908
847.022	5140
847.158	4991
847.294	5033
847.429	5113
847.565	5010
847.701	5303
847.837	4835
847.972	4740
848.108	4919
848.244	4927
848.379	4854
848.515	4698
848.65	4668
848.786	4733
848.921	4778
849.057	4854
849.192	4896
849.328	4797
849.463	4790
849.598	4778
849.734	4702
849.869	4698
850.004	4626
850.14	4626
850.275	4577
850.41	4440
850.545	4580
850.68	4546
850.815	4615
850.95	4641
851.085	4892
851.22	4736
851.355	4618
851.49	4615
851.625	4611
851.76	4637
851.895	4546
852.03	4519
852.165	4611
852.299	4714
852.434	4778
852.569	4702
852.703	4801
852.838	4930
852.973	4900
853.107	4957
853.242	4691
853.376	4626
853.511	4588
853.645	4577
853.78	4812
853.914	4649
854.048	4641
854.183	4588
854.317	4698
854.451	4835
854.585	4641
854.72	4618
854.854	4767
854.988	4603
855.122	4626
855.256	4497
855.39	4668
855.524	4774
855.658	4687
855.792	4733
855.926	4687
856.06	4744
856.194	4793
856.327	4679
856.461	4550
856.595	4596
856.729	4664
856.862	4740
856.996	4675
857.13	4702
857.263	4729
857.397	4793
857.53	4607
857.664	4729
857.797	4767
857.931	4736
858.064	4653
858.197	4759
858.331	4645
858.464	4611
858.597	4531
858.731	4603
858.864	4645
858.997	4615
859.13	4656
859.263	4634
859.396	4683
859.529	4535
859.662	4558
859.795	4531
859.928	4603
860.061	4736
860.194	4793
860.327	4580
860.46	4500
860.592	4683
860.725	4694
860.858	4683
860.99	4550
861.123	4512
861.256	4474
861.388	4569
861.521	5204
861.653	4500
861.786	4402
861.918	4451
862.05	4508
862.183	4527
862.315	4603
862.447	4577
862.58	4489
862.712	4409
862.844	4291
862.976	4443
863.108	4455
863.24	4873
863.372	4306
863.504	4424
863.636	4386
863.768	4478
863.9	4386
864.032	4386
864.164	4421
864.296	4424
864.428	4493
864.559	4542
864.691	4500
864.823	4497
864.954	4459
865.086	4493
865.217	4455
865.349	4462
865.48	4417
865.612	4443
865.743	4634
865.875	4447
866.006	4371
866.137	4432
866.269	4398
866.4	4405
866.531	4428
866.662	4360
866.793	4466
866.924	4363
867.055	4466
867.186	4455
867.317	4383
867.448	4360
867.579	4409
867.71	4424
867.841	4367
867.972	4504
868.103	4451
868.233	4432
868.364	4394
868.495	4485
868.625	4634
868.756	4748
868.886	4523
869.017	4653
869.147	4820
869.278	4790
869.408	4664
869.539	4630
869.669	4691
869.799	4656
869.929	4710
870.06	4725
870.19	4946
870.32	4877
870.45	4908
870.58	4976
870.71	5067
870.84	5052
870.97	4908
871.1	4858
871.23	5140
871.36	5048
871.489	5003
871.619	5056
871.749	5090
871.879	5121
872.008	5181
872.138	5029
872.267	4915
872.397	4801
872.526	4733
872.656	4683
872.785	4759
872.915	4934
873.044	5029
873.173	4934
873.303	4923
873.432	4934
873.561	4927
873.69	4850
873.819	4862
873.948	4862
874.077	4755
874.206	4740
874.335	4774
874.464	4930
874.593	5075
874.722	4965
874.851	5090
874.979	5094
875.108	5067
875.237	4915
875.365	4843
875.494	4866
875.623	4957
875.751	4790
875.88	4877
876.008	4987
876.136	5079
876.265	5178
876.393	5322
876.521	5311
876.65	5220
876.778	5124
876.906	5033
877.034	5033
877.162	5056
877.29	4972
877.418	5006
877.546	5033
877.674	5014
877.802	4991
877.93	5003
878.058	4938
878.185	4824
878.313	4957
878.441	4934
878.568	4805
878.696	4828
878.824	4915
878.951	4957
879.079	5071
879.206	5280
879.333	5086
879.461	4942
879.588	4984
879.715	5109
879.842	5227
879.97	4965
880.097	4748
880.224	4744
880.351	4767
880.478	4854
880.605	4801
880.732	4797
880.859	5041
880.986	4915
881.112	4919
881.239	4763
881.366	4615
881.493	4637
881.619	4607
881.746	4599
881.872	4653
881.999	4603
882.125	4653
882.252	4717
882.378	4763
882.505	4968
882.631	4771
882.757	4675
882.883	4710
883.01	4698
883.136	4611
883.262	4588
883.388	4577
883.514	4782
883.64	4797
883.766	4782
883.892	4664
884.018	4721
884.143	4858
884.269	4976
884.395	4653
884.52	4607
884.646	4645
884.772	4550
884.897	4546
885.023	4679
885.148	4801
885.274	4797
885.399	4820
885.524	4664
885.65	4687
885.775	4721
885.9	4649
886.025	4824
886.15	4786
886.275	4721
886.4	4622
886.525	4717
886.65	4694
886.775	4698
886.9	4900
887.025	5033
887.149	4797
887.274	4694
887.399	4569
887.523	4672
887.648	4607
887.773	4607
887.897	4767
888.021	4778
888.146	4683
888.27	4805
888.395	4923
888.519	4771
888.643	4831
888.767	4854
888.891	4672
889.015	4615
889.139	4611
889.263	4615
889.387	4740
889.511	4892
889.635	4816
889.759	4653
889.883	4656
890.006	4790
890.13	4843
890.254	4649
890.377	4725
890.501	4596
890.624	4603
890.748	4649
890.871	4504
890.995	4432
891.118	4413
891.241	4538
891.364	4561
891.488	4687
891.611	4527
891.734	4554
891.857	4637
891.98	4630
892.103	4710
892.226	4618
892.349	4565
892.471	4436
892.594	4584
892.717	4573
892.839	4607
892.962	4626
893.085	4725
893.207	4664
893.33	4535
893.452	4523
893.575	4710
893.697	4573
893.819	4843
893.941	4828
894.064	4797
894.186	4618
894.308	4634
894.43	4767
894.552	4805
894.674	4767
894.796	4588
894.918	4630
895.04	4626
895.161	4736
895.283	4714
895.405	4573
895.526	4656
895.648	4717
895.769	4710
895.891	4755
896.012	4778
896.134	4702
896.255	4721
896.376	4653
896.498	4660
896.619	4687
896.74	4618
896.861	4672
896.982	4961
897.103	5105
897.224	4858
897.345	4752
897.466	4717
897.587	4679
897.708	4889
897.828	4801
897.949	4706
898.07	4637
898.19	4694
898.311	4820
898.431	4668
898.552	4767
898.672	4847
898.792	4847
898.913	4714
899.033	4660
899.153	4523
899.273	4421
899.393	4546
899.513	4577
899.633	4580
899.753	4577
899.873	4542
899.993	4630
900.113	4535
900.232	4641
900.352	4546
900.472	4516
900.591	4398
900.711	4519
900.83	4462
900.95	4626
901.069	4744
901.189	4588
901.308	4405
901.427	4318
901.546	4440
901.665	4474
901.784	4535
901.904	4413
902.023	4367
902.141	4219
902.26	4177
902.379	4325
902.498	4284
902.617	4234
902.735	4417
902.854	4428
902.973	4367
903.091	4219
903.21	4284
903.328	4306
903.446	4318
903.565	4276
903.683	4344
903.801	4333
903.919	4436
904.038	4481
904.156	4333
904.274	4455
904.392	4409
904.51	4402
904.627	4504
904.745	4588
904.863	4668
904.981	4451
905.098	4344
905.216	4356
905.334	4474
905.451	4470
905.569	4478
905.686	4580
905.803	4611
905.921	4466
906.038	4611
906.155	4470
906.272	4363
906.389	4485
906.506	4356
906.623	4398
906.74	4459
906.857	4325
906.974	4367
907.091	4561
907.208	4702
907.324	4607
907.441	4512
907.557	4398
907.674	4413
907.79	4322
907.907	4432
908.023	4489
908.139	4504
908.256	4451
908.372	4500
908.488	4527
908.604	4383
908.72	4341
908.836	4413
908.952	4432
909.068	4421
909.184	4592
909.3	4504
909.415	4618
909.531	4592
909.647	4436
909.762	4402
909.878	4329
909.993	4470
910.108	4432
910.224	4474
910.339	4497
910.454	4390
910.57	4417
910.685	4344
910.8	4672
910.915	4558
911.03	4474
911.145	4337
911.259	4394
911.374	4367
911.489	4314
911.604	4287
911.718	4204
911.833	4257
911.947	4101
912.062	4055
912.176	4223
912.291	4287
912.405	4265
912.519	4474
912.633	4489
912.748	4398
912.862	4363
912.976	4242
913.09	4154
913.204	4227
913.318	4303
913.431	4394
913.545	4390
913.659	4489
913.772	4398
913.886	4299
914	4211
914.113	4436
914.226	4421
914.34	4432
914.453	4299
914.566	4451
914.68	4329
914.793	4322
914.906	4166
915.019	4124
915.132	4078
915.245	4196
915.358	4249
915.47	4265
915.583	4303
915.696	4329
915.809	4436
915.921	4466
916.034	4261
916.146	4265
916.259	4268
916.371	4352
916.483	4356
916.595	4287
916.708	4352
916.82	4379
916.932	4322
917.044	4329
917.156	4394
917.268	4257
917.38	4322
917.491	4295
917.603	4337
917.715	4470
917.826	4466
917.938	4379
918.049	4265
918.161	4428
918.272	4599
918.384	4497
918.495	4470
918.606	4360
918.717	4287
918.828	4333
918.939	4363
919.05	4268
919.161	4348
919.272	4124
919.383	4261
919.494	4436
919.604	4618
919.715	4455
919.826	4459
919.936	4424
920.047	4516
920.157	4500
920.267	4706
920.378	4542
920.488	4497
920.598	4759
920.708	4828
920.818	4744
920.928	4816
921.038	4961
921.148	4953
921.258	4641
921.368	4561
921.477	4493
921.587	4455
921.697	4402
921.806	4603
921.916	4443
922.025	4310
922.134	4291
922.244	4211
922.353	4333
922.462	4246
922.571	4166
922.68	4044
922.789	4021
922.898	4086
923.007	4010
923.116	4116
923.224	4086
923.333	4036
923.442	4013
923.55	3979
923.659	4059
923.767	4139
923.876	4063
923.984	4158
924.092	4021
924.201	4032
924.309	4116
924.417	4124
924.525	4067
924.633	4105
924.741	5086
924.849	3934
924.956	4158
925.064	4002
925.172	3915
925.279	3975
925.387	4067
925.494	4051
925.602	4253
925.709	4211
925.816	4063
925.924	4109
926.031	4268
926.138	4192
926.245	4196
926.352	4097
926.459	4287
926.566	4348
926.673	4173
926.779	4101
926.886	4086
926.993	3972
927.099	3945
927.206	3994
927.312	3960
927.419	4059
927.525	4029
927.631	4093
927.737	3991
927.843	3949
927.95	3850
928.056	3930
928.162	4002
928.267	4074
928.373	4668
928.479	4150
928.585	3918
928.69	4013
928.796	4082
928.901	3968
929.007	3808
929.112	4017
929.218	4021
929.323	3937
929.428	3941
929.533	4112
929.638	3922
929.743	3998
929.848	4067
929.953	4029
930.058	3945
930.163	3808
930.267	3873
930.372	4029
930.477	3808
930.581	4109
930.685	3945
930.79	3812
930.894	3930
930.998	3884
931.103	4063
931.207	3759
931.311	3690
931.415	3663
931.519	3549
931.623	3568
