Data from test_V78500241_2037.txt Node
Date: Fri Mar 25 17:03:09 CST 2022
User: usil
Spectrometer: V785-0024
Trigger mode: 0
Integration Time (sec): 4.000000E-1
Scans to average: 1
Nonlinearity correction enabled: false
Boxcar width: 0
Storing dark spectrum: false
XAxis mode: Wavelengths
Number of Pixels in Spectrum: 1024
>>>>>Begin Spectral Data<<<<<
801.071	8035
801.214	7944
801.356	7807
801.499	7849
801.641	7765
801.783	7818
801.926	7906
802.068	7909
802.211	8065
802.353	8100
802.496	7833
802.638	7879
802.78	7890
802.923	7925
803.065	7906
803.208	7860
803.35	8043
803.492	8096
803.635	8145
803.777	8031
803.919	8145
804.061	8480
804.204	8168
804.346	8096
804.488	7909
804.63	8130
804.773	8039
804.915	8107
805.057	8263
805.199	8134
805.341	8172
805.483	8279
805.626	8233
805.768	8103
805.91	8233
806.052	8202
806.194	8081
806.336	8275
806.478	8100
806.62	8058
806.762	8153
806.904	8275
807.046	8495
807.188	8393
807.33	8301
807.472	8336
807.614	8191
807.756	8157
807.898	8012
808.04	7898
808.182	7894
808.324	7947
808.465	7860
808.607	8039
808.749	8161
808.891	8176
809.033	8332
809.174	8183
809.316	8073
809.458	8058
809.6	7986
809.741	8035
809.883	8081
810.025	8100
810.166	8031
810.308	7986
810.45	7925
810.591	7890
810.733	7715
810.875	7662
811.016	7563
811.158	7441
811.299	7521
811.441	7651
811.582	7655
811.724	7567
811.865	7578
812.007	7605
812.148	7590
812.29	7597
812.431	7799
812.573	7940
812.714	7928
812.855	8115
812.997	8206
813.138	8237
813.279	8149
813.421	8138
813.562	7928
813.703	7837
813.845	7727
813.986	7445
814.127	7168
814.268	7209
814.41	7228
814.551	7171
814.692	7209
814.833	7069
814.974	7069
815.115	7069
815.256	6973
815.397	6897
815.539	6928
815.68	6745
815.821	6696
815.962	6856
816.103	6798
816.244	6722
816.385	6627
816.526	6582
816.666	6536
816.807	6353
816.948	6452
817.089	6418
817.23	6391
817.371	6407
817.512	6414
817.653	6399
817.793	6311
817.934	6391
818.075	6448
818.216	6433
818.356	6388
818.497	6304
818.638	6159
818.778	6144
818.919	6072
819.06	6152
819.2	6353
819.341	6308
819.481	6372
819.622	6498
819.762	6707
819.903	6726
820.043	6582
820.184	6601
820.324	6582
820.465	6665
820.605	6776
820.746	6669
820.886	6475
821.026	6684
821.167	6719
821.307	6757
821.447	6779
821.588	6726
821.728	6585
821.868	6471
822.008	6285
822.149	6410
822.289	6380
822.429	6129
822.569	6190
822.709	6175
822.849	5969
822.99	5889
823.13	5950
823.27	5942
823.41	5874
823.55	5851
823.69	5722
823.83	5836
823.97	5729
824.11	5520
824.25	5490
824.389	5532
824.529	5649
824.669	5551
824.809	5668
824.949	5714
825.089	5680
825.228	5558
825.368	5444
825.508	5357
825.648	5383
825.787	5463
825.927	5410
826.067	5337
826.206	5349
826.346	5459
826.485	5444
826.625	5467
826.765	5551
826.904	5551
827.044	5303
827.183	5216
827.323	5166
827.462	5296
827.601	5193
827.741	5212
827.88	5220
828.02	5147
828.159	5307
828.298	5315
828.437	5391
828.577	5322
828.716	5433
828.855	5334
828.994	5261
829.134	5162
829.273	5235
829.412	5197
829.551	5159
829.69	5189
829.829	5284
829.968	5467
830.107	5277
830.246	5334
830.385	5231
830.524	5170
830.663	5079
830.802	5041
830.941	4938
831.08	4987
831.219	5052
831.357	4987
831.496	5216
831.635	5010
831.774	4896
831.913	4904
832.051	4790
832.19	4801
832.329	4900
832.467	4687
832.606	4725
832.744	4786
832.883	4736
833.022	4763
833.16	4793
833.299	4831
833.437	4858
833.576	4873
833.714	4923
833.852	4934
833.991	4953
834.129	5010
834.267	4965
834.406	4930
834.544	5006
834.682	4984
834.821	5033
834.959	5193
835.097	5060
835.235	5216
835.373	5098
835.511	5143
835.65	5064
835.788	5064
835.926	4927
836.064	4911
836.202	4919
836.34	5208
836.478	5277
836.615	5178
836.753	5265
836.891	5299
837.029	5318
837.167	5212
837.305	5185
837.443	5189
837.58	5102
837.718	5277
837.856	5223
837.993	5201
838.131	5269
838.269	5254
838.406	5269
838.544	5159
838.681	5071
838.819	4987
838.956	4965
839.094	4934
839.231	5071
839.369	5147
839.506	5440
839.643	5277
839.781	5067
839.918	5064
840.055	5102
840.193	5109
840.33	5151
840.467	5155
840.604	5231
840.742	5444
840.879	5083
841.016	5094
841.153	5143
841.29	5368
841.427	5429
841.564	5353
841.701	5379
841.838	5315
841.975	5265
842.112	5303
842.249	5151
842.385	5140
842.522	5372
842.659	5201
842.796	5136
842.933	5197
843.069	5151
843.206	5151
843.343	5357
843.479	5299
843.616	5280
843.752	5037
843.889	5014
844.025	5258
844.162	5045
844.298	5254
844.435	5079
844.571	5098
844.708	5181
844.844	5311
844.98	5315
845.117	5322
845.253	5170
845.389	5094
845.525	5178
845.661	5193
845.798	5056
845.934	5204
846.07	5143
846.206	5162
846.342	5330
846.478	5197
846.614	5086
846.75	5018
846.886	4953
847.022	5178
847.158	5029
847.294	5094
847.429	5159
847.565	5037
847.701	5402
847.837	4904
847.972	4828
848.108	5010
848.244	4999
848.379	4782
848.515	4748
848.65	4736
848.786	4752
848.921	4771
849.057	4885
849.192	4957
849.328	4839
849.463	4881
849.598	4782
849.734	4797
849.869	4717
850.004	4675
850.14	4702
850.275	4596
850.41	4546
850.545	4580
850.68	4611
850.815	4645
850.95	4622
851.085	4854
851.22	4755
851.355	4714
851.49	4634
851.625	4622
851.76	4710
851.895	4607
852.03	4550
852.165	4660
852.299	4744
852.434	4801
852.569	4805
852.703	4835
852.838	4847
852.973	4923
853.107	4976
853.242	4744
853.376	4672
853.511	4584
853.645	4626
853.78	4820
853.914	4721
854.048	4660
854.183	4721
854.317	4778
854.451	4870
854.585	4675
854.72	4641
854.854	4767
854.988	4603
855.122	4660
855.256	4558
855.39	4679
855.524	4782
855.658	4801
855.792	4683
855.926	4740
856.06	4752
856.194	4854
856.327	4691
856.461	4607
856.595	4660
856.729	4599
856.862	4778
856.996	4748
857.13	4740
857.263	4729
857.397	4850
857.53	4660
857.664	4706
857.797	4759
857.931	4816
858.064	4698
858.197	4725
858.331	4675
858.464	4660
858.597	4599
858.731	4645
858.864	4698
858.997	4675
859.13	4698
859.263	4706
859.396	4706
859.529	4630
859.662	4615
859.795	4569
859.928	4630
860.061	4755
860.194	4778
860.327	4637
860.46	4573
860.592	4755
860.725	4740
860.858	4740
860.99	4603
861.123	4527
861.256	4550
861.388	4611
861.521	5337
861.653	4489
861.786	4459
861.918	4500
862.05	4527
862.183	4584
862.315	4607
862.447	4664
862.58	4611
862.712	4417
862.844	4310
862.976	4500
863.108	4462
863.24	4782
863.372	4333
863.504	4413
863.636	4428
863.768	4519
863.9	4470
864.032	4394
864.164	4417
864.296	4485
864.428	4573
864.559	4584
864.691	4554
864.823	4569
864.954	4466
865.086	4474
865.217	4462
865.349	4421
865.48	4485
865.612	4554
865.743	4637
865.875	4485
866.006	4443
866.137	4497
866.269	4440
866.4	4470
866.531	4428
866.662	4413
866.793	4470
866.924	4455
867.055	4512
867.186	4481
867.317	4428
867.448	4383
867.579	4402
867.71	4405
867.841	4386
867.972	4512
868.103	4489
868.233	4470
868.364	4466
868.495	4489
868.625	4672
868.756	4744
868.886	4618
869.017	4611
869.147	4763
869.278	4816
869.408	4675
869.539	4641
869.669	4736
869.799	4672
869.929	4767
870.06	4748
870.19	4953
870.32	4938
870.45	4930
870.58	5033
870.71	5121
870.84	5067
870.97	4927
871.1	4953
871.23	5086
871.36	5132
871.489	5056
871.619	5109
871.749	5075
871.879	5132
872.008	5216
872.138	5041
872.267	4984
872.397	4877
872.526	4782
872.656	4778
872.785	4805
872.915	4984
873.044	5071
873.173	4946
873.303	4984
873.432	4923
873.561	4976
873.69	4866
873.819	4908
873.948	4968
874.077	4790
874.206	4782
874.335	4820
874.464	4965
874.593	5056
874.722	4946
874.851	5109
874.979	5124
875.108	5056
875.237	4946
875.365	4927
875.494	4934
875.623	4976
875.751	4843
875.88	4896
876.008	4976
876.136	5010
876.265	5220
876.393	5368
876.521	5337
876.65	5189
876.778	5151
876.906	5109
877.034	5041
877.162	5083
877.29	4999
877.418	5067
877.546	5048
877.674	5041
877.802	5029
877.93	5067
878.058	4953
878.185	4938
878.313	4976
878.441	4965
878.568	4843
878.696	4942
878.824	4961
878.951	4976
879.079	5124
879.206	5296
879.333	5151
879.461	4987
879.588	5029
879.715	5170
879.842	5223
879.97	5064
880.097	4801
880.224	4771
880.351	4812
880.478	4809
880.605	4786
880.732	4831
880.859	5048
880.986	4934
881.112	4900
881.239	4763
881.366	4675
881.493	4618
881.619	4607
881.746	4653
881.872	4622
881.999	4656
882.125	4683
882.252	4790
882.378	4873
882.505	4972
882.631	4793
882.757	4664
882.883	4725
883.01	4748
883.136	4687
883.262	4603
883.388	4645
883.514	4843
883.64	4885
883.766	4820
883.892	4675
884.018	4702
884.143	4915
884.269	5018
884.395	4725
884.52	4649
884.646	4668
884.772	4637
884.897	4561
885.023	4687
885.148	4786
885.274	4885
885.399	4862
885.524	4702
885.65	4683
885.775	4755
885.9	4778
886.025	4873
886.15	4816
886.275	4755
886.4	4675
886.525	4717
886.65	4740
886.775	4736
886.9	4968
887.025	5022
887.149	4790
887.274	4641
887.399	4569
887.523	4607
887.648	4588
887.773	4584
887.897	4790
888.021	4809
888.146	4675
888.27	4858
888.395	4949
888.519	4767
888.643	4790
888.767	4847
888.891	4691
889.015	4645
889.139	4634
889.263	4645
889.387	4786
889.511	4866
889.635	4816
889.759	4611
889.883	4656
890.006	4729
890.13	4850
890.254	4615
890.377	4672
890.501	4561
890.624	4493
890.748	4618
890.871	4504
890.995	4402
891.118	4402
891.241	4523
891.364	4516
891.488	4660
891.611	4478
891.734	4497
891.857	4626
891.98	4573
892.103	4679
892.226	4656
892.349	4478
892.471	4379
892.594	4573
892.717	4611
892.839	4573
892.962	4584
893.085	4641
893.207	4558
893.33	4474
893.452	4508
893.575	4714
893.697	4554
893.819	4809
893.941	4816
894.064	4835
894.186	4637
894.308	4607
894.43	4736
894.552	4847
894.674	4740
894.796	4573
894.918	4599
895.04	4577
895.161	4744
895.283	4626
895.405	4569
895.526	4653
895.648	4702
895.769	4702
895.891	4668
896.012	4774
896.134	4725
896.255	4706
896.376	4607
896.498	4599
896.619	4714
896.74	4645
896.861	4630
896.982	4927
897.103	5064
897.224	4793
897.345	4748
897.466	4668
897.587	4710
897.708	4858
897.828	4771
897.949	4656
898.07	4542
898.19	4641
898.311	4786
898.431	4679
898.552	4778
898.672	4873
898.792	4809
898.913	4717
899.033	4664
899.153	4531
899.273	4447
899.393	4504
899.513	4538
899.633	4512
899.753	4580
899.873	4516
899.993	4611
900.113	4554
900.232	4573
900.352	4485
900.472	4497
900.591	4424
900.711	4478
900.83	4409
900.95	4626
901.069	4653
901.189	4538
901.308	4352
901.427	4333
901.546	4383
901.665	4481
901.784	4519
901.904	4360
902.023	4303
902.141	4200
902.26	4154
902.379	4306
902.498	4249
902.617	4234
902.735	4360
902.854	4379
902.973	4409
903.091	4196
903.21	4207
903.328	4375
903.446	4234
903.565	4306
903.683	4333
903.801	4325
903.919	4386
904.038	4402
904.156	4295
904.274	4436
904.392	4379
904.51	4390
904.627	4466
904.745	4569
904.863	4664
904.981	4356
905.098	4276
905.216	4352
905.334	4455
905.451	4451
905.569	4428
905.686	4558
905.803	4538
905.921	4405
906.038	4550
906.155	4474
906.272	4405
906.389	4466
906.506	4360
906.623	4337
906.74	4363
906.857	4344
906.974	4409
907.091	4615
907.208	4706
907.324	4603
907.441	4519
907.557	4367
907.674	4363
907.79	4287
907.907	4390
908.023	4500
908.139	4489
908.256	4436
908.372	4459
908.488	4481
908.604	4344
908.72	4314
908.836	4398
908.952	4356
909.068	4440
909.184	4535
909.3	4428
909.415	4561
909.531	4497
909.647	4352
909.762	4322
909.878	4337
909.993	4402
910.108	4409
910.224	4424
910.339	4462
910.454	4413
910.57	4367
910.685	4337
910.8	4637
910.915	4580
911.03	4493
911.145	4280
911.259	4322
911.374	4363
911.489	4276
911.604	4253
911.718	4223
911.833	4200
911.947	4074
912.062	3998
912.176	4246
912.291	4287
912.405	4249
912.519	4428
912.633	4500
912.748	4333
912.862	4314
912.976	4181
913.09	4112
913.204	4177
913.318	4276
913.431	4333
913.545	4356
913.659	4394
913.772	4356
913.886	4249
914	4306
914.113	4379
914.226	4459
914.34	4363
914.453	4246
914.566	4451
914.68	4295
914.793	4322
914.906	4169
915.019	4177
915.132	4120
915.245	4147
915.358	4219
915.47	4219
915.583	4303
915.696	4322
915.809	4428
915.921	4440
916.034	4253
916.146	4284
916.259	4227
916.371	4390
916.483	4352
916.595	4265
916.708	4295
916.82	4325
916.932	4322
917.044	4348
917.156	4310
917.268	4253
917.38	4287
917.491	4280
917.603	4333
917.715	4417
917.826	4440
917.938	4348
918.049	4200
918.161	4402
918.272	4504
918.384	4512
918.495	4485
918.606	4287
918.717	4249
918.828	4379
918.939	4409
919.05	4249
919.161	4310
919.272	4048
919.383	4227
919.494	4432
919.604	4607
919.715	4402
919.826	4344
919.936	4413
920.047	4489
920.157	4470
920.267	4729
920.378	4546
920.488	4554
920.598	4687
920.708	4934
920.818	4809
920.928	4748
921.038	4885
921.148	4866
921.258	4599
921.368	4569
921.477	4478
921.587	4428
921.697	4363
921.806	4596
921.916	4436
922.025	4310
922.134	4257
922.244	4215
922.353	4333
922.462	4219
922.571	4139
922.68	4010
922.789	3953
922.898	4059
923.007	3979
923.116	4116
923.224	4105
923.333	4074
923.442	3972
923.55	3987
923.659	4006
923.767	4071
923.876	3937
923.984	4063
924.092	3991
924.201	4067
924.309	4101
924.417	4147
924.525	4048
924.633	4135
924.741	5056
924.849	3945
924.956	4105
925.064	4017
925.172	3896
925.279	3968
925.387	4082
925.494	4040
925.602	4219
925.709	4162
925.816	4086
925.924	4128
926.031	4227
926.138	4158
926.245	4181
926.352	4063
926.459	4219
926.566	4276
926.673	4135
926.779	4071
926.886	4097
926.993	3968
927.099	3941
927.206	3941
927.312	3972
927.419	4082
927.525	4036
927.631	4097
927.737	3941
927.843	3903
927.95	3846
928.056	3926
928.162	3964
928.267	4044
928.373	4599
928.479	4135
928.585	3869
928.69	4002
928.796	4040
928.901	3934
929.007	3823
929.112	4055
929.218	4017
929.323	3956
929.428	3922
929.533	4074
929.638	3922
929.743	3972
929.848	4074
929.953	3956
930.058	3968
930.163	3770
930.267	3831
930.372	3949
930.477	3850
930.581	4082
930.685	3930
930.79	3846
930.894	3888
930.998	3865
931.103	4032
931.207	3675
931.311	3698
931.415	3682
931.519	3515
931.623	3580
