Data from test_V78500241_1264.txt Node
Date: Fri Mar 25 16:57:47 CST 2022
User: usil
Spectrometer: V785-0024
Trigger mode: 0
Integration Time (sec): 4.000000E-1
Scans to average: 1
Nonlinearity correction enabled: false
Boxcar width: 0
Storing dark spectrum: false
XAxis mode: Wavelengths
Number of Pixels in Spectrum: 1024
>>>>>Begin Spectral Data<<<<<
801.071	8005
801.214	8058
801.356	7883
801.499	7871
801.641	7826
801.783	7811
801.926	7947
802.068	7951
802.211	7978
802.353	7940
802.496	7803
802.638	7837
802.78	7989
802.923	7959
803.065	7890
803.208	7833
803.35	7928
803.492	8054
803.635	8142
803.777	8039
803.919	8210
804.061	8431
804.204	8142
804.346	8043
804.488	7944
804.63	8088
804.773	8043
804.915	8111
805.057	8279
805.199	8168
805.341	8206
805.483	8298
805.626	8252
805.768	8107
805.91	8202
806.052	8191
806.194	8027
806.336	8313
806.478	8138
806.62	8062
806.762	8084
806.904	8202
807.046	8415
807.188	8393
807.33	8237
807.472	8286
807.614	8103
807.756	8134
807.898	8024
808.04	7913
808.182	7936
808.324	7883
808.465	7963
808.607	8111
808.749	8115
808.891	8069
809.033	8237
809.174	8168
809.316	8111
809.458	8039
809.6	7974
809.741	8001
809.883	8024
810.025	8062
810.166	8058
810.308	8073
810.45	7951
810.591	7890
810.733	7693
810.875	7677
811.016	7540
811.158	7525
811.299	7567
811.441	7780
811.582	7715
811.724	7559
811.865	7487
812.007	7563
812.148	7563
812.29	7647
812.431	7689
812.573	7921
812.714	8001
812.855	8031
812.997	8263
813.138	8279
813.279	8180
813.421	8145
813.562	8039
813.703	7826
813.845	7799
813.986	7403
814.127	7232
814.268	7213
814.41	7175
814.551	7221
814.692	7133
814.833	7023
814.974	7042
815.115	7118
815.256	6993
815.397	6947
815.539	7000
815.68	6818
815.821	6779
815.962	6890
816.103	6757
816.244	6703
816.385	6654
816.526	6620
816.666	6460
816.807	6289
816.948	6422
817.089	6502
817.23	6365
817.371	6361
817.512	6350
817.653	6410
817.793	6357
817.934	6399
818.075	6437
818.216	6391
818.356	6391
818.497	6273
818.638	6117
818.778	6213
818.919	6110
819.06	6110
819.2	6315
819.341	6308
819.481	6369
819.622	6540
819.762	6642
819.903	6753
820.043	6547
820.184	6574
820.324	6559
820.465	6662
820.605	6597
820.746	6601
820.886	6506
821.026	6631
821.167	6688
821.307	6734
821.447	6753
821.588	6654
821.728	6551
821.868	6494
822.008	6281
822.149	6338
822.289	6334
822.429	6114
822.569	6114
822.709	6106
822.849	5901
822.99	5901
823.13	5889
823.27	5927
823.41	5767
823.55	5805
823.69	5767
823.83	5760
823.97	5657
824.11	5528
824.25	5452
824.389	5573
824.529	5608
824.669	5497
824.809	5581
824.949	5646
825.089	5585
825.228	5512
825.368	5391
825.508	5337
825.648	5307
825.787	5414
825.927	5387
826.067	5269
826.206	5216
826.346	5288
826.485	5376
826.625	5448
826.765	5509
826.904	5398
827.044	5212
827.183	5155
827.323	5117
827.462	5170
827.601	5189
827.741	5201
827.88	5250
828.02	5136
828.159	5208
828.298	5330
828.437	5349
828.577	5246
828.716	5459
828.855	5357
828.994	5231
829.134	5121
829.273	5204
829.412	5166
829.551	5102
829.69	5159
829.829	5220
829.968	5360
830.107	5239
830.246	5254
830.385	5140
830.524	5121
830.663	5094
830.802	5018
830.941	4889
831.08	4877
831.219	5041
831.357	4946
831.496	5155
831.635	4862
831.774	4828
831.913	4778
832.051	4740
832.19	4698
832.329	4831
832.467	4679
832.606	4630
832.744	4710
832.883	4725
833.022	4702
833.16	4778
833.299	4824
833.437	4805
833.576	4790
833.714	4850
833.852	4862
833.991	4835
834.129	4927
834.267	4911
834.406	4934
834.544	5018
834.682	4934
834.821	4949
834.959	5117
835.097	4972
835.235	5155
835.373	5060
835.511	5075
835.65	4995
835.788	5025
835.926	4858
836.064	4881
836.202	4870
836.34	5121
836.478	5170
836.615	5124
836.753	5212
836.891	5273
837.029	5235
837.167	5159
837.305	5128
837.443	5117
837.58	5056
837.718	5265
837.856	5109
837.993	5181
838.131	5261
838.269	5208
838.406	5162
838.544	5159
838.681	5022
838.819	5037
838.956	4843
839.094	4881
839.231	4980
839.369	5105
839.506	5410
839.643	5235
839.781	5079
839.918	5018
840.055	5086
840.193	5083
840.33	5105
840.467	5079
840.604	5178
840.742	5448
840.879	5056
841.016	5060
841.153	5109
841.29	5379
841.427	5307
841.564	5288
841.701	5330
841.838	5235
841.975	5197
842.112	5307
842.249	5170
842.385	5109
842.522	5311
842.659	5181
842.796	5105
842.933	5181
843.069	5136
843.206	5124
843.343	5315
843.479	5235
843.616	5197
843.752	4987
843.889	4968
844.025	5227
844.162	4980
844.298	5170
844.435	5052
844.571	5045
844.708	5204
844.844	5288
844.98	5303
845.117	5227
845.253	5105
845.389	5090
845.525	5117
845.661	5128
845.798	5014
845.934	5113
846.07	4991
846.206	5170
846.342	5235
846.478	5181
846.614	4995
846.75	4919
846.886	4965
847.022	5086
847.158	5022
847.294	4980
847.429	5060
847.565	4995
847.701	5288
847.837	4831
847.972	4812
848.108	4949
848.244	4934
848.379	4721
848.515	4725
848.65	4679
848.786	4733
848.921	4733
849.057	4828
849.192	4892
849.328	4839
849.463	4816
849.598	4786
849.734	4755
849.869	4702
850.004	4611
850.14	4675
850.275	4596
850.41	4504
850.545	4546
850.68	4607
850.815	4592
850.95	4592
851.085	4847
851.22	4774
851.355	4645
851.49	4599
851.625	4611
851.76	4630
851.895	4508
852.03	4481
852.165	4592
852.299	4691
852.434	4793
852.569	4721
852.703	4774
852.838	4816
852.973	4930
853.107	4904
853.242	4748
853.376	4668
853.511	4580
853.645	4649
853.78	4736
853.914	4660
854.048	4702
854.183	4660
854.317	4672
854.451	4862
854.585	4702
854.72	4580
854.854	4721
854.988	4546
855.122	4634
855.256	4558
855.39	4645
855.524	4782
855.658	4691
855.792	4664
855.926	4736
856.06	4725
856.194	4763
856.327	4679
856.461	4569
856.595	4584
856.729	4577
856.862	4767
856.996	4691
857.13	4672
857.263	4717
857.397	4790
857.53	4668
857.664	4698
857.797	4752
857.931	4805
858.064	4653
858.197	4725
858.331	4607
858.464	4599
858.597	4504
858.731	4630
858.864	4630
858.997	4565
859.13	4664
859.263	4675
859.396	4649
859.529	4542
859.662	4569
859.795	4455
859.928	4611
860.061	4759
860.194	4748
860.327	4683
860.46	4504
860.592	4683
860.725	4714
860.858	4733
860.99	4546
861.123	4497
861.256	4512
861.388	4645
861.521	5284
861.653	4455
861.786	4424
861.918	4504
862.05	4512
862.183	4596
862.315	4622
862.447	4637
862.58	4516
862.712	4394
862.844	4318
862.976	4440
863.108	4386
863.24	4835
863.372	4310
863.504	4440
863.636	4413
863.768	4481
863.9	4447
864.032	4379
864.164	4360
864.296	4428
864.428	4508
864.559	4538
864.691	4565
864.823	4489
864.954	4519
865.086	4493
865.217	4489
865.349	4421
865.48	4436
865.612	4489
865.743	4603
865.875	4447
866.006	4424
866.137	4394
866.269	4428
866.4	4440
866.531	4440
866.662	4371
866.793	4390
866.924	4379
867.055	4455
867.186	4383
867.317	4447
867.448	4367
867.579	4371
867.71	4417
867.841	4375
867.972	4470
868.103	4440
868.233	4474
868.364	4481
868.495	4432
868.625	4607
868.756	4740
868.886	4531
869.017	4584
869.147	4790
869.278	4763
869.408	4653
869.539	4649
869.669	4710
869.799	4675
869.929	4740
870.06	4729
870.19	4919
870.32	4938
870.45	4881
870.58	4995
870.71	5102
870.84	5041
870.97	4942
871.1	4870
871.23	5170
871.36	5094
871.489	5033
871.619	5109
871.749	5060
871.879	5170
872.008	5185
872.138	5006
872.267	4972
872.397	4858
872.526	4797
872.656	4691
872.785	4809
872.915	4942
873.044	5037
873.173	4927
873.303	4946
873.432	5010
873.561	4930
873.69	4862
873.819	4843
873.948	4942
874.077	4812
874.206	4733
874.335	4816
874.464	4934
874.593	5018
874.722	4980
874.851	5102
874.979	5022
875.108	5014
875.237	4900
875.365	4908
875.494	4824
875.623	4953
875.751	4820
875.88	4896
876.008	4961
876.136	5029
876.265	5197
876.393	5322
876.521	5227
876.65	5216
876.778	5201
876.906	5090
877.034	5003
877.162	5052
877.29	4946
877.418	5029
877.546	5010
877.674	5056
877.802	5003
877.93	5025
878.058	4908
878.185	4805
878.313	4961
878.441	4911
878.568	4801
878.696	4847
878.824	4976
878.951	4949
879.079	5124
879.206	5307
879.333	5090
879.461	5003
879.588	4991
879.715	5060
879.842	5265
879.97	5029
880.097	4812
880.224	4752
880.351	4805
880.478	4862
880.605	4771
880.732	4759
880.859	5060
880.986	4843
881.112	4915
881.239	4782
881.366	4672
881.493	4588
881.619	4569
881.746	4634
881.872	4618
881.999	4668
882.125	4683
882.252	4763
882.378	4828
882.505	4942
882.631	4797
882.757	4668
882.883	4698
883.01	4679
883.136	4710
883.262	4607
883.388	4554
883.514	4774
883.64	4828
883.766	4797
883.892	4626
884.018	4733
884.143	4858
884.269	4976
884.395	4679
884.52	4599
884.646	4637
884.772	4546
884.897	4538
885.023	4675
885.148	4809
885.274	4904
885.399	4816
885.524	4710
885.65	4679
885.775	4736
885.9	4694
886.025	4896
886.15	4740
886.275	4733
886.4	4675
886.525	4694
886.65	4706
886.775	4698
886.9	4896
887.025	5018
887.149	4820
887.274	4637
887.399	4603
887.523	4531
887.648	4599
887.773	4535
887.897	4748
888.021	4778
888.146	4698
888.27	4809
888.395	4881
888.519	4778
888.643	4828
888.767	4831
888.891	4649
889.015	4615
889.139	4626
889.263	4596
889.387	4736
889.511	4862
889.635	4790
889.759	4622
889.883	4668
890.006	4740
890.13	4755
890.254	4634
890.377	4725
890.501	4508
890.624	4493
890.748	4580
890.871	4516
890.995	4432
891.118	4371
891.241	4485
891.364	4516
891.488	4603
891.611	4493
891.734	4470
891.857	4603
891.98	4523
892.103	4656
892.226	4588
892.349	4554
892.471	4360
892.594	4542
892.717	4565
892.839	4588
892.962	4546
893.085	4641
893.207	4535
893.33	4455
893.452	4497
893.575	4668
893.697	4573
893.819	4816
893.941	4824
894.064	4793
894.186	4573
894.308	4535
894.43	4694
894.552	4831
894.674	4675
894.796	4538
894.918	4565
895.04	4580
895.161	4714
895.283	4626
895.405	4573
895.526	4611
895.648	4733
895.769	4664
895.891	4721
896.012	4710
896.134	4733
896.255	4702
896.376	4649
896.498	4615
896.619	4637
896.74	4596
896.861	4630
896.982	4877
897.103	5025
897.224	4831
897.345	4763
897.466	4580
897.587	4710
897.708	4908
897.828	4771
897.949	4615
898.07	4527
898.19	4599
898.311	4843
898.431	4645
898.552	4683
898.672	4801
898.792	4801
898.913	4759
899.033	4596
899.153	4470
899.273	4466
899.393	4542
899.513	4531
899.633	4516
899.753	4516
899.873	4523
899.993	4611
900.113	4542
900.232	4542
900.352	4531
900.472	4485
900.591	4405
900.711	4497
900.83	4447
900.95	4630
901.069	4744
901.189	4516
901.308	4390
901.427	4318
901.546	4386
901.665	4447
901.784	4512
901.904	4337
902.023	4303
902.141	4211
902.26	4162
902.379	4306
902.498	4234
902.617	4196
902.735	4375
902.854	4360
902.973	4386
903.091	4257
903.21	4257
903.328	4299
903.446	4272
903.565	4280
903.683	4318
903.801	4291
903.919	4398
904.038	4436
904.156	4386
904.274	4428
904.392	4417
904.51	4424
904.627	4481
904.745	4550
904.863	4618
904.981	4367
905.098	4272
905.216	4344
905.334	4436
905.451	4474
905.569	4451
905.686	4538
905.803	4531
905.921	4424
906.038	4535
906.155	4421
906.272	4432
906.389	4428
906.506	4413
906.623	4360
906.74	4360
906.857	4287
906.974	4360
907.091	4550
907.208	4637
907.324	4584
907.441	4485
907.557	4325
907.674	4390
907.79	4299
907.907	4356
908.023	4462
908.139	4474
908.256	4398
908.372	4424
908.488	4432
908.604	4402
908.72	4363
908.836	4394
908.952	4375
909.068	4466
909.184	4531
909.3	4535
909.415	4577
909.531	4523
909.647	4333
909.762	4363
909.878	4325
909.993	4405
910.108	4421
910.224	4363
910.339	4421
910.454	4356
910.57	4341
910.685	4291
910.8	4603
910.915	4577
911.03	4474
911.145	4337
911.259	4303
911.374	4344
911.489	4348
911.604	4234
911.718	4139
911.833	4196
911.947	4074
912.062	4040
912.176	4181
912.291	4215
912.405	4295
912.519	4466
912.633	4554
912.748	4344
912.862	4325
912.976	4234
913.09	4063
913.204	4177
913.318	4207
913.431	4375
913.545	4337
913.659	4409
913.772	4333
913.886	4249
914	4261
914.113	4409
914.226	4447
914.34	4379
914.453	4181
914.566	4383
914.68	4325
914.793	4356
914.906	4116
915.019	4139
915.132	4101
915.245	4173
915.358	4188
915.47	4246
915.583	4291
915.696	4295
915.809	4356
915.921	4443
916.034	4230
916.146	4230
916.259	4268
916.371	4344
916.483	4318
916.595	4238
916.708	4299
916.82	4341
916.932	4287
917.044	4322
917.156	4341
917.268	4230
917.38	4261
917.491	4268
917.603	4352
917.715	4474
917.826	4474
917.938	4344
918.049	4242
918.161	4371
918.272	4516
918.384	4531
918.495	4417
918.606	4265
918.717	4265
918.828	4341
918.939	4322
919.05	4257
919.161	4310
919.272	4082
919.383	4230
919.494	4459
919.604	4573
919.715	4409
919.826	4344
919.936	4375
920.047	4523
920.157	4527
920.267	4706
920.378	4554
920.488	4451
920.598	4733
920.708	4892
920.818	4729
920.928	4736
921.038	4942
921.148	4873
921.258	4641
921.368	4561
921.477	4485
921.587	4413
921.697	4371
921.806	4554
921.916	4436
922.025	4257
922.134	4246
922.244	4227
922.353	4344
922.462	4196
922.571	4086
922.68	3975
922.789	4010
922.898	4071
923.007	3987
923.116	4051
923.224	4078
923.333	4013
923.442	3987
923.55	3975
923.659	4002
923.767	4074
923.876	3979
923.984	4093
924.092	3983
924.201	4071
924.309	4109
924.417	4090
924.525	4051
924.633	4067
924.741	5014
924.849	3930
924.956	4105
925.064	3937
925.172	3896
925.279	4002
925.387	4078
925.494	4036
925.602	4211
925.709	4154
925.816	3983
925.924	4158
926.031	4204
926.138	4166
926.245	4211
926.352	4086
926.459	4234
926.566	4310
926.673	4181
926.779	4101
926.886	4082
926.993	4013
927.099	3945
927.206	3922
927.312	3888
927.419	4082
927.525	4059
927.631	4086
927.737	3960
927.843	3934
927.95	3812
928.056	3972
928.162	3994
928.267	4040
928.373	4714
928.479	4124
928.585	3827
928.69	3968
928.796	4074
928.901	3983
929.007	3838
929.112	4025
929.218	3968
929.323	3945
929.428	3915
929.533	4112
929.638	3911
929.743	3956
929.848	4097
929.953	3975
930.058	3918
930.163	3781
930.267	3850
930.372	3972
930.477	3797
930.581	4082
930.685	3949
930.79	3797
930.894	3873
930.998	3823
931.103	4078
931.207	3701
931.311	3690
931.415	3679
931.519	3500
931.623	3580
