Data from test_V78500241_33.txt Node
Date: Fri Mar 25 16:49:14 CST 2022
User: usil
Spectrometer: V785-0024
Trigger mode: 0
Integration Time (sec): 4.000000E-1
Scans to average: 1
Nonlinearity correction enabled: false
Boxcar width: 0
Storing dark spectrum: false
XAxis mode: Wavelengths
Number of Pixels in Spectrum: 1024
>>>>>Begin Spectral Data<<<<<
801.071	8100
801.214	8081
801.356	8031
801.499	7925
801.641	7814
801.783	7883
801.926	8020
802.068	8035
802.211	8058
802.353	8096
802.496	7963
802.638	8039
802.78	8050
802.923	7970
803.065	7936
803.208	7868
803.35	7997
803.492	8149
803.635	8210
803.777	8020
803.919	8180
804.061	8476
804.204	8134
804.346	8077
804.488	7978
804.63	8100
804.773	7997
804.915	8103
805.057	8252
805.199	8107
805.341	8279
805.483	8339
805.626	8233
805.768	8130
805.91	8324
806.052	8282
806.194	8183
806.336	8298
806.478	8107
806.62	8073
806.762	8237
806.904	8328
807.046	8495
807.188	8446
807.33	8355
807.472	8358
807.614	8161
807.756	8130
807.898	8039
808.04	7970
808.182	7906
808.324	7936
808.465	7902
808.607	8062
808.749	8130
808.891	8214
809.033	8252
809.174	8214
809.316	8134
809.458	8073
809.6	8001
809.741	8058
809.883	7989
810.025	8073
810.166	8088
810.308	8024
810.45	8103
810.591	7967
810.733	7822
810.875	7746
811.016	7575
811.158	7594
811.299	7700
811.441	7788
811.582	7753
811.724	7651
811.865	7597
812.007	7620
812.148	7628
812.29	7674
812.431	7807
812.573	7925
812.714	8073
812.855	8153
812.997	8256
813.138	8347
813.279	8191
813.421	8103
813.562	7989
813.703	7913
813.845	7792
813.986	7487
814.127	7358
814.268	7312
814.41	7221
814.551	7194
814.692	7285
814.833	7160
814.974	7107
815.115	7179
815.256	6993
815.397	7031
815.539	6951
815.68	6863
815.821	6859
815.962	6905
816.103	6856
816.244	6825
816.385	6719
816.526	6623
816.666	6540
816.807	6384
816.948	6517
817.089	6547
817.23	6441
817.371	6456
817.512	6422
817.653	6407
817.793	6410
817.934	6376
818.075	6506
818.216	6486
818.356	6456
818.497	6334
818.638	6106
818.778	6171
818.919	6178
819.06	6167
819.2	6331
819.341	6403
819.481	6418
819.622	6612
819.762	6738
819.903	6757
820.043	6677
820.184	6631
820.324	6677
820.465	6730
820.605	6753
820.746	6722
820.886	6566
821.026	6741
821.167	6745
821.307	6840
821.447	6833
821.588	6677
821.728	6578
821.868	6563
822.008	6331
822.149	6426
822.289	6399
822.429	6175
822.569	6072
822.709	6159
822.849	5920
822.99	5931
823.13	5984
823.27	5984
823.41	5851
823.55	5874
823.69	5779
823.83	5817
823.97	5729
824.11	5589
824.25	5509
824.389	5611
824.529	5585
824.669	5573
824.809	5718
824.949	5771
825.089	5653
825.228	5634
825.368	5440
825.508	5406
825.648	5402
825.787	5398
825.927	5429
826.067	5337
826.206	5277
826.346	5436
826.485	5398
826.625	5459
826.765	5532
826.904	5463
827.044	5280
827.183	5212
827.323	5174
827.462	5280
827.601	5193
827.741	5273
827.88	5265
828.02	5143
828.159	5269
828.298	5421
828.437	5471
828.577	5315
828.716	5524
828.855	5368
828.994	5220
829.134	5170
829.273	5227
829.412	5201
829.551	5178
829.69	5223
829.829	5326
829.968	5406
830.107	5326
830.246	5326
830.385	5223
830.524	5193
830.663	5105
830.802	5029
830.941	4900
831.08	4938
831.219	5022
831.357	4995
831.496	5220
831.635	4984
831.774	4904
831.913	4904
832.051	4786
832.19	4790
832.329	4885
832.467	4675
832.606	4725
832.744	4767
832.883	4744
833.022	4733
833.16	4843
833.299	4866
833.437	4858
833.576	4885
833.714	4866
833.852	4873
833.991	4900
834.129	5022
834.267	4972
834.406	4923
834.544	5010
834.682	4991
834.821	5033
834.959	5197
835.097	5014
835.235	5201
835.373	5090
835.511	5162
835.65	5037
835.788	5052
835.926	4976
836.064	4919
836.202	4999
836.34	5227
836.478	5265
836.615	5162
836.753	5254
836.891	5330
837.029	5269
837.167	5269
837.305	5197
837.443	5181
837.58	5109
837.718	5349
837.856	5258
837.993	5170
838.131	5280
838.269	5246
838.406	5254
838.544	5227
838.681	5075
838.819	5079
838.956	4930
839.094	4957
839.231	5056
839.369	5128
839.506	5455
839.643	5292
839.781	5102
839.918	5048
840.055	5140
840.193	5105
840.33	5155
840.467	5155
840.604	5223
840.742	5493
840.879	5094
841.016	5102
841.153	5208
841.29	5372
841.427	5383
841.564	5341
841.701	5376
841.838	5322
841.975	5303
842.112	5337
842.249	5178
842.385	5124
842.522	5345
842.659	5193
842.796	5208
842.933	5201
843.069	5170
843.206	5212
843.343	5334
843.479	5284
843.616	5296
843.752	5075
843.889	5098
844.025	5250
844.162	5018
844.298	5201
844.435	5117
844.571	5071
844.708	5220
844.844	5326
844.98	5379
845.117	5341
845.253	5189
845.389	5113
845.525	5227
845.661	5189
845.798	5086
845.934	5185
846.07	5140
846.206	5261
846.342	5349
846.478	5216
846.614	5086
846.75	5041
846.886	4987
847.022	5201
847.158	5056
847.294	5094
847.429	5113
847.565	5071
847.701	5402
847.837	4904
847.972	4889
848.108	4991
848.244	4965
848.379	4801
848.515	4759
848.65	4759
848.786	4797
848.921	4774
849.057	4892
849.192	4930
849.328	4900
849.463	4934
849.598	4809
849.734	4790
849.869	4725
850.004	4649
850.14	4649
850.275	4611
850.41	4599
850.545	4615
850.68	4683
850.815	4645
850.95	4675
851.085	4828
851.22	4763
851.355	4691
851.49	4664
851.625	4675
851.76	4656
851.895	4603
852.03	4504
852.165	4656
852.299	4744
852.434	4866
852.569	4782
852.703	4805
852.838	4820
852.973	4946
853.107	4961
853.242	4790
853.376	4733
853.511	4637
853.645	4634
853.78	4854
853.914	4748
854.048	4748
854.183	4702
854.317	4767
854.451	4885
854.585	4668
854.72	4664
854.854	4793
854.988	4588
855.122	4672
855.256	4542
855.39	4733
855.524	4862
855.658	4774
855.792	4706
855.926	4774
856.06	4831
856.194	4866
856.327	4717
856.461	4706
856.595	4645
856.729	4687
856.862	4767
856.996	4744
857.13	4767
857.263	4824
857.397	4866
857.53	4649
857.664	4778
857.797	4824
857.931	4824
858.064	4710
858.197	4763
858.331	4679
858.464	4660
858.597	4596
858.731	4679
858.864	4679
858.997	4626
859.13	4710
859.263	4717
859.396	4778
859.529	4607
859.662	4588
859.795	4592
859.928	4664
860.061	4809
860.194	4801
860.327	4615
860.46	4622
860.592	4748
860.725	4744
860.858	4763
860.99	4649
861.123	4527
861.256	4535
861.388	4656
861.521	5471
861.653	4500
861.786	4535
861.918	4497
862.05	4584
862.183	4603
862.315	4634
862.447	4664
862.58	4558
862.712	4443
862.844	4337
862.976	4535
863.108	4485
863.24	4900
863.372	4375
863.504	4504
863.636	4421
863.768	4497
863.9	4497
864.032	4398
864.164	4436
864.296	4531
864.428	4550
864.559	4615
864.691	4618
864.823	4580
864.954	4580
865.086	4569
865.217	4481
865.349	4459
865.48	4500
865.612	4565
865.743	4577
865.875	4531
866.006	4470
866.137	4519
866.269	4504
866.4	4455
866.531	4451
866.662	4383
866.793	4432
866.924	4447
867.055	4519
867.186	4478
867.317	4481
867.448	4367
867.579	4443
867.71	4356
867.841	4383
867.972	4497
868.103	4493
868.233	4489
868.364	4481
868.495	4493
868.625	4733
868.756	4759
868.886	4634
869.017	4637
869.147	4850
869.278	4820
869.408	4656
869.539	4664
869.669	4774
869.799	4714
869.929	4801
870.06	4793
870.19	4987
870.32	4953
870.45	4984
870.58	5075
870.71	5124
870.84	5094
870.97	4927
871.1	4915
871.23	5212
871.36	5162
871.489	5071
871.619	5143
871.749	5181
871.879	5143
872.008	5242
872.138	5075
872.267	5121
872.397	4900
872.526	4873
872.656	4744
872.785	4816
872.915	4957
873.044	5037
873.173	4987
873.303	5029
873.432	4987
873.561	5022
873.69	4915
873.819	4892
873.948	4984
874.077	4820
874.206	4778
874.335	4847
874.464	4953
874.593	5121
874.722	4987
874.851	5132
874.979	5102
875.108	5086
875.237	4938
875.365	4908
875.494	4927
875.623	5041
875.751	4866
875.88	4949
876.008	5064
876.136	5060
876.265	5258
876.393	5372
876.521	5307
876.65	5265
876.778	5189
876.906	5098
877.034	5109
877.162	5090
877.29	5006
877.418	5117
877.546	5056
877.674	5067
877.802	5018
877.93	5090
878.058	5003
878.185	4919
878.313	4965
878.441	4953
878.568	4801
878.696	4885
878.824	4972
878.951	5067
879.079	5155
879.206	5288
879.333	5162
879.461	5075
879.588	5041
879.715	5147
879.842	5242
879.97	5079
880.097	4778
880.224	4782
880.351	4900
880.478	4854
880.605	4847
880.732	4782
880.859	5136
880.986	4923
881.112	4938
881.239	4843
881.366	4664
881.493	4672
881.619	4660
881.746	4672
881.872	4710
881.999	4679
882.125	4710
882.252	4816
882.378	4873
882.505	5056
882.631	4885
882.757	4729
882.883	4672
883.01	4790
883.136	4725
883.262	4698
883.388	4615
883.514	4854
883.64	4911
883.766	4835
883.892	4660
884.018	4736
884.143	4976
884.269	5022
884.395	4721
884.52	4630
884.646	4675
884.772	4664
884.897	4596
885.023	4668
885.148	4771
885.274	4900
885.399	4793
885.524	4778
885.65	4691
885.775	4782
885.9	4771
886.025	4862
886.15	4820
886.275	4774
886.4	4729
886.525	4736
886.65	4714
886.775	4710
886.9	4930
887.025	5128
887.149	4839
887.274	4706
887.399	4645
887.523	4641
887.648	4607
887.773	4569
887.897	4790
888.021	4835
888.146	4717
888.27	4820
888.395	4968
888.519	4854
888.643	4816
888.767	4923
888.891	4694
889.015	4649
889.139	4683
889.263	4634
889.387	4820
889.511	4900
889.635	4873
889.759	4691
889.883	4687
890.006	4816
890.13	4885
890.254	4668
890.377	4771
890.501	4664
890.624	4615
890.748	4672
890.871	4573
890.995	4504
891.118	4531
891.241	4558
891.364	4649
891.488	4698
891.611	4615
891.734	4580
891.857	4641
891.98	4675
892.103	4748
892.226	4649
892.349	4573
892.471	4462
892.594	4634
892.717	4694
892.839	4687
892.962	4729
893.085	4691
893.207	4664
893.33	4527
893.452	4573
893.575	4755
893.697	4721
893.819	4896
893.941	4919
894.064	4870
894.186	4672
894.308	4706
894.43	4801
894.552	4919
894.674	4835
894.796	4664
894.918	4721
895.04	4637
895.161	4793
895.283	4748
895.405	4660
895.526	4748
895.648	4831
895.769	4782
895.891	4759
896.012	4797
896.134	4805
896.255	4763
896.376	4752
896.498	4672
896.619	4767
896.74	4714
896.861	4744
896.982	5006
897.103	5155
897.224	4957
897.345	4816
897.466	4744
897.587	4793
897.708	4923
897.828	4831
897.949	4733
898.07	4637
898.19	4710
898.311	4873
898.431	4805
898.552	4816
898.672	4854
898.792	4946
898.913	4862
899.033	4721
899.153	4618
899.273	4538
899.393	4584
899.513	4622
899.633	4565
899.753	4626
899.873	4622
899.993	4641
900.113	4558
900.232	4687
900.352	4580
900.472	4531
900.591	4497
900.711	4565
900.83	4538
900.95	4664
901.069	4752
901.189	4630
901.308	4440
901.427	4409
901.546	4440
901.665	4512
901.784	4615
901.904	4443
902.023	4394
902.141	4234
902.26	4246
902.379	4333
902.498	4344
902.617	4287
902.735	4489
902.854	4440
902.973	4432
903.091	4280
903.21	4310
903.328	4371
903.446	4352
903.565	4341
903.683	4428
903.801	4371
903.919	4428
904.038	4500
904.156	4375
904.274	4485
904.392	4489
904.51	4497
904.627	4531
904.745	4694
904.863	4755
904.981	4459
905.098	4390
905.216	4367
905.334	4489
905.451	4512
905.569	4527
905.686	4630
905.803	4630
905.921	4497
906.038	4596
906.155	4592
906.272	4436
906.389	4558
906.506	4470
906.623	4428
906.74	4451
906.857	4375
906.974	4417
907.091	4622
907.208	4771
907.324	4698
907.441	4558
907.557	4451
907.674	4413
907.79	4424
907.907	4424
908.023	4546
908.139	4558
908.256	4489
908.372	4546
908.488	4580
908.604	4428
908.72	4413
908.836	4443
908.952	4447
909.068	4546
909.184	4660
909.3	4569
909.415	4645
909.531	4603
909.647	4398
909.762	4398
909.878	4443
909.993	4512
910.108	4489
910.224	4523
910.339	4546
910.454	4493
910.57	4493
910.685	4379
910.8	4721
910.915	4691
911.03	4561
911.145	4447
911.259	4379
911.374	4424
911.489	4352
911.604	4329
911.718	4249
911.833	4265
911.947	4181
912.062	4090
912.176	4322
912.291	4322
912.405	4310
912.519	4546
912.633	4588
912.748	4413
912.862	4417
912.976	4253
913.09	4200
913.204	4280
913.318	4322
913.431	4417
913.545	4459
913.659	4493
913.772	4424
913.886	4291
914	4253
914.113	4447
914.226	4531
914.34	4428
914.453	4295
914.566	4493
914.68	4421
914.793	4390
914.906	4188
915.019	4188
915.132	4139
915.245	4227
915.358	4303
915.47	4322
915.583	4329
915.696	4379
915.809	4466
915.921	4466
916.034	4344
916.146	4348
916.259	4333
916.371	4497
916.483	4440
916.595	4344
916.708	4386
916.82	4367
916.932	4394
917.044	4394
917.156	4405
917.268	4295
917.38	4341
917.491	4348
917.603	4428
917.715	4519
917.826	4535
917.938	4432
918.049	4314
918.161	4481
918.272	4592
918.384	4634
918.495	4504
918.606	4398
918.717	4299
918.828	4394
918.939	4466
919.05	4295
919.161	4379
919.272	4211
919.383	4249
919.494	4504
919.604	4740
919.715	4497
919.826	4443
919.936	4470
920.047	4592
920.157	4603
920.267	4748
920.378	4580
920.488	4615
920.598	4824
920.708	4953
920.818	4839
920.928	4831
921.038	5003
921.148	4980
921.258	4714
921.368	4626
921.477	4493
921.587	4550
921.697	4409
921.806	4611
921.916	4527
922.025	4337
922.134	4341
922.244	4276
922.353	4371
922.462	4261
922.571	4227
922.68	4090
922.789	4021
922.898	4093
923.007	4055
923.116	4158
923.224	4101
923.333	4109
923.442	4086
923.55	4097
923.659	4097
923.767	4139
923.876	4086
923.984	4181
924.092	4093
924.201	4169
924.309	4188
924.417	4215
924.525	4147
924.633	4101
924.741	5067
924.849	3987
924.956	4204
925.064	4006
925.172	3956
925.279	4036
925.387	4116
925.494	4112
925.602	4329
925.709	4272
925.816	4097
925.924	4169
926.031	4291
926.138	4257
926.245	4268
926.352	4162
926.459	4280
926.566	4386
926.673	4234
926.779	4150
926.886	4192
926.993	4063
927.099	4017
927.206	4029
927.312	3979
927.419	4093
927.525	4055
927.631	4158
927.737	4071
927.843	3998
927.95	3903
928.056	4036
928.162	4105
928.267	4173
928.373	4725
928.479	4169
928.585	3949
928.69	4093
928.796	4185
928.901	3979
929.007	3896
929.112	4067
929.218	4044
929.323	3968
929.428	3991
929.533	4196
929.638	3998
929.743	4017
929.848	4105
929.953	4071
930.058	3975
930.163	3819
930.267	3892
930.372	4055
930.477	3903
930.581	4139
930.685	3998
930.79	3892
930.894	3956
930.998	3899
931.103	4071
931.207	3808
931.311	3751
931.415	3732
931.519	3591
931.623	3610
