Data from test_V78500241_1198.txt Node
Date: Fri Mar 25 16:57:19 CST 2022
User: usil
Spectrometer: V785-0024
Trigger mode: 0
Integration Time (sec): 4.000000E-1
Scans to average: 1
Nonlinearity correction enabled: false
Boxcar width: 0
Storing dark spectrum: false
XAxis mode: Wavelengths
Number of Pixels in Spectrum: 1024
>>>>>Begin Spectral Data<<<<<
801.071	8046
801.214	8043
801.356	7940
801.499	7944
801.641	7818
801.783	7799
801.926	7951
802.068	7955
802.211	7997
802.353	8016
802.496	7795
802.638	7887
802.78	7906
802.923	7967
803.065	7883
803.208	7936
803.35	7974
803.492	8153
803.635	8195
803.777	8012
803.919	8157
804.061	8511
804.204	8180
804.346	8031
804.488	8016
804.63	8077
804.773	8035
804.915	8081
805.057	8294
805.199	8225
805.341	8214
805.483	8336
805.626	8271
805.768	8168
805.91	8237
806.052	8267
806.194	8126
806.336	8244
806.478	8157
806.62	8054
806.762	8149
806.904	8294
807.046	8450
807.188	8317
807.33	8336
807.472	8286
807.614	8119
807.756	8119
807.898	7978
808.04	7875
808.182	7913
808.324	7887
808.465	7894
808.607	8123
808.749	8126
808.891	8214
809.033	8309
809.174	8267
809.316	8065
809.458	8130
809.6	8012
809.741	7993
809.883	7978
810.025	8092
810.166	8058
810.308	8043
810.45	7967
810.591	7932
810.733	7772
810.875	7605
811.016	7495
811.158	7464
811.299	7609
811.441	7715
811.582	7643
811.724	7605
811.865	7495
812.007	7548
812.148	7563
812.29	7601
812.431	7719
812.573	7932
812.714	8035
812.855	8100
812.997	8191
813.138	8309
813.279	8210
813.421	8115
813.562	8016
813.703	7913
813.845	7734
813.986	7434
814.127	7297
814.268	7263
814.41	7236
814.551	7175
814.692	7179
814.833	7107
814.974	7072
815.115	7129
815.256	6981
815.397	6913
815.539	6947
815.68	6863
815.821	6772
815.962	6875
816.103	6848
816.244	6776
816.385	6597
816.526	6662
816.666	6467
816.807	6300
816.948	6429
817.089	6490
817.23	6494
817.371	6365
817.512	6445
817.653	6441
817.793	6384
817.934	6448
818.075	6498
818.216	6422
818.356	6376
818.497	6251
818.638	6201
818.778	6178
818.919	6117
819.06	6171
819.2	6350
819.341	6342
819.481	6372
819.622	6479
819.762	6779
819.903	6707
820.043	6532
820.184	6555
820.324	6525
820.465	6684
820.605	6692
820.746	6616
820.886	6483
821.026	6681
821.167	6703
821.307	6802
821.447	6768
821.588	6681
821.728	6555
821.868	6486
822.008	6323
822.149	6399
822.289	6399
822.429	6102
822.569	6068
822.709	6095
822.849	5927
822.99	5851
823.13	5923
823.27	5923
823.41	5745
823.55	5756
823.69	5764
823.83	5760
823.97	5649
824.11	5528
824.25	5482
824.389	5581
824.529	5562
824.669	5573
824.809	5600
824.949	5615
825.089	5615
825.228	5532
825.368	5349
825.508	5391
825.648	5288
825.787	5349
825.927	5391
826.067	5303
826.206	5261
826.346	5334
826.485	5406
826.625	5417
826.765	5505
826.904	5448
827.044	5193
827.183	5197
827.323	5079
827.462	5220
827.601	5235
827.741	5170
827.88	5208
828.02	5109
828.159	5212
828.298	5315
828.437	5353
828.577	5303
828.716	5509
828.855	5303
828.994	5128
829.134	5201
829.273	5239
829.412	5170
829.551	5121
829.69	5166
829.829	5227
829.968	5353
830.107	5231
830.246	5231
830.385	5193
830.524	5117
830.663	5090
830.802	4942
830.941	4873
831.08	4889
831.219	4995
831.357	4991
831.496	5155
831.635	4911
831.774	4843
831.913	4850
832.051	4717
832.19	4736
832.329	4831
832.467	4736
832.606	4637
832.744	4717
832.883	4725
833.022	4714
833.16	4797
833.299	4816
833.437	4835
833.576	4839
833.714	4843
833.852	4877
833.991	4877
834.129	4965
834.267	4953
834.406	4892
834.544	4991
834.682	4919
834.821	5014
834.959	5170
835.097	4987
835.235	5117
835.373	5041
835.511	5079
835.65	5018
835.788	4976
835.926	4904
836.064	4904
836.202	4904
836.34	5159
836.478	5197
836.615	5128
836.753	5193
836.891	5284
837.029	5273
837.167	5147
837.305	5162
837.443	5143
837.58	5090
837.718	5231
837.856	5223
837.993	5105
838.131	5189
838.269	5212
838.406	5174
838.544	5174
838.681	5006
838.819	5010
838.956	4942
839.094	4904
839.231	4995
839.369	5083
839.506	5406
839.643	5242
839.781	5048
839.918	5003
840.055	5079
840.193	5041
840.33	5105
840.467	5109
840.604	5170
840.742	5417
840.879	5090
841.016	5048
841.153	5143
841.29	5341
841.427	5311
841.564	5334
841.701	5334
841.838	5280
841.975	5227
842.112	5235
842.249	5151
842.385	5121
842.522	5357
842.659	5178
842.796	5136
842.933	5193
843.069	5140
843.206	5166
843.343	5357
843.479	5258
843.616	5254
843.752	5033
843.889	4984
844.025	5250
844.162	5045
844.298	5174
844.435	5086
844.571	5083
844.708	5204
844.844	5254
844.98	5341
845.117	5239
845.253	5151
845.389	5029
845.525	5140
845.661	5105
845.798	5037
845.934	5166
846.07	5033
846.206	5216
846.342	5330
846.478	5193
846.614	5079
846.75	4972
846.886	4949
847.022	5124
847.158	5003
847.294	5048
847.429	5109
847.565	5003
847.701	5280
847.837	4877
847.972	4812
848.108	4957
848.244	4953
848.379	4755
848.515	4755
848.65	4706
848.786	4752
848.921	4778
849.057	4881
849.192	4873
849.328	4831
849.463	4866
849.598	4782
849.734	4698
849.869	4687
850.004	4603
850.14	4656
850.275	4603
850.41	4508
850.545	4546
850.68	4626
850.815	4603
850.95	4622
851.085	4820
851.22	4736
851.355	4653
851.49	4615
851.625	4607
851.76	4656
851.895	4561
852.03	4481
852.165	4664
852.299	4729
852.434	4816
852.569	4725
852.703	4797
852.838	4786
852.973	4904
853.107	4919
853.242	4710
853.376	4645
853.511	4558
853.645	4584
853.78	4782
853.914	4683
854.048	4679
854.183	4672
854.317	4679
854.451	4805
854.585	4675
854.72	4607
854.854	4714
854.988	4596
855.122	4687
855.256	4516
855.39	4668
855.524	4759
855.658	4752
855.792	4660
855.926	4694
856.06	4759
856.194	4752
856.327	4725
856.461	4626
856.595	4596
856.729	4615
856.862	4778
856.996	4653
857.13	4721
857.263	4721
857.397	4820
857.53	4630
857.664	4771
857.797	4725
857.931	4759
858.064	4668
858.197	4733
858.331	4656
858.464	4561
858.597	4485
858.731	4634
858.864	4592
858.997	4599
859.13	4679
859.263	4660
859.396	4679
859.529	4580
859.662	4565
859.795	4489
859.928	4649
860.061	4755
860.194	4790
860.327	4611
860.46	4523
860.592	4656
860.725	4664
860.858	4698
860.99	4573
861.123	4546
861.256	4535
861.388	4599
861.521	5277
861.653	4451
861.786	4443
861.918	4447
862.05	4573
862.183	4573
862.315	4618
862.447	4630
862.58	4561
862.712	4447
862.844	4314
862.976	4436
863.108	4500
863.24	4915
863.372	4367
863.504	4436
863.636	4394
863.768	4455
863.9	4405
864.032	4363
864.164	4402
864.296	4512
864.428	4561
864.559	4546
864.691	4508
864.823	4527
864.954	4481
865.086	4512
865.217	4455
865.349	4443
865.48	4462
865.612	4497
865.743	4626
865.875	4459
866.006	4405
866.137	4443
866.269	4424
866.4	4470
866.531	4424
866.662	4402
866.793	4402
866.924	4432
867.055	4440
867.186	4470
867.317	4409
867.448	4367
867.579	4344
867.71	4390
867.841	4363
867.972	4428
868.103	4413
868.233	4451
868.364	4421
868.495	4516
868.625	4649
868.756	4714
868.886	4546
869.017	4584
869.147	4767
869.278	4771
869.408	4656
869.539	4569
869.669	4691
869.799	4664
869.929	4736
870.06	4698
870.19	4949
870.32	4942
870.45	4881
870.58	5014
870.71	5098
870.84	5090
870.97	4919
871.1	4892
871.23	5064
871.36	5064
871.489	5025
871.619	5029
871.749	5086
871.879	5090
872.008	5140
872.138	5010
872.267	4965
872.397	4850
872.526	4786
872.656	4702
872.785	4774
872.915	4938
873.044	5045
873.173	4908
873.303	4934
873.432	4980
873.561	4946
873.69	4839
873.819	4820
873.948	4839
874.077	4816
874.206	4729
874.335	4797
874.464	4862
874.593	5014
874.722	4942
874.851	5048
874.979	5083
875.108	5052
875.237	4915
875.365	4843
875.494	4870
875.623	4965
875.751	4809
875.88	4809
876.008	4972
876.136	4999
876.265	5189
876.393	5326
876.521	5235
876.65	5239
876.778	5151
876.906	5056
877.034	5037
877.162	5060
877.29	4987
877.418	5052
877.546	5037
877.674	4972
877.802	4972
877.93	5056
878.058	4930
878.185	4885
878.313	4961
878.441	4942
878.568	4816
878.696	4847
878.824	4930
878.951	4972
879.079	5128
879.206	5269
879.333	5090
879.461	4999
879.588	4965
879.715	5102
879.842	5204
879.97	4991
880.097	4839
880.224	4733
880.351	4774
880.478	4820
880.605	4767
880.732	4736
880.859	5052
880.986	4831
881.112	4858
881.239	4831
881.366	4668
881.493	4599
881.619	4592
881.746	4592
881.872	4626
881.999	4668
882.125	4668
882.252	4782
882.378	4835
882.505	4961
882.631	4782
882.757	4675
882.883	4717
883.01	4725
883.136	4675
883.262	4569
883.388	4622
883.514	4839
883.64	4866
883.766	4744
883.892	4630
884.018	4710
884.143	4900
884.269	4957
884.395	4664
884.52	4611
884.646	4645
884.772	4622
884.897	4580
885.023	4630
885.148	4771
885.274	4885
885.399	4805
885.524	4714
885.65	4653
885.775	4729
885.9	4641
886.025	4923
886.15	4763
886.275	4725
886.4	4664
886.525	4714
886.65	4672
886.775	4698
886.9	4930
887.025	5018
887.149	4835
887.274	4615
887.399	4573
887.523	4546
887.648	4577
887.773	4554
887.897	4744
888.021	4771
888.146	4694
888.27	4790
888.395	4915
888.519	4740
888.643	4755
888.767	4839
888.891	4649
889.015	4561
889.139	4668
889.263	4596
889.387	4736
889.511	4839
889.635	4736
889.759	4611
889.883	4618
890.006	4706
890.13	4820
890.254	4611
890.377	4679
890.501	4516
890.624	4493
890.748	4618
890.871	4489
890.995	4409
891.118	4390
891.241	4519
891.364	4512
891.488	4596
891.611	4455
891.734	4523
891.857	4634
891.98	4569
892.103	4694
892.226	4607
892.349	4504
892.471	4379
892.594	4489
892.717	4599
892.839	4531
892.962	4611
893.085	4653
893.207	4592
893.33	4462
893.452	4527
893.575	4656
893.697	4588
893.819	4763
893.941	4820
894.064	4790
894.186	4561
894.308	4546
894.43	4694
894.552	4805
894.674	4782
894.796	4580
894.918	4592
895.04	4569
895.161	4710
895.283	4679
895.405	4554
895.526	4607
895.648	4679
895.769	4683
895.891	4710
896.012	4675
896.134	4706
896.255	4634
896.376	4607
896.498	4634
896.619	4664
896.74	4603
896.861	4618
896.982	4934
897.103	5052
897.224	4835
897.345	4759
897.466	4630
897.587	4729
897.708	4801
897.828	4771
897.949	4656
898.07	4519
898.19	4637
898.311	4831
898.431	4683
898.552	4698
898.672	4805
898.792	4805
898.913	4755
899.033	4641
899.153	4508
899.273	4421
899.393	4485
899.513	4531
899.633	4523
899.753	4561
899.873	4470
899.993	4573
900.113	4527
900.232	4527
900.352	4550
900.472	4478
900.591	4405
900.711	4466
900.83	4417
900.95	4603
901.069	4656
901.189	4577
901.308	4398
901.427	4287
901.546	4329
901.665	4440
901.784	4481
901.904	4348
902.023	4299
902.141	4154
902.26	4188
902.379	4276
902.498	4276
902.617	4246
902.735	4394
902.854	4360
902.973	4341
903.091	4192
903.21	4211
903.328	4249
903.446	4284
903.565	4227
903.683	4363
903.801	4257
903.919	4375
904.038	4417
904.156	4322
904.274	4390
904.392	4405
904.51	4394
904.627	4451
904.745	4550
904.863	4588
904.981	4375
905.098	4303
905.216	4360
905.334	4390
905.451	4447
905.569	4428
905.686	4554
905.803	4527
905.921	4390
906.038	4538
906.155	4497
906.272	4421
906.389	4474
906.506	4291
906.623	4367
906.74	4402
906.857	4322
906.974	4375
907.091	4531
907.208	4691
907.324	4599
907.441	4447
907.557	4344
907.674	4348
907.79	4322
907.907	4337
908.023	4462
908.139	4481
908.256	4421
908.372	4462
908.488	4474
908.604	4325
908.72	4303
908.836	4322
908.952	4341
909.068	4462
909.184	4592
909.3	4500
909.415	4577
909.531	4546
909.647	4352
909.762	4348
909.878	4322
909.993	4421
910.108	4432
910.224	4360
910.339	4466
910.454	4424
910.57	4329
910.685	4329
910.8	4649
910.915	4565
911.03	4451
911.145	4318
911.259	4337
911.374	4341
911.489	4337
911.604	4268
911.718	4211
911.833	4181
911.947	4082
912.062	4006
912.176	4211
912.291	4207
912.405	4207
912.519	4489
912.633	4489
912.748	4329
912.862	4265
912.976	4215
913.09	4090
913.204	4207
913.318	4249
913.431	4337
913.545	4352
913.659	4443
913.772	4314
913.886	4215
914	4200
914.113	4341
914.226	4443
914.34	4413
914.453	4200
914.566	4451
914.68	4306
914.793	4348
914.906	4162
915.019	4059
915.132	4051
915.245	4147
915.358	4169
915.47	4230
915.583	4238
915.696	4333
915.809	4424
915.921	4451
916.034	4265
916.146	4299
916.259	4242
916.371	4363
916.483	4367
916.595	4268
916.708	4352
916.82	4314
916.932	4314
917.044	4291
917.156	4325
917.268	4204
917.38	4257
917.491	4242
917.603	4337
917.715	4451
917.826	4417
917.938	4341
918.049	4227
918.161	4409
918.272	4554
918.384	4527
918.495	4459
918.606	4303
918.717	4249
918.828	4325
918.939	4363
919.05	4234
919.161	4344
919.272	4128
919.383	4223
919.494	4424
919.604	4634
919.715	4432
919.826	4360
919.936	4413
920.047	4489
920.157	4481
920.267	4675
920.378	4558
920.488	4470
920.598	4702
920.708	4892
920.818	4774
920.928	4748
921.038	4934
921.148	4896
921.258	4607
921.368	4592
921.477	4497
921.587	4470
921.697	4375
921.806	4523
921.916	4421
922.025	4280
922.134	4257
922.244	4219
922.353	4352
922.462	4169
922.571	4128
922.68	4021
922.789	3983
922.898	4021
923.007	3930
923.116	4086
923.224	4067
923.333	4067
923.442	4006
923.55	3972
923.659	4032
923.767	4109
923.876	3987
923.984	4112
924.092	3983
924.201	4097
924.309	4074
924.417	4143
924.525	4029
924.633	4139
924.741	5029
924.849	3922
924.956	4109
925.064	3994
925.172	3892
925.279	3987
925.387	4051
925.494	4021
925.602	4158
925.709	4188
925.816	4044
925.924	4097
926.031	4200
926.138	4154
926.245	4173
926.352	4055
926.459	4265
926.566	4337
926.673	4143
926.779	4093
926.886	4067
926.993	3953
927.099	3968
927.206	3934
927.312	3956
927.419	4059
927.525	4044
927.631	4097
927.737	3956
927.843	3937
927.95	3808
928.056	3926
928.162	3972
928.267	4029
928.373	4660
928.479	4139
928.585	3831
928.69	3983
928.796	4086
928.901	3953
929.007	3812
929.112	4029
929.218	3991
929.323	3926
929.428	3956
929.533	4112
929.638	3888
929.743	3975
929.848	4032
929.953	4013
930.058	3903
930.163	3816
930.267	3816
930.372	3964
930.477	3774
930.581	4112
930.685	3960
930.79	3835
930.894	3918
930.998	3899
931.103	4006
931.207	3743
931.311	3675
931.415	3644
931.519	3549
931.623	3523
