Data from test_V78500241_1735.txt Node
Date: Fri Mar 25 17:01:03 CST 2022
User: usil
Spectrometer: V785-0024
Trigger mode: 0
Integration Time (sec): 4.000000E-1
Scans to average: 1
Nonlinearity correction enabled: false
Boxcar width: 0
Storing dark spectrum: false
XAxis mode: Wavelengths
Number of Pixels in Spectrum: 1024
>>>>>Begin Spectral Data<<<<<
801.071	8050
801.214	7978
801.356	7860
801.499	7856
801.641	7864
801.783	7841
801.926	7974
802.068	7959
802.211	7955
802.353	7932
802.496	7814
802.638	7837
802.78	7868
802.923	7875
803.065	7875
803.208	7871
803.35	7951
803.492	8035
803.635	8172
803.777	7982
803.919	8256
804.061	8473
804.204	8103
804.346	8100
804.488	7913
804.63	8046
804.773	8008
804.915	8107
805.057	8317
805.199	8107
805.341	8187
805.483	8263
805.626	8214
805.768	8054
805.91	8218
806.052	8214
806.194	8069
806.336	8317
806.478	8142
806.62	8031
806.762	8130
806.904	8309
807.046	8511
807.188	8351
807.33	8275
807.472	8347
807.614	8176
807.756	8100
807.898	8062
808.04	7898
808.182	7906
808.324	7845
808.465	7845
808.607	8096
808.749	8100
808.891	8206
809.033	8282
809.174	8279
809.316	8073
809.458	8024
809.6	8001
809.741	8062
809.883	7993
810.025	8043
810.166	8084
810.308	7986
810.45	7993
810.591	7833
810.733	7693
810.875	7647
811.016	7472
811.158	7441
811.299	7601
811.441	7689
811.582	7658
811.724	7506
811.865	7495
812.007	7556
812.148	7540
812.29	7609
812.431	7772
812.573	7841
812.714	7967
812.855	8039
812.997	8191
813.138	8252
813.279	8153
813.421	8058
813.562	7993
813.703	7784
813.845	7727
813.986	7388
814.127	7164
814.268	7289
814.41	7156
814.551	7179
814.692	7183
814.833	7126
814.974	7095
815.115	7137
815.256	6924
815.397	6970
815.539	6939
815.68	6802
815.821	6795
815.962	6833
816.103	6791
816.244	6722
816.385	6639
816.526	6612
816.666	6578
816.807	6361
816.948	6445
817.089	6464
817.23	6437
817.371	6376
817.512	6331
817.653	6426
817.793	6365
817.934	6380
818.075	6433
818.216	6471
818.356	6376
818.497	6311
818.638	6167
818.778	6155
818.919	6136
819.06	6178
819.2	6331
819.341	6342
819.481	6365
819.622	6528
819.762	6722
819.903	6681
820.043	6570
820.184	6578
820.324	6620
820.465	6696
820.605	6658
820.746	6662
820.886	6517
821.026	6654
821.167	6700
821.307	6715
821.447	6703
821.588	6582
821.728	6521
821.868	6445
822.008	6277
822.149	6376
822.289	6319
822.429	6144
822.569	6091
822.709	6079
822.849	5893
822.99	5920
823.13	5931
823.27	5958
823.41	5786
823.55	5748
823.69	5824
823.83	5809
823.97	5668
824.11	5535
824.25	5482
824.389	5524
824.529	5581
824.669	5512
824.809	5661
824.949	5630
825.089	5585
825.228	5539
825.368	5349
825.508	5299
825.648	5402
825.787	5379
825.927	5349
826.067	5296
826.206	5292
826.346	5360
826.485	5395
826.625	5379
826.765	5547
826.904	5414
827.044	5296
827.183	5151
827.323	5117
827.462	5223
827.601	5181
827.741	5204
827.88	5193
828.02	5086
828.159	5231
828.298	5277
828.437	5379
828.577	5315
828.716	5459
828.855	5334
828.994	5162
829.134	5136
829.273	5181
829.412	5121
829.551	5083
829.69	5121
829.829	5254
829.968	5326
830.107	5277
830.246	5269
830.385	5181
830.524	5102
830.663	5018
830.802	4999
830.941	4938
831.08	4881
831.219	4980
831.357	4930
831.496	5094
831.635	4957
831.774	4847
831.913	4824
832.051	4748
832.19	4736
832.329	4824
832.467	4710
832.606	4645
832.744	4725
832.883	4698
833.022	4698
833.16	4729
833.299	4820
833.437	4786
833.576	4847
833.714	4835
833.852	4877
833.991	4892
834.129	4881
834.267	4980
834.406	4953
834.544	5014
834.682	4942
834.821	5010
834.959	5140
835.097	4965
835.235	5143
835.373	5067
835.511	5067
835.65	5025
835.788	5083
835.926	4850
836.064	4900
836.202	4908
836.34	5185
836.478	5181
836.615	5121
836.753	5159
836.891	5269
837.029	5242
837.167	5212
837.305	5170
837.443	5117
837.58	5056
837.718	5231
837.856	5181
837.993	5132
838.131	5246
838.269	5201
838.406	5174
838.544	5159
838.681	5033
838.819	5022
838.956	4862
839.094	4900
839.231	4934
839.369	5033
839.506	5383
839.643	5246
839.781	5064
839.918	5018
840.055	5132
840.193	5045
840.33	5086
840.467	5121
840.604	5147
840.742	5414
840.879	5048
841.016	5102
841.153	5159
841.29	5353
841.427	5311
841.564	5261
841.701	5322
841.838	5299
841.975	5250
842.112	5296
842.249	5098
842.385	5124
842.522	5322
842.659	5204
842.796	5102
842.933	5174
843.069	5151
843.206	5193
843.343	5292
843.479	5204
843.616	5239
843.752	5048
843.889	5003
844.025	5216
844.162	5022
844.298	5227
844.435	5048
844.571	5033
844.708	5223
844.844	5307
844.98	5353
845.117	5303
845.253	5113
845.389	5025
845.525	5155
845.661	5136
845.798	5048
845.934	5128
846.07	5037
846.206	5162
846.342	5334
846.478	5151
846.614	5018
846.75	4987
846.886	4915
847.022	5113
847.158	5018
847.294	5048
847.429	5033
847.565	5029
847.701	5303
847.837	4831
847.972	4820
848.108	4927
848.244	4961
848.379	4790
848.515	4729
848.65	4714
848.786	4759
848.921	4763
849.057	4885
849.192	4892
849.328	4797
849.463	4839
849.598	4774
849.734	4706
849.869	4679
850.004	4672
850.14	4679
850.275	4630
850.41	4554
850.545	4538
850.68	4588
850.815	4588
850.95	4649
851.085	4774
851.22	4790
851.355	4706
851.49	4592
851.625	4618
851.76	4618
851.895	4580
852.03	4542
852.165	4611
852.299	4748
852.434	4805
852.569	4725
852.703	4793
852.838	4843
852.973	4911
853.107	4934
853.242	4733
853.376	4664
853.511	4577
853.645	4634
853.78	4767
853.914	4679
854.048	4664
854.183	4607
854.317	4740
854.451	4862
854.585	4679
854.72	4637
854.854	4763
854.988	4565
855.122	4622
855.256	4508
855.39	4679
855.524	4736
855.658	4721
855.792	4736
855.926	4714
856.06	4744
856.194	4850
856.327	4664
856.461	4588
856.595	4622
856.729	4618
856.862	4733
856.996	4714
857.13	4706
857.263	4759
857.397	4812
857.53	4634
857.664	4710
857.797	4759
857.931	4771
858.064	4664
858.197	4706
858.331	4683
858.464	4592
858.597	4516
858.731	4660
858.864	4607
858.997	4592
859.13	4634
859.263	4630
859.396	4702
859.529	4512
859.662	4603
859.795	4523
859.928	4630
860.061	4759
860.194	4740
860.327	4523
860.46	4569
860.592	4694
860.725	4733
860.858	4698
860.99	4565
861.123	4504
861.256	4508
861.388	4607
861.521	5349
861.653	4493
861.786	4493
861.918	4451
862.05	4550
862.183	4535
862.315	4599
862.447	4618
862.58	4527
862.712	4383
862.844	4299
862.976	4493
863.108	4443
863.24	4854
863.372	4325
863.504	4451
863.636	4379
863.768	4493
863.9	4428
864.032	4360
864.164	4360
864.296	4474
864.428	4561
864.559	4527
864.691	4508
864.823	4565
864.954	4466
865.086	4512
865.217	4455
865.349	4432
865.48	4466
865.612	4497
865.743	4603
865.875	4481
866.006	4413
866.137	4455
866.269	4421
866.4	4413
866.531	4432
866.662	4375
866.793	4436
866.924	4424
867.055	4546
867.186	4462
867.317	4432
867.448	4390
867.579	4371
867.71	4443
867.841	4383
867.972	4485
868.103	4402
868.233	4440
868.364	4459
868.495	4489
868.625	4607
868.756	4755
868.886	4546
869.017	4626
869.147	4771
869.278	4767
869.408	4630
869.539	4649
869.669	4736
869.799	4683
869.929	4729
870.06	4755
870.19	4968
870.32	4877
870.45	4927
870.58	5003
870.71	5132
870.84	5060
870.97	4942
871.1	4889
871.23	5128
871.36	5124
871.489	5018
871.619	5094
871.749	5151
871.879	5159
872.008	5159
872.138	5018
872.267	4976
872.397	4831
872.526	4805
872.656	4736
872.785	4786
872.915	4999
873.044	4984
873.173	4930
873.303	4927
873.432	4911
873.561	4938
873.69	4877
873.819	4839
873.948	4927
874.077	4801
874.206	4744
874.335	4805
874.464	4896
874.593	5079
874.722	4942
874.851	5071
874.979	5067
875.108	5006
875.237	4953
875.365	4828
875.494	4839
875.623	4968
875.751	4850
875.88	4870
876.008	4961
876.136	4984
876.265	5204
876.393	5349
876.521	5254
876.65	5223
876.778	5174
876.906	5052
877.034	5071
877.162	4995
877.29	4961
877.418	5029
877.546	4995
877.674	4987
877.802	5022
877.93	5041
878.058	4923
878.185	4847
878.313	4938
878.441	4885
878.568	4805
878.696	4858
878.824	4938
878.951	4995
879.079	5102
879.206	5303
879.333	5098
879.461	4968
879.588	4984
879.715	5121
879.842	5235
879.97	4961
880.097	4752
880.224	4782
880.351	4755
880.478	4782
880.605	4801
880.732	4801
880.859	5083
880.986	4927
881.112	4896
881.239	4812
881.366	4687
881.493	4603
881.619	4546
881.746	4664
881.872	4679
881.999	4660
882.125	4668
882.252	4771
882.378	4748
882.505	4919
882.631	4733
882.757	4656
882.883	4710
883.01	4759
883.136	4626
883.262	4569
883.388	4596
883.514	4820
883.64	4839
883.766	4847
883.892	4675
884.018	4710
884.143	4873
884.269	4965
884.395	4672
884.52	4634
884.646	4603
884.772	4622
884.897	4550
885.023	4687
885.148	4755
885.274	4854
885.399	4831
885.524	4729
885.65	4702
885.775	4778
885.9	4672
886.025	4873
886.15	4752
886.275	4660
886.4	4706
886.525	4717
886.65	4683
886.775	4694
886.9	4854
887.025	5014
887.149	4816
887.274	4615
887.399	4558
887.523	4622
887.648	4538
887.773	4542
887.897	4714
888.021	4744
888.146	4584
888.27	4801
888.395	4900
888.519	4824
888.643	4831
888.767	4850
888.891	4687
889.015	4558
889.139	4615
889.263	4611
889.387	4778
889.511	4839
889.635	4782
889.759	4634
889.883	4668
890.006	4721
890.13	4793
890.254	4622
890.377	4664
890.501	4508
890.624	4519
890.748	4641
890.871	4558
890.995	4390
891.118	4413
891.241	4538
891.364	4485
891.488	4577
891.611	4489
891.734	4516
891.857	4569
891.98	4565
892.103	4618
892.226	4565
892.349	4538
892.471	4440
892.594	4554
892.717	4592
892.839	4561
892.962	4523
893.085	4698
893.207	4592
893.33	4443
893.452	4512
893.575	4664
893.697	4573
893.819	4790
893.941	4843
894.064	4717
894.186	4580
894.308	4527
894.43	4744
894.552	4835
894.674	4725
894.796	4550
894.918	4596
895.04	4573
895.161	4748
895.283	4660
895.405	4554
895.526	4615
895.648	4675
895.769	4672
895.891	4660
896.012	4668
896.134	4744
896.255	4691
896.376	4592
896.498	4622
896.619	4702
896.74	4626
896.861	4626
896.982	4908
897.103	5109
897.224	4816
897.345	4725
897.466	4656
897.587	4748
897.708	4881
897.828	4759
897.949	4668
898.07	4561
898.19	4611
898.311	4850
898.431	4660
898.552	4736
898.672	4824
898.792	4782
898.913	4763
899.033	4618
899.153	4497
899.273	4424
899.393	4512
899.513	4508
899.633	4523
899.753	4558
899.873	4512
899.993	4573
900.113	4493
900.232	4615
900.352	4508
900.472	4504
900.591	4432
900.711	4493
900.83	4432
900.95	4630
901.069	4656
901.189	4577
901.308	4371
901.427	4306
901.546	4390
901.665	4485
901.784	4481
901.904	4367
902.023	4322
902.141	4177
902.26	4169
902.379	4306
902.498	4280
902.617	4276
902.735	4394
902.854	4436
902.973	4371
903.091	4169
903.21	4219
903.328	4280
903.446	4291
903.565	4265
903.683	4337
903.801	4284
903.919	4379
904.038	4421
904.156	4322
904.274	4421
904.392	4424
904.51	4428
904.627	4478
904.745	4527
904.863	4599
904.981	4443
905.098	4284
905.216	4390
905.334	4417
905.451	4432
905.569	4405
905.686	4577
905.803	4588
905.921	4402
906.038	4577
906.155	4516
906.272	4424
906.389	4443
906.506	4329
906.623	4360
906.74	4390
906.857	4337
906.974	4360
907.091	4546
907.208	4710
907.324	4584
907.441	4489
907.557	4306
907.674	4341
907.79	4318
907.907	4333
908.023	4493
908.139	4432
908.256	4405
908.372	4455
908.488	4481
908.604	4333
908.72	4318
908.836	4386
908.952	4394
909.068	4413
909.184	4565
909.3	4481
909.415	4569
909.531	4512
909.647	4371
909.762	4390
909.878	4348
909.993	4440
910.108	4398
910.224	4451
910.339	4447
910.454	4405
910.57	4386
910.685	4318
910.8	4622
910.915	4577
911.03	4398
911.145	4306
911.259	4299
911.374	4337
911.489	4261
911.604	4246
911.718	4185
911.833	4227
911.947	4036
912.062	4013
912.176	4234
912.291	4196
912.405	4257
912.519	4500
912.633	4504
912.748	4371
912.862	4341
912.976	4196
913.09	4078
913.204	4192
913.318	4242
913.431	4352
913.545	4398
913.659	4424
913.772	4371
913.886	4257
914	4219
914.113	4360
914.226	4405
914.34	4371
914.453	4219
914.566	4466
914.68	4318
914.793	4325
914.906	4143
915.019	4173
915.132	4109
915.245	4196
915.358	4196
915.47	4268
915.583	4234
915.696	4272
915.809	4375
915.921	4379
916.034	4280
916.146	4253
916.259	4215
916.371	4394
916.483	4356
916.595	4257
916.708	4333
916.82	4344
916.932	4329
917.044	4291
917.156	4284
917.268	4238
917.38	4268
917.491	4257
917.603	4322
917.715	4443
917.826	4436
917.938	4325
918.049	4246
918.161	4360
918.272	4546
918.384	4481
918.495	4478
918.606	4268
918.717	4219
918.828	4310
918.939	4318
919.05	4242
919.161	4306
919.272	4135
919.383	4204
919.494	4402
919.604	4649
919.715	4390
919.826	4314
919.936	4371
920.047	4512
920.157	4470
920.267	4679
920.378	4481
920.488	4497
920.598	4702
920.708	4877
920.818	4725
920.928	4725
921.038	4968
921.148	4919
921.258	4641
921.368	4561
921.477	4519
921.587	4459
921.697	4371
921.806	4558
921.916	4428
922.025	4280
922.134	4223
922.244	4249
922.353	4253
922.462	4131
922.571	4139
922.68	3960
922.789	3964
922.898	4006
923.007	4032
923.116	4101
923.224	4044
923.333	4082
923.442	3987
923.55	3987
923.659	4051
923.767	4090
923.876	3983
923.984	4131
924.092	3941
924.201	4086
924.309	4059
924.417	4063
924.525	4055
924.633	4131
924.741	4873
924.849	3922
924.956	4074
925.064	3964
925.172	3876
925.279	3979
925.387	4029
925.494	4078
925.602	4162
925.709	4188
925.816	4013
925.924	4128
926.031	4204
926.138	4185
926.245	4204
926.352	4097
926.459	4227
926.566	4314
926.673	4154
926.779	4044
926.886	4086
926.993	3987
927.099	3953
927.206	3956
927.312	3918
927.419	4074
927.525	4048
927.631	4082
927.737	4025
927.843	3930
927.95	3838
928.056	3972
928.162	3968
928.267	4059
928.373	4656
928.479	4124
928.585	3930
928.69	4010
928.796	4067
928.901	3922
929.007	3857
929.112	3998
929.218	3964
929.323	3937
929.428	3930
929.533	4086
929.638	3888
929.743	4002
929.848	4090
929.953	4025
930.058	3953
930.163	3766
930.267	3819
930.372	3991
930.477	3804
930.581	4059
930.685	3987
930.79	3838
930.894	3846
930.998	3842
931.103	4074
931.207	3717
931.311	3682
931.415	3648
931.519	3488
931.623	3549
