Data from test_V78500241_466.txt Node
Date: Fri Mar 25 16:52:14 CST 2022
User: usil
Spectrometer: V785-0024
Trigger mode: 0
Integration Time (sec): 4.000000E-1
Scans to average: 1
Nonlinearity correction enabled: false
Boxcar width: 0
Storing dark spectrum: false
XAxis mode: Wavelengths
Number of Pixels in Spectrum: 1024
>>>>>Begin Spectral Data<<<<<
801.071	8016
801.214	8016
801.356	7868
801.499	7837
801.641	7799
801.783	7849
801.926	8027
802.068	7932
802.211	8058
802.353	8008
802.496	7871
802.638	7887
802.78	7875
802.923	7894
803.065	7883
803.208	7814
803.35	7936
803.492	8001
803.635	8084
803.777	8012
803.919	8103
804.061	8328
804.204	8084
804.346	7955
804.488	8008
804.63	8043
804.773	7913
804.915	8062
805.057	8271
805.199	8168
805.341	8229
805.483	8187
805.626	8248
805.768	7997
805.91	8115
806.052	8119
806.194	8058
806.336	8290
806.478	8096
806.62	8092
806.762	8103
806.904	8229
807.046	8415
807.188	8290
807.33	8225
807.472	8298
807.614	8115
807.756	8134
807.898	8020
808.04	7841
808.182	7940
808.324	7871
808.465	7833
808.607	8065
808.749	8065
808.891	8199
809.033	8279
809.174	8187
809.316	8092
809.458	8035
809.6	7993
809.741	8046
809.883	8043
810.025	8027
810.166	8031
810.308	8039
810.45	7989
810.591	7894
810.733	7734
810.875	7696
811.016	7521
811.158	7548
811.299	7658
811.441	7723
811.582	7636
811.724	7655
811.865	7575
812.007	7597
812.148	7639
812.29	7658
812.431	7723
812.573	7906
812.714	8100
812.855	8164
812.997	8248
813.138	8377
813.279	8115
813.421	8111
813.562	8081
813.703	7955
813.845	7776
813.986	7502
814.127	7282
814.268	7331
814.41	7232
814.551	7171
814.692	7236
814.833	7107
814.974	7168
815.115	7129
815.256	6913
815.397	6954
815.539	6973
815.68	6863
815.821	6791
815.962	6878
816.103	6837
816.244	6715
816.385	6635
816.526	6623
816.666	6525
816.807	6311
816.948	6471
817.089	6471
817.23	6429
817.371	6376
817.512	6304
817.653	6338
817.793	6460
817.934	6429
818.075	6437
818.216	6437
818.356	6376
818.497	6258
818.638	6095
818.778	6098
818.919	6072
819.06	6095
819.2	6308
819.341	6262
819.481	6361
819.622	6486
819.762	6753
819.903	6722
820.043	6574
820.184	6589
820.324	6563
820.465	6726
820.605	6589
820.746	6665
820.886	6563
821.026	6673
821.167	6722
821.307	6764
821.447	6772
821.588	6707
821.728	6547
821.868	6475
822.008	6296
822.149	6429
822.289	6422
822.429	6159
822.569	6106
822.709	6057
822.849	5942
822.99	5923
823.13	5916
823.27	5889
823.41	5805
823.55	5863
823.69	5748
823.83	5779
823.97	5699
824.11	5562
824.25	5512
824.389	5570
824.529	5573
824.669	5493
824.809	5665
824.949	5630
825.089	5608
825.228	5539
825.368	5357
825.508	5315
825.648	5311
825.787	5391
825.927	5410
826.067	5296
826.206	5379
826.346	5364
826.485	5372
826.625	5425
826.765	5547
826.904	5429
827.044	5220
827.183	5193
827.323	5102
827.462	5265
827.601	5185
827.741	5147
827.88	5212
828.02	5132
828.159	5269
828.298	5239
828.437	5376
828.577	5269
828.716	5478
828.855	5337
828.994	5265
829.134	5136
829.273	5185
829.412	5185
829.551	5113
829.69	5147
829.829	5231
829.968	5349
830.107	5284
830.246	5269
830.385	5162
830.524	5102
830.663	5132
830.802	4999
830.941	4892
831.08	4877
831.219	5018
831.357	4995
831.496	5178
831.635	4938
831.774	4870
831.913	4812
832.051	4748
832.19	4778
832.329	4862
832.467	4698
832.606	4641
832.744	4733
832.883	4736
833.022	4744
833.16	4767
833.299	4805
833.437	4854
833.576	4843
833.714	4835
833.852	4870
833.991	4870
834.129	4942
834.267	4946
834.406	4923
834.544	4991
834.682	4991
834.821	4957
834.959	5166
835.097	4965
835.235	5113
835.373	5086
835.511	5117
835.65	5025
835.788	5048
835.926	4930
836.064	4881
836.202	4892
836.34	5201
836.478	5239
836.615	5128
836.753	5246
836.891	5258
837.029	5216
837.167	5155
837.305	5136
837.443	5166
837.58	5041
837.718	5201
837.856	5181
837.993	5124
838.131	5269
838.269	5258
838.406	5189
838.544	5174
838.681	5018
838.819	5037
838.956	4934
839.094	4934
839.231	4961
839.369	5025
839.506	5444
839.643	5288
839.781	5052
839.918	5014
840.055	5124
840.193	5064
840.33	5105
840.467	5170
840.604	5189
840.742	5425
840.879	5105
841.016	5060
841.153	5098
841.29	5364
841.427	5337
841.564	5349
841.701	5326
841.838	5239
841.975	5254
842.112	5292
842.249	5159
842.385	5109
842.522	5315
842.659	5132
842.796	5136
842.933	5189
843.069	5140
843.206	5151
843.343	5239
843.479	5204
843.616	5258
843.752	5037
843.889	5064
844.025	5181
844.162	5041
844.298	5208
844.435	5079
844.571	5060
844.708	5197
844.844	5299
844.98	5345
845.117	5269
845.253	5170
845.389	5052
845.525	5197
845.661	5140
845.798	5048
845.934	5083
846.07	5090
846.206	5216
846.342	5269
846.478	5166
846.614	5048
846.75	4972
846.886	4957
847.022	5147
847.158	4991
847.294	5083
847.429	5083
847.565	5086
847.701	5334
847.837	4843
847.972	4820
848.108	4942
848.244	4919
848.379	4752
848.515	4714
848.65	4729
848.786	4740
848.921	4744
849.057	4820
849.192	4911
849.328	4828
849.463	4866
849.598	4828
849.734	4767
849.869	4668
850.004	4653
850.14	4668
850.275	4618
850.41	4523
850.545	4577
850.68	4596
850.815	4656
850.95	4626
851.085	4839
851.22	4736
851.355	4668
851.49	4588
851.625	4618
851.76	4596
851.895	4580
852.03	4542
852.165	4691
852.299	4717
852.434	4797
852.569	4782
852.703	4831
852.838	4793
852.973	4938
853.107	4858
853.242	4672
853.376	4630
853.511	4573
853.645	4641
853.78	4801
853.914	4748
854.048	4683
854.183	4664
854.317	4706
854.451	4820
854.585	4714
854.72	4660
854.854	4748
854.988	4637
855.122	4672
855.256	4497
855.39	4664
855.524	4797
855.658	4691
855.792	4683
855.926	4714
856.06	4805
856.194	4820
856.327	4672
856.461	4599
856.595	4569
856.729	4626
856.862	4771
856.996	4698
857.13	4736
857.263	4816
857.397	4748
857.53	4611
857.664	4668
857.797	4706
857.931	4778
858.064	4729
858.197	4687
858.331	4668
858.464	4573
858.597	4527
858.731	4637
858.864	4607
858.997	4611
859.13	4656
859.263	4679
859.396	4656
859.529	4546
859.662	4577
859.795	4535
859.928	4630
860.061	4771
860.194	4793
860.327	4596
860.46	4523
860.592	4694
860.725	4717
860.858	4694
860.99	4550
861.123	4489
861.256	4527
861.388	4641
861.521	5341
861.653	4478
861.786	4440
861.918	4481
862.05	4485
862.183	4546
862.315	4561
862.447	4656
862.58	4546
862.712	4390
862.844	4314
862.976	4481
863.108	4451
863.24	4816
863.372	4329
863.504	4405
863.636	4455
863.768	4500
863.9	4455
864.032	4360
864.164	4379
864.296	4478
864.428	4481
864.559	4603
864.691	4523
864.823	4512
864.954	4493
865.086	4485
865.217	4474
865.349	4432
865.48	4447
865.612	4466
865.743	4580
865.875	4481
866.006	4451
866.137	4447
866.269	4451
866.4	4428
866.531	4428
866.662	4386
866.793	4428
866.924	4428
867.055	4504
867.186	4459
867.317	4421
867.448	4459
867.579	4363
867.71	4379
867.841	4356
867.972	4462
868.103	4485
868.233	4413
868.364	4428
868.495	4478
868.625	4664
868.756	4717
868.886	4565
869.017	4622
869.147	4793
869.278	4771
869.408	4664
869.539	4683
869.669	4729
869.799	4603
869.929	4725
870.06	4694
870.19	4930
870.32	4892
870.45	4896
870.58	4972
870.71	5109
870.84	5083
870.97	4934
871.1	4892
871.23	5128
871.36	5136
871.489	5033
871.619	5064
871.749	5067
871.879	5121
872.008	5162
872.138	5071
872.267	4976
872.397	4870
872.526	4809
872.656	4683
872.785	4778
872.915	4949
873.044	5086
873.173	4934
873.303	4957
873.432	4919
873.561	4987
873.69	4824
873.819	4885
873.948	4949
874.077	4858
874.206	4752
874.335	4805
874.464	4854
874.593	5052
874.722	4972
874.851	5121
874.979	5086
875.108	5086
875.237	4927
875.365	4854
875.494	4919
875.623	4961
875.751	4843
875.88	4889
876.008	4965
876.136	5045
876.265	5201
876.393	5318
876.521	5280
876.65	5242
876.778	5147
876.906	5109
877.034	5064
877.162	5052
877.29	5067
877.418	5071
877.546	5086
877.674	5132
877.802	5067
877.93	5067
878.058	4938
878.185	4889
878.313	4999
878.441	5010
878.568	4873
878.696	4942
878.824	5056
878.951	5071
879.079	5201
879.206	5337
879.333	5136
879.461	5033
879.588	5094
879.715	5143
879.842	5265
879.97	5083
880.097	4801
880.224	4759
880.351	4858
880.478	4881
880.605	4816
880.732	4885
880.859	5159
880.986	4923
881.112	4953
881.239	4831
881.366	4729
881.493	4645
881.619	4706
881.746	4721
881.872	4675
881.999	4763
882.125	4717
882.252	4805
882.378	4862
882.505	5029
882.631	4870
882.757	4736
882.883	4771
883.01	4752
883.136	4736
883.262	4683
883.388	4664
883.514	4839
883.64	4938
883.766	4831
883.892	4698
884.018	4847
884.143	4946
884.269	5048
884.395	4725
884.52	4615
884.646	4687
884.772	4634
884.897	4588
885.023	4774
885.148	4828
885.274	4915
885.399	4892
885.524	4702
885.65	4759
885.775	4835
885.9	4778
886.025	4881
886.15	4812
886.275	4782
886.4	4679
886.525	4805
886.65	4744
886.775	4698
886.9	5003
887.025	5064
887.149	4809
887.274	4691
887.399	4668
887.523	4664
887.648	4683
887.773	4645
887.897	4793
888.021	4820
888.146	4698
888.27	4847
888.395	4957
888.519	4805
888.643	4820
888.767	4873
888.891	4721
889.015	4656
889.139	4702
889.263	4660
889.387	4820
889.511	4908
889.635	4858
889.759	4630
889.883	4656
890.006	4812
890.13	4847
890.254	4679
890.377	4717
890.501	4599
890.624	4512
890.748	4656
890.871	4569
890.995	4451
891.118	4421
891.241	4580
891.364	4592
891.488	4683
891.611	4497
891.734	4577
891.857	4634
891.98	4542
892.103	4755
892.226	4660
892.349	4512
892.471	4466
892.594	4584
892.717	4615
892.839	4580
892.962	4634
893.085	4706
893.207	4630
893.33	4447
893.452	4558
893.575	4729
893.697	4645
893.819	4816
893.941	4839
894.064	4854
894.186	4588
894.308	4603
894.43	4778
894.552	4831
894.674	4744
894.796	4546
894.918	4641
895.04	4630
895.161	4721
895.283	4698
895.405	4637
895.526	4702
895.648	4744
895.769	4740
895.891	4759
896.012	4725
896.134	4763
896.255	4721
896.376	4656
896.498	4672
896.619	4725
896.74	4721
896.861	4683
896.982	4927
897.103	5113
897.224	4850
897.345	4793
897.466	4698
897.587	4771
897.708	4892
897.828	4809
897.949	4694
898.07	4596
898.19	4706
898.311	4831
898.431	4740
898.552	4801
898.672	4812
898.792	4881
898.913	4767
899.033	4641
899.153	4542
899.273	4523
899.393	4577
899.513	4584
899.633	4611
899.753	4626
899.873	4481
899.993	4618
900.113	4569
900.232	4603
900.352	4580
900.472	4577
900.591	4432
900.711	4531
900.83	4504
900.95	4687
901.069	4755
901.189	4584
901.308	4417
901.427	4341
901.546	4474
901.665	4489
901.784	4569
901.904	4413
902.023	4375
902.141	4223
902.26	4196
902.379	4348
902.498	4329
902.617	4299
902.735	4455
902.854	4402
902.973	4386
903.091	4257
903.21	4242
903.328	4318
903.446	4360
903.565	4306
903.683	4394
903.801	4322
903.919	4428
904.038	4489
904.156	4379
904.274	4462
904.392	4386
904.51	4459
904.627	4474
904.745	4592
904.863	4630
904.981	4485
905.098	4394
905.216	4379
905.334	4451
905.451	4504
905.569	4440
905.686	4607
905.803	4599
905.921	4413
906.038	4588
906.155	4527
906.272	4455
906.389	4493
906.506	4402
906.623	4409
906.74	4428
906.857	4325
906.974	4394
907.091	4603
907.208	4702
907.324	4599
907.441	4531
907.557	4432
907.674	4386
907.79	4341
907.907	4459
908.023	4546
908.139	4542
908.256	4497
908.372	4558
908.488	4474
908.604	4363
908.72	4341
908.836	4402
908.952	4405
909.068	4481
909.184	4607
909.3	4478
909.415	4618
909.531	4580
909.647	4402
909.762	4421
909.878	4379
909.993	4440
910.108	4417
910.224	4451
910.339	4489
910.454	4402
910.57	4398
910.685	4287
910.8	4656
910.915	4596
911.03	4527
911.145	4371
911.259	4333
911.374	4394
911.489	4325
911.604	4276
911.718	4166
911.833	4246
911.947	4147
912.062	4112
912.176	4242
912.291	4261
912.405	4276
912.519	4485
912.633	4531
912.748	4375
912.862	4344
912.976	4238
913.09	4116
913.204	4196
913.318	4303
913.431	4394
913.545	4405
913.659	4402
913.772	4363
913.886	4265
914	4268
914.113	4386
914.226	4466
914.34	4394
914.453	4276
914.566	4466
914.68	4348
914.793	4375
914.906	4147
915.019	4150
915.132	4067
915.245	4230
915.358	4295
915.47	4268
915.583	4314
915.696	4344
915.809	4459
915.921	4508
916.034	4329
916.146	4284
916.259	4215
916.371	4375
916.483	4386
916.595	4291
916.708	4325
916.82	4356
916.932	4409
917.044	4344
917.156	4375
917.268	4280
917.38	4299
917.491	4276
917.603	4360
917.715	4459
917.826	4421
917.938	4348
918.049	4314
918.161	4402
918.272	4573
918.384	4558
918.495	4470
918.606	4299
918.717	4242
918.828	4344
918.939	4394
919.05	4303
919.161	4394
919.272	4181
919.383	4261
919.494	4481
919.604	4668
919.715	4455
919.826	4428
919.936	4455
920.047	4561
920.157	4542
920.267	4694
920.378	4577
920.488	4523
920.598	4748
920.708	4900
920.818	4809
920.928	4805
921.038	5006
921.148	4953
921.258	4637
921.368	4569
921.477	4527
921.587	4497
921.697	4421
921.806	4592
921.916	4440
922.025	4295
922.134	4291
922.244	4280
922.353	4371
922.462	4207
922.571	4116
922.68	4074
922.789	3983
922.898	4025
923.007	4006
923.116	4128
923.224	4074
923.333	4128
923.442	4025
923.55	4044
923.659	4063
923.767	4112
923.876	4059
923.984	4166
924.092	4010
924.201	4086
924.309	4131
924.417	4158
924.525	4067
924.633	4090
924.741	5071
924.849	3953
924.956	4128
925.064	3975
925.172	3915
925.279	3975
925.387	4101
925.494	4097
925.602	4227
925.709	4185
925.816	4074
925.924	4219
926.031	4211
926.138	4215
926.245	4253
926.352	4090
926.459	4284
926.566	4314
926.673	4211
926.779	4071
926.886	4116
926.993	3991
927.099	3926
927.206	3918
927.312	3907
927.419	4086
927.525	4059
927.631	4109
927.737	3983
927.843	4002
927.95	3903
928.056	3975
928.162	4010
928.267	4086
928.373	4755
928.479	4090
928.585	3918
928.69	4029
928.796	4071
928.901	3964
929.007	3907
929.112	3987
929.218	4013
929.323	3934
929.428	3930
929.533	4109
929.638	3896
929.743	3975
929.848	4002
929.953	4017
930.058	4002
930.163	3816
930.267	3831
930.372	3979
930.477	3880
930.581	4109
930.685	3975
930.79	3850
930.894	3899
930.998	3873
931.103	4074
931.207	3720
931.311	3705
931.415	3686
931.519	3504
931.623	3584
