Data from test_V78500241_365.txt Node
Date: Fri Mar 25 16:51:32 CST 2022
User: usil
Spectrometer: V785-0024
Trigger mode: 0
Integration Time (sec): 4.000000E-1
Scans to average: 1
Nonlinearity correction enabled: false
Boxcar width: 0
Storing dark spectrum: false
XAxis mode: Wavelengths
Number of Pixels in Spectrum: 1024
>>>>>Begin Spectral Data<<<<<
801.071	8115
801.214	8062
801.356	7928
801.499	7909
801.641	7772
801.783	7792
801.926	7932
802.068	7940
802.211	7986
802.353	8005
802.496	7898
802.638	7974
802.78	7925
802.923	7947
803.065	7875
803.208	7921
803.35	7906
803.492	8111
803.635	8008
803.777	7974
803.919	8107
804.061	8450
804.204	8149
804.346	8024
804.488	7928
804.63	8092
804.773	8008
804.915	8065
805.057	8313
805.199	8176
805.341	8248
805.483	8267
805.626	8199
805.768	8088
805.91	8142
806.052	8161
806.194	8100
806.336	8336
806.478	8183
806.62	8103
806.762	8183
806.904	8305
807.046	8457
807.188	8381
807.33	8298
807.472	8324
807.614	8115
807.756	8176
807.898	8031
808.04	7955
808.182	7936
808.324	7925
808.465	7970
808.607	8062
808.749	8168
808.891	8172
809.033	8275
809.174	8142
809.316	8031
809.458	8077
809.6	8035
809.741	7997
809.883	8035
810.025	8130
810.166	8202
810.308	8096
810.45	7982
810.591	7871
810.733	7742
810.875	7712
811.016	7601
811.158	7582
811.299	7696
811.441	7795
811.582	7746
811.724	7609
811.865	7582
812.007	7689
812.148	7544
812.29	7636
812.431	7712
812.573	7913
812.714	7997
812.855	8119
812.997	8248
813.138	8317
813.279	8202
813.421	8119
813.562	8058
813.703	7925
813.845	7814
813.986	7453
814.127	7354
814.268	7274
814.41	7221
814.551	7099
814.692	7175
814.833	7091
814.974	7069
815.115	7091
815.256	6939
815.397	6954
815.539	6970
815.68	6848
815.821	6749
815.962	6886
816.103	6863
816.244	6738
816.385	6681
816.526	6639
816.666	6490
816.807	6331
816.948	6441
817.089	6502
817.23	6426
817.371	6426
817.512	6365
817.653	6331
817.793	6399
817.934	6422
818.075	6460
818.216	6483
818.356	6464
818.497	6235
818.638	6110
818.778	6178
818.919	6148
819.06	6152
819.2	6338
819.341	6342
819.481	6365
819.622	6536
819.762	6707
819.903	6749
820.043	6608
820.184	6631
820.324	6574
820.465	6726
820.605	6677
820.746	6662
820.886	6490
821.026	6669
821.167	6749
821.307	6776
821.447	6779
821.588	6772
821.728	6578
821.868	6490
822.008	6357
822.149	6391
822.289	6407
822.429	6163
822.569	6110
822.709	6117
822.849	5912
822.99	5893
823.13	5939
823.27	5904
823.41	5817
823.55	5805
823.69	5783
823.83	5798
823.97	5672
824.11	5497
824.25	5524
824.389	5596
824.529	5604
824.669	5528
824.809	5634
824.949	5649
825.089	5604
825.228	5547
825.368	5436
825.508	5368
825.648	5360
825.787	5387
825.927	5391
826.067	5269
826.206	5296
826.346	5398
826.485	5391
826.625	5391
826.765	5551
826.904	5463
827.044	5292
827.183	5208
827.323	5124
827.462	5242
827.601	5151
827.741	5113
827.88	5239
828.02	5166
828.159	5231
828.298	5341
828.437	5357
828.577	5326
828.716	5516
828.855	5318
828.994	5147
829.134	5140
829.273	5189
829.412	5162
829.551	5086
829.69	5227
829.829	5235
829.968	5345
830.107	5284
830.246	5296
830.385	5155
830.524	5162
830.663	5025
830.802	5006
830.941	4915
831.08	4889
831.219	4995
831.357	4995
831.496	5166
831.635	4946
831.774	4866
831.913	4850
832.051	4725
832.19	4740
832.329	4835
832.467	4721
832.606	4679
832.744	4759
832.883	4721
833.022	4752
833.16	4801
833.299	4831
833.437	4850
833.576	4870
833.714	4930
833.852	4885
833.991	4889
834.129	4984
834.267	4987
834.406	4938
834.544	4957
834.682	4980
834.821	4999
834.959	5143
835.097	5003
835.235	5109
835.373	5086
835.511	5143
835.65	5075
835.788	4972
835.926	4930
836.064	4854
836.202	4889
836.34	5189
836.478	5227
836.615	5159
836.753	5201
836.891	5341
837.029	5273
837.167	5277
837.305	5204
837.443	5181
837.58	5090
837.718	5265
837.856	5250
837.993	5143
838.131	5250
838.269	5280
838.406	5216
838.544	5189
838.681	5064
838.819	5010
838.956	4923
839.094	4892
839.231	4957
839.369	5113
839.506	5452
839.643	5269
839.781	5056
839.918	5041
840.055	5102
840.193	5045
840.33	5094
840.467	5193
840.604	5208
840.742	5425
840.879	5105
841.016	5128
841.153	5124
841.29	5376
841.427	5357
841.564	5307
841.701	5383
841.838	5280
841.975	5239
842.112	5261
842.249	5102
842.385	5075
842.522	5322
842.659	5166
842.796	5128
842.933	5166
843.069	5147
843.206	5166
843.343	5273
843.479	5250
843.616	5315
843.752	5045
843.889	4999
844.025	5178
844.162	5022
844.298	5231
844.435	5094
844.571	5048
844.708	5174
844.844	5315
844.98	5318
845.117	5307
845.253	5155
845.389	5102
845.525	5189
845.661	5147
845.798	5056
845.934	5113
846.07	5102
846.206	5166
846.342	5318
846.478	5235
846.614	5022
846.75	5029
846.886	4934
847.022	5147
847.158	5025
847.294	5079
847.429	5105
847.565	5022
847.701	5330
847.837	4877
847.972	4831
848.108	4991
848.244	4919
848.379	4831
848.515	4752
848.65	4668
848.786	4763
848.921	4797
849.057	4911
849.192	4885
849.328	4778
849.463	4858
849.598	4790
849.734	4744
849.869	4694
850.004	4637
850.14	4664
850.275	4618
850.41	4523
850.545	4592
850.68	4592
850.815	4615
850.95	4675
851.085	4866
851.22	4755
851.355	4717
851.49	4637
851.625	4626
851.76	4664
851.895	4554
852.03	4538
852.165	4622
852.299	4736
852.434	4805
852.569	4748
852.703	4744
852.838	4854
852.973	4984
853.107	4892
853.242	4740
853.376	4679
853.511	4550
853.645	4664
853.78	4782
853.914	4679
854.048	4626
854.183	4660
854.317	4706
854.451	4847
854.585	4691
854.72	4637
854.854	4767
854.988	4573
855.122	4687
855.256	4527
855.39	4698
855.524	4786
855.658	4698
855.792	4691
855.926	4714
856.06	4759
856.194	4847
856.327	4710
856.461	4622
856.595	4558
856.729	4656
856.862	4755
856.996	4702
857.13	4740
857.263	4759
857.397	4839
857.53	4675
857.664	4782
857.797	4782
857.931	4782
858.064	4763
858.197	4759
858.331	4668
858.464	4573
858.597	4500
858.731	4649
858.864	4611
858.997	4664
859.13	4656
859.263	4675
859.396	4653
859.529	4580
859.662	4561
859.795	4558
859.928	4637
860.061	4790
860.194	4729
860.327	4618
860.46	4573
860.592	4752
860.725	4702
860.858	4668
860.99	4558
861.123	4542
861.256	4531
861.388	4596
861.521	5360
861.653	4478
861.786	4451
861.918	4478
862.05	4531
862.183	4558
862.315	4596
862.447	4645
862.58	4558
862.712	4440
862.844	4367
862.976	4500
863.108	4531
863.24	4801
863.372	4360
863.504	4440
863.636	4436
863.768	4485
863.9	4417
864.032	4375
864.164	4432
864.296	4497
864.428	4550
864.559	4569
864.691	4558
864.823	4481
864.954	4481
865.086	4535
865.217	4462
865.349	4390
865.48	4417
865.612	4531
865.743	4653
865.875	4443
866.006	4440
866.137	4466
866.269	4440
866.4	4478
866.531	4428
866.662	4398
866.793	4390
866.924	4440
867.055	4508
867.186	4474
867.317	4363
867.448	4383
867.579	4443
867.71	4428
867.841	4383
867.972	4443
868.103	4424
868.233	4440
868.364	4443
868.495	4504
868.625	4691
868.756	4721
868.886	4622
869.017	4630
869.147	4733
869.278	4816
869.408	4687
869.539	4634
869.669	4694
869.799	4660
869.929	4744
870.06	4771
870.19	4965
870.32	4927
870.45	4923
870.58	5006
870.71	5079
870.84	5117
870.97	4946
871.1	4911
871.23	5170
871.36	5143
871.489	5006
871.619	5067
871.749	5052
871.879	5071
872.008	5185
872.138	5083
872.267	5037
872.397	4862
872.526	4835
872.656	4725
872.785	4828
872.915	4976
873.044	5083
873.173	4999
873.303	4953
873.432	4938
873.561	4961
873.69	4877
873.819	4847
873.948	4927
874.077	4828
874.206	4740
874.335	4778
874.464	4930
874.593	5052
874.722	4968
874.851	5071
874.979	5064
875.108	5052
875.237	4942
875.365	4923
875.494	4885
875.623	5025
875.751	4896
875.88	4873
876.008	4972
876.136	5094
876.265	5178
876.393	5402
876.521	5212
876.65	5242
876.778	5197
876.906	5113
877.034	5033
877.162	5033
877.29	5018
877.418	5079
877.546	5086
877.674	4991
877.802	5014
877.93	4984
878.058	4976
878.185	4923
878.313	4938
878.441	4987
878.568	4797
878.696	4919
878.824	4889
878.951	4984
879.079	5136
879.206	5273
879.333	5155
879.461	4991
879.588	4980
879.715	5124
879.842	5273
879.97	4995
880.097	4831
880.224	4790
880.351	4790
880.478	4824
880.605	4828
880.732	4797
880.859	5113
880.986	4919
881.112	4942
881.239	4782
881.366	4691
881.493	4641
881.619	4573
881.746	4637
881.872	4607
881.999	4687
882.125	4702
882.252	4771
882.378	4816
882.505	4961
882.631	4820
882.757	4664
882.883	4691
883.01	4736
883.136	4714
883.262	4630
883.388	4641
883.514	4809
883.64	4881
883.766	4793
883.892	4694
884.018	4733
884.143	4854
884.269	5052
884.395	4710
884.52	4649
884.646	4679
884.772	4622
884.897	4569
885.023	4630
885.148	4782
885.274	4839
885.399	4778
885.524	4755
885.65	4675
885.775	4767
885.9	4637
886.025	4896
886.15	4767
886.275	4736
886.4	4668
886.525	4736
886.65	4717
886.775	4683
886.9	4908
887.025	5048
887.149	4778
887.274	4702
887.399	4641
887.523	4603
887.648	4584
887.773	4607
887.897	4744
888.021	4812
888.146	4668
888.27	4790
888.395	4908
888.519	4839
888.643	4805
888.767	4824
888.891	4679
889.015	4660
889.139	4656
889.263	4569
889.387	4771
889.511	4896
889.635	4847
889.759	4615
889.883	4702
890.006	4672
890.13	4881
890.254	4622
890.377	4717
890.501	4577
890.624	4474
890.748	4641
890.871	4558
890.995	4394
891.118	4428
891.241	4512
891.364	4504
891.488	4626
891.611	4470
891.734	4561
891.857	4607
891.98	4573
892.103	4660
892.226	4599
892.349	4561
892.471	4443
892.594	4561
892.717	4611
892.839	4577
892.962	4588
893.085	4706
893.207	4592
893.33	4497
893.452	4481
893.575	4698
893.697	4630
893.819	4759
893.941	4828
894.064	4767
894.186	4569
894.308	4596
894.43	4736
894.552	4816
894.674	4801
894.796	4538
894.918	4603
895.04	4546
895.161	4729
895.283	4717
895.405	4611
895.526	4710
895.648	4725
895.769	4691
895.891	4733
896.012	4755
896.134	4752
896.255	4664
896.376	4622
896.498	4584
896.619	4675
896.74	4664
896.861	4672
896.982	4965
897.103	5022
897.224	4835
897.345	4755
897.466	4744
897.587	4717
897.708	4870
897.828	4790
897.949	4710
898.07	4622
898.19	4691
898.311	4831
898.431	4634
898.552	4702
898.672	4816
898.792	4839
898.913	4748
899.033	4615
899.153	4516
899.273	4383
899.393	4512
899.513	4512
899.633	4516
899.753	4462
899.873	4504
899.993	4550
900.113	4504
900.232	4596
900.352	4531
900.472	4535
900.591	4428
900.711	4497
900.83	4447
900.95	4630
901.069	4672
901.189	4538
901.308	4352
901.427	4299
901.546	4405
901.665	4466
901.784	4489
901.904	4409
902.023	4341
902.141	4188
902.26	4177
902.379	4344
902.498	4249
902.617	4234
902.735	4386
902.854	4379
902.973	4371
903.091	4223
903.21	4246
903.328	4318
903.446	4299
903.565	4253
903.683	4409
903.801	4284
903.919	4398
904.038	4466
904.156	4314
904.274	4436
904.392	4413
904.51	4409
904.627	4478
904.745	4599
904.863	4615
904.981	4398
905.098	4306
905.216	4390
905.334	4394
905.451	4466
905.569	4466
905.686	4565
905.803	4634
905.921	4424
906.038	4558
906.155	4504
906.272	4394
906.389	4447
906.506	4405
906.623	4352
906.74	4417
906.857	4329
906.974	4367
907.091	4531
907.208	4679
907.324	4607
907.441	4470
907.557	4352
907.674	4405
907.79	4329
907.907	4356
908.023	4523
908.139	4466
908.256	4466
908.372	4455
908.488	4451
908.604	4352
908.72	4337
908.836	4413
908.952	4348
909.068	4451
909.184	4668
909.3	4512
909.415	4599
909.531	4573
909.647	4325
909.762	4371
909.878	4280
909.993	4447
910.108	4459
910.224	4421
910.339	4497
910.454	4409
910.57	4341
910.685	4287
910.8	4656
910.915	4626
911.03	4523
911.145	4363
911.259	4352
911.374	4383
911.489	4310
911.604	4341
911.718	4173
911.833	4238
911.947	4090
912.062	4032
912.176	4181
912.291	4211
912.405	4272
912.519	4504
912.633	4481
912.748	4375
912.862	4276
912.976	4249
913.09	4105
913.204	4211
913.318	4287
913.431	4390
913.545	4344
913.659	4443
913.772	4337
913.886	4310
914	4185
914.113	4371
914.226	4512
914.34	4344
914.453	4192
914.566	4424
914.68	4310
914.793	4348
914.906	4128
915.019	4109
915.132	4105
915.245	4158
915.358	4227
915.47	4219
915.583	4318
915.696	4344
915.809	4375
915.921	4417
916.034	4268
916.146	4280
916.259	4261
916.371	4413
916.483	4375
916.595	4246
916.708	4333
916.82	4360
916.932	4341
917.044	4314
917.156	4337
917.268	4276
917.38	4295
917.491	4306
917.603	4337
917.715	4459
917.826	4478
917.938	4356
918.049	4291
918.161	4390
918.272	4550
918.384	4573
918.495	4500
918.606	4303
918.717	4246
918.828	4375
918.939	4367
919.05	4268
919.161	4280
919.272	4093
919.383	4227
919.494	4500
919.604	4634
919.715	4424
919.826	4367
919.936	4367
920.047	4523
920.157	4504
920.267	4694
920.378	4550
920.488	4485
920.598	4702
920.708	4877
920.818	4778
920.928	4790
921.038	4968
921.148	4915
921.258	4611
921.368	4554
921.477	4500
921.587	4451
921.697	4447
921.806	4508
921.916	4432
922.025	4318
922.134	4249
922.244	4234
922.353	4314
922.462	4173
922.571	4074
922.68	4010
922.789	3972
922.898	4025
923.007	4010
923.116	4074
923.224	4090
923.333	4036
923.442	4006
923.55	4010
923.659	4044
923.767	4105
923.876	4032
923.984	4147
924.092	4025
924.201	4078
924.309	4067
924.417	4090
924.525	4074
924.633	4101
924.741	4927
924.849	3896
924.956	4097
925.064	3983
925.172	3869
925.279	3953
925.387	4063
925.494	4036
925.602	4223
925.709	4200
925.816	4040
925.924	4154
926.031	4242
926.138	4120
926.245	4215
926.352	4101
926.459	4253
926.566	4322
926.673	4169
926.779	4074
926.886	4059
926.993	4002
927.099	4029
927.206	3960
927.312	3911
927.419	4086
927.525	4010
927.631	4112
927.737	3964
927.843	3911
927.95	3861
928.056	3953
928.162	3991
928.267	4059
928.373	4691
928.479	4158
928.585	3869
928.69	4055
928.796	4116
928.901	3964
929.007	3827
929.112	4010
929.218	3998
929.323	3998
929.428	3915
929.533	4093
929.638	3945
929.743	4010
929.848	4059
929.953	4002
930.058	3918
930.163	3785
930.267	3831
930.372	3972
930.477	3812
930.581	4074
930.685	3968
930.79	3835
930.894	3911
930.998	3861
931.103	3998
931.207	3736
931.311	3698
931.415	3667
931.519	3519
931.623	3542
