Data from test_V78500241_2012.txt Node
Date: Fri Mar 25 17:02:59 CST 2022
User: usil
Spectrometer: V785-0024
Trigger mode: 0
Integration Time (sec): 4.000000E-1
Scans to average: 1
Nonlinearity correction enabled: false
Boxcar width: 0
Storing dark spectrum: false
XAxis mode: Wavelengths
Number of Pixels in Spectrum: 1024
>>>>>Begin Spectral Data<<<<<
801.071	7970
801.214	7947
801.356	7799
801.499	7860
801.641	7704
801.783	7864
801.926	7951
802.068	7947
802.211	7974
802.353	7963
802.496	7769
802.638	7852
802.78	7799
802.923	7906
803.065	7833
803.208	7909
803.35	7883
803.492	7986
803.635	8103
803.777	8016
803.919	8145
804.061	8419
804.204	8081
804.346	8062
804.488	7959
804.63	8100
804.773	7967
804.915	8107
805.057	8320
805.199	8229
805.341	8119
805.483	8252
805.626	8191
805.768	8138
805.91	8221
806.052	8161
806.194	8084
806.336	8298
806.478	8107
806.62	8027
806.762	8130
806.904	8275
807.046	8469
807.188	8431
807.33	8279
807.472	8267
807.614	8164
807.756	8107
807.898	7986
808.04	7864
808.182	7883
808.324	7883
808.465	7887
808.607	8031
808.749	8081
808.891	8206
809.033	8313
809.174	8263
809.316	8077
809.458	8073
809.6	8077
809.741	7974
809.883	8092
810.025	8096
810.166	8065
810.308	7917
810.45	7932
810.591	7852
810.733	7677
810.875	7651
811.016	7464
811.158	7483
811.299	7582
811.441	7674
811.582	7616
811.724	7601
811.865	7548
812.007	7578
812.148	7578
812.29	7578
812.431	7731
812.573	7852
812.714	7982
812.855	8111
812.997	8240
813.138	8256
813.279	8199
813.421	8020
813.562	7982
813.703	7822
813.845	7750
813.986	7403
814.127	7187
814.268	7213
814.41	7194
814.551	7122
814.692	7232
814.833	7031
814.974	7042
815.115	7152
815.256	6962
815.397	6897
815.539	6954
815.68	6753
815.821	6692
815.962	6844
816.103	6863
816.244	6730
816.385	6612
816.526	6574
816.666	6517
816.807	6342
816.948	6418
817.089	6395
817.23	6483
817.371	6338
817.512	6361
817.653	6395
817.793	6292
817.934	6426
818.075	6426
818.216	6433
818.356	6403
818.497	6266
818.638	6083
818.778	6155
818.919	6057
819.06	6144
819.2	6308
819.341	6334
819.481	6357
819.622	6509
819.762	6688
819.903	6688
820.043	6559
820.184	6604
820.324	6635
820.465	6681
820.605	6658
820.746	6650
820.886	6513
821.026	6635
821.167	6734
821.307	6738
821.447	6715
821.588	6688
821.728	6570
821.868	6544
822.008	6331
822.149	6346
822.289	6372
822.429	6129
822.569	6045
822.709	6102
822.849	5935
822.99	5885
823.13	5984
823.27	5931
823.41	5813
823.55	5737
823.69	5726
823.83	5760
823.97	5691
824.11	5577
824.25	5512
824.389	5520
824.529	5547
824.669	5528
824.809	5581
824.949	5657
825.089	5581
825.228	5547
825.368	5398
825.508	5345
825.648	5341
825.787	5383
825.927	5379
826.067	5280
826.206	5315
826.346	5383
826.485	5349
826.625	5379
826.765	5570
826.904	5478
827.044	5254
827.183	5155
827.323	5117
827.462	5277
827.601	5151
827.741	5223
827.88	5136
828.02	5113
828.159	5280
828.298	5277
828.437	5357
828.577	5307
828.716	5402
828.855	5288
828.994	5159
829.134	5121
829.273	5143
829.412	5102
829.551	5151
829.69	5140
829.829	5242
829.968	5414
830.107	5227
830.246	5261
830.385	5155
830.524	5140
830.663	5094
830.802	4968
830.941	4908
831.08	4892
831.219	4976
831.357	4919
831.496	5132
831.635	4968
831.774	4881
831.913	4858
832.051	4725
832.19	4736
832.329	4843
832.467	4649
832.606	4653
832.744	4698
832.883	4698
833.022	4740
833.16	4740
833.299	4850
833.437	4812
833.576	4778
833.714	4786
833.852	4896
833.991	4881
834.129	4991
834.267	4930
834.406	4877
834.544	4976
834.682	5006
834.821	4942
834.959	5132
835.097	4976
835.235	5140
835.373	5102
835.511	5075
835.65	4980
835.788	5018
835.926	4908
836.064	4847
836.202	4870
836.34	5113
836.478	5159
836.615	5075
836.753	5216
836.891	5288
837.029	5273
837.167	5212
837.305	5181
837.443	5102
837.58	5067
837.718	5265
837.856	5201
837.993	5079
838.131	5261
838.269	5220
838.406	5166
838.544	5147
838.681	5014
838.819	4991
838.956	4858
839.094	4881
839.231	4987
839.369	5086
839.506	5402
839.643	5261
839.781	5086
839.918	5045
840.055	5090
840.193	5159
840.33	5128
840.467	5079
840.604	5151
840.742	5421
840.879	5048
841.016	5086
841.153	5170
841.29	5391
841.427	5318
841.564	5311
841.701	5326
841.838	5273
841.975	5185
842.112	5277
842.249	5174
842.385	5117
842.522	5261
842.659	5121
842.796	5151
842.933	5159
843.069	5132
843.206	5170
843.343	5292
843.479	5201
843.616	5246
843.752	4987
843.889	4984
844.025	5227
844.162	5037
844.298	5197
844.435	5048
844.571	5025
844.708	5204
844.844	5292
844.98	5349
845.117	5299
845.253	5090
845.389	5086
845.525	5147
845.661	5155
845.798	5029
845.934	5071
846.07	5052
846.206	5201
846.342	5299
846.478	5174
846.614	5014
846.75	4968
846.886	4915
847.022	5113
847.158	4995
847.294	5056
847.429	5143
847.565	5079
847.701	5337
847.837	4812
847.972	4816
848.108	4919
848.244	4911
848.379	4740
848.515	4717
848.65	4748
848.786	4729
848.921	4755
849.057	4820
849.192	4881
849.328	4850
849.463	4812
849.598	4812
849.734	4774
849.869	4634
850.004	4599
850.14	4698
850.275	4603
850.41	4542
850.545	4573
850.68	4626
850.815	4596
850.95	4653
851.085	4828
851.22	4733
851.355	4649
851.49	4603
851.625	4607
851.76	4691
851.895	4554
852.03	4538
852.165	4584
852.299	4721
852.434	4812
852.569	4809
852.703	4736
852.838	4847
852.973	4889
853.107	4957
853.242	4748
853.376	4714
853.511	4523
853.645	4641
853.78	4767
853.914	4656
854.048	4687
854.183	4653
854.317	4740
854.451	4889
854.585	4702
854.72	4626
854.854	4744
854.988	4596
855.122	4573
855.256	4542
855.39	4611
855.524	4755
855.658	4710
855.792	4706
855.926	4717
856.06	4714
856.194	4782
856.327	4717
856.461	4580
856.595	4645
856.729	4645
856.862	4771
856.996	4668
857.13	4694
857.263	4759
857.397	4892
857.53	4607
857.664	4725
857.797	4778
857.931	4763
858.064	4672
858.197	4710
858.331	4641
858.464	4615
858.597	4508
858.731	4675
858.864	4634
858.997	4603
859.13	4702
859.263	4733
859.396	4660
859.529	4558
859.662	4561
859.795	4497
859.928	4580
860.061	4790
860.194	4752
860.327	4596
860.46	4550
860.592	4698
860.725	4683
860.858	4725
860.99	4558
861.123	4542
861.256	4504
861.388	4592
861.521	5258
861.653	4493
861.786	4417
861.918	4462
862.05	4504
862.183	4580
862.315	4531
862.447	4607
862.58	4523
862.712	4375
862.844	4344
862.976	4443
863.108	4440
863.24	4790
863.372	4287
863.504	4417
863.636	4367
863.768	4493
863.9	4398
864.032	4375
864.164	4379
864.296	4519
864.428	4500
864.559	4607
864.691	4531
864.823	4542
864.954	4508
865.086	4527
865.217	4428
865.349	4383
865.48	4455
865.612	4516
865.743	4588
865.875	4481
866.006	4379
866.137	4481
866.269	4451
866.4	4413
866.531	4417
866.662	4383
866.793	4417
866.924	4413
867.055	4462
867.186	4428
867.317	4405
867.448	4390
867.579	4344
867.71	4421
867.841	4363
867.972	4466
868.103	4474
868.233	4455
868.364	4417
868.495	4466
868.625	4679
868.756	4733
868.886	4607
869.017	4626
869.147	4733
869.278	4786
869.408	4683
869.539	4611
869.669	4733
869.799	4698
869.929	4748
870.06	4771
870.19	4934
870.32	4870
870.45	4892
870.58	5014
870.71	5037
870.84	5105
870.97	4942
871.1	4930
871.23	5166
871.36	5174
871.489	5086
871.619	5086
871.749	5079
871.879	5136
872.008	5181
872.138	5033
872.267	4991
872.397	4816
872.526	4786
872.656	4714
872.785	4820
872.915	4908
873.044	4987
873.173	4987
873.303	4949
873.432	4949
873.561	4995
873.69	4873
873.819	4809
873.948	4923
874.077	4809
874.206	4774
874.335	4816
874.464	4953
874.593	5037
874.722	4968
874.851	5121
874.979	5037
875.108	5033
875.237	4858
875.365	4843
875.494	4911
875.623	4968
875.751	4801
875.88	4866
876.008	4972
876.136	5022
876.265	5166
876.393	5315
876.521	5299
876.65	5204
876.778	5155
876.906	5090
877.034	5041
877.162	5037
877.29	4991
877.418	5041
877.546	5052
877.674	4999
877.802	5060
877.93	5041
878.058	4835
878.185	4850
878.313	4999
878.441	4923
878.568	4786
878.696	4828
878.824	4984
878.951	4987
879.079	5090
879.206	5315
879.333	5105
879.461	4972
879.588	5018
879.715	5128
879.842	5216
879.97	4999
880.097	4809
880.224	4774
880.351	4812
880.478	4809
880.605	4744
880.732	4786
880.859	5048
880.986	4934
881.112	4949
881.239	4828
881.366	4687
881.493	4630
881.619	4538
881.746	4630
881.872	4611
881.999	4653
882.125	4645
882.252	4835
882.378	4858
882.505	4999
882.631	4805
882.757	4691
882.883	4744
883.01	4637
883.136	4702
883.262	4535
883.388	4588
883.514	4790
883.64	4919
883.766	4809
883.892	4664
884.018	4675
884.143	4858
884.269	4999
884.395	4691
884.52	4653
884.646	4649
884.772	4569
884.897	4592
885.023	4668
885.148	4805
885.274	4793
885.399	4805
885.524	4698
885.65	4733
885.775	4721
885.9	4645
886.025	4831
886.15	4786
886.275	4736
886.4	4656
886.525	4706
886.65	4683
886.775	4710
886.9	4854
887.025	4995
887.149	4793
887.274	4656
887.399	4592
887.523	4634
887.648	4554
887.773	4592
887.897	4805
888.021	4797
888.146	4664
888.27	4824
888.395	4896
888.519	4801
888.643	4786
888.767	4828
888.891	4664
889.015	4653
889.139	4634
889.263	4577
889.387	4721
889.511	4854
889.635	4805
889.759	4618
889.883	4641
890.006	4702
890.13	4828
890.254	4645
890.377	4748
890.501	4531
890.624	4554
890.748	4558
890.871	4462
890.995	4421
891.118	4356
891.241	4527
891.364	4508
891.488	4603
891.611	4451
891.734	4538
891.857	4592
891.98	4565
892.103	4653
892.226	4554
892.349	4478
892.471	4466
892.594	4535
892.717	4592
892.839	4584
892.962	4622
893.085	4691
893.207	4561
893.33	4497
893.452	4538
893.575	4679
893.697	4535
893.819	4752
893.941	4843
894.064	4793
894.186	4546
894.308	4558
894.43	4706
894.552	4790
894.674	4755
894.796	4558
894.918	4573
895.04	4542
895.161	4660
895.283	4664
895.405	4588
895.526	4592
895.648	4679
895.769	4675
895.891	4721
896.012	4717
896.134	4683
896.255	4675
896.376	4615
896.498	4577
896.619	4679
896.74	4580
896.861	4626
896.982	4892
897.103	5105
897.224	4850
897.345	4733
897.466	4721
897.587	4740
897.708	4847
897.828	4755
897.949	4710
898.07	4531
898.19	4603
898.311	4843
898.431	4687
898.552	4790
898.672	4801
898.792	4786
898.913	4733
899.033	4596
899.153	4497
899.273	4421
899.393	4516
899.513	4504
899.633	4516
899.753	4546
899.873	4516
899.993	4542
900.113	4523
900.232	4561
900.352	4508
900.472	4508
900.591	4386
900.711	4497
900.83	4478
900.95	4599
901.069	4668
901.189	4558
901.308	4367
901.427	4310
901.546	4405
901.665	4436
901.784	4519
901.904	4402
902.023	4344
902.141	4139
902.26	4207
902.379	4329
902.498	4227
902.617	4215
902.735	4341
902.854	4375
902.973	4390
903.091	4162
903.21	4253
903.328	4291
903.446	4257
903.565	4268
903.683	4329
903.801	4291
903.919	4398
904.038	4424
904.156	4337
904.274	4413
904.392	4375
904.51	4428
904.627	4474
904.745	4584
904.863	4679
904.981	4398
905.098	4306
905.216	4333
905.334	4428
905.451	4451
905.569	4413
905.686	4546
905.803	4584
905.921	4413
906.038	4546
906.155	4523
906.272	4379
906.389	4466
906.506	4322
906.623	4379
906.74	4451
906.857	4299
906.974	4383
907.091	4554
907.208	4706
907.324	4577
907.441	4462
907.557	4329
907.674	4344
907.79	4291
907.907	4402
908.023	4512
908.139	4478
908.256	4398
908.372	4485
908.488	4474
908.604	4348
908.72	4360
908.836	4390
908.952	4341
909.068	4455
909.184	4588
909.3	4474
909.415	4580
909.531	4615
909.647	4348
909.762	4383
909.878	4329
909.993	4462
910.108	4417
910.224	4440
910.339	4512
910.454	4402
910.57	4329
910.685	4299
910.8	4645
910.915	4637
911.03	4451
911.145	4325
911.259	4333
911.374	4352
911.489	4268
911.604	4314
911.718	4204
911.833	4223
911.947	4021
912.062	4048
912.176	4238
912.291	4227
912.405	4257
912.519	4459
912.633	4516
912.748	4371
912.862	4314
912.976	4185
913.09	4116
913.204	4177
913.318	4261
913.431	4356
913.545	4310
913.659	4428
913.772	4367
913.886	4234
914	4261
914.113	4405
914.226	4451
914.34	4417
914.453	4227
914.566	4462
914.68	4306
914.793	4261
914.906	4181
915.019	4093
915.132	4059
915.245	4204
915.358	4230
915.47	4207
915.583	4280
915.696	4253
915.809	4424
915.921	4409
916.034	4230
916.146	4219
916.259	4204
916.371	4405
916.483	4337
916.595	4230
916.708	4333
916.82	4325
916.932	4333
917.044	4344
917.156	4318
917.268	4227
917.38	4253
917.491	4276
917.603	4322
917.715	4398
917.826	4398
917.938	4379
918.049	4265
918.161	4394
918.272	4531
918.384	4538
918.495	4459
918.606	4306
918.717	4268
918.828	4318
918.939	4405
919.05	4227
919.161	4322
919.272	4124
919.383	4242
919.494	4478
919.604	4615
919.715	4440
919.826	4344
919.936	4413
920.047	4580
920.157	4466
920.267	4694
920.378	4497
920.488	4531
920.598	4714
920.708	4889
920.818	4702
920.928	4748
921.038	4972
921.148	4900
921.258	4607
921.368	4550
921.477	4519
921.587	4462
921.697	4417
921.806	4573
921.916	4443
922.025	4257
922.134	4341
922.244	4188
922.353	4303
922.462	4169
922.571	4135
922.68	4025
922.789	3998
922.898	4067
923.007	3975
923.116	4048
923.224	4051
923.333	4059
923.442	4010
923.55	4006
923.659	4021
923.767	4124
923.876	3972
923.984	4112
924.092	4029
924.201	4105
924.309	4074
924.417	4158
924.525	4078
924.633	4051
924.741	5003
924.849	3930
924.956	4166
925.064	3956
925.172	3899
925.279	3979
925.387	4071
925.494	4010
925.602	4215
925.709	4200
925.816	4013
925.924	4063
926.031	4253
926.138	4143
926.245	4177
926.352	4063
926.459	4272
926.566	4268
926.673	4120
926.779	4105
926.886	4051
926.993	4002
927.099	3979
927.206	3922
927.312	3953
927.419	4067
927.525	4051
927.631	4078
927.737	3907
927.843	3968
927.95	3816
928.056	3972
928.162	3994
928.267	4010
928.373	4615
928.479	4112
928.585	3831
928.69	3994
928.796	4086
928.901	3949
929.007	3808
929.112	4013
929.218	3998
929.323	3956
929.428	3979
929.533	4048
929.638	3896
929.743	3941
929.848	4055
929.953	3991
930.058	3934
930.163	3781
930.267	3838
930.372	3979
930.477	3812
930.581	4071
930.685	3918
930.79	3846
930.894	3884
930.998	3819
931.103	4025
931.207	3728
931.311	3675
931.415	3671
931.519	3523
931.623	3542
