Data from test_V78500241_2215.txt Node
Date: Fri Mar 25 17:04:24 CST 2022
User: usil
Spectrometer: V785-0024
Trigger mode: 0
Integration Time (sec): 4.000000E-1
Scans to average: 1
Nonlinearity correction enabled: false
Boxcar width: 0
Storing dark spectrum: false
XAxis mode: Wavelengths
Number of Pixels in Spectrum: 1024
>>>>>Begin Spectral Data<<<<<
801.071	8020
801.214	7974
801.356	7845
801.499	7849
801.641	7784
801.783	7799
801.926	7978
802.068	7936
802.211	8046
802.353	7936
802.496	7852
802.638	7917
802.78	7879
802.923	7913
803.065	7833
803.208	7841
803.35	7921
803.492	8031
803.635	8077
803.777	8001
803.919	8077
804.061	8450
804.204	8134
804.346	8062
804.488	7955
804.63	8054
804.773	8035
804.915	8058
805.057	8237
805.199	8161
805.341	8142
805.483	8267
805.626	8221
805.768	8130
805.91	8202
806.052	8183
806.194	8031
806.336	8244
806.478	8031
806.62	8027
806.762	8123
806.904	8290
807.046	8476
807.188	8282
807.33	8313
807.472	8309
807.614	8142
807.756	8111
807.898	7997
808.04	7883
808.182	7967
808.324	7917
808.465	7875
808.607	8046
808.749	8107
808.891	8248
809.033	8320
809.174	8176
809.316	8050
809.458	8107
809.6	8016
809.741	8008
809.883	8020
810.025	8088
810.166	8073
810.308	8031
810.45	8016
810.591	7860
810.733	7700
810.875	7643
811.016	7495
811.158	7449
811.299	7548
811.441	7693
811.582	7715
811.724	7575
811.865	7483
812.007	7597
812.148	7552
812.29	7628
812.431	7746
812.573	7890
812.714	7940
812.855	8092
812.997	8191
813.138	8286
813.279	8134
813.421	8043
813.562	7909
813.703	7826
813.845	7765
813.986	7381
814.127	7209
814.268	7221
814.41	7168
814.551	7084
814.692	7217
814.833	7042
814.974	7114
815.115	7145
815.256	6973
815.397	6935
815.539	6966
815.68	6829
815.821	6760
815.962	6871
816.103	6829
816.244	6715
816.385	6574
816.526	6593
816.666	6513
816.807	6289
816.948	6429
817.089	6456
817.23	6475
817.371	6334
817.512	6426
817.653	6376
817.793	6372
817.934	6334
818.075	6441
818.216	6407
818.356	6407
818.497	6239
818.638	6175
818.778	6121
818.919	6163
819.06	6209
819.2	6350
819.341	6331
819.481	6414
819.622	6525
819.762	6757
819.903	6677
820.043	6559
820.184	6585
820.324	6570
820.465	6677
820.605	6711
820.746	6620
820.886	6467
821.026	6604
821.167	6696
821.307	6821
821.447	6776
821.588	6692
821.728	6601
821.868	6498
822.008	6338
822.149	6365
822.289	6315
822.429	6167
822.569	6030
822.709	6106
822.849	5870
822.99	5923
823.13	5916
823.27	5942
823.41	5813
823.55	5760
823.69	5767
823.83	5722
823.97	5665
824.11	5554
824.25	5482
824.389	5562
824.529	5592
824.669	5459
824.809	5585
824.949	5733
825.089	5634
825.228	5562
825.368	5478
825.508	5296
825.648	5326
825.787	5349
825.927	5383
826.067	5280
826.206	5284
826.346	5345
826.485	5414
826.625	5444
826.765	5543
826.904	5512
827.044	5227
827.183	5216
827.323	5105
827.462	5254
827.601	5143
827.741	5201
827.88	5189
828.02	5113
828.159	5231
828.298	5277
828.437	5311
828.577	5277
828.716	5497
828.855	5299
828.994	5193
829.134	5143
829.273	5204
829.412	5075
829.551	5113
829.69	5185
829.829	5311
829.968	5417
830.107	5330
830.246	5307
830.385	5174
830.524	5132
830.663	5094
830.802	4984
830.941	4854
831.08	4854
831.219	5010
831.357	5006
831.496	5159
831.635	4934
831.774	4873
831.913	4877
832.051	4763
832.19	4790
832.329	4828
832.467	4634
832.606	4634
832.744	4691
832.883	4683
833.022	4694
833.16	4733
833.299	4839
833.437	4816
833.576	4824
833.714	4862
833.852	4877
833.991	4839
834.129	4957
834.267	4889
834.406	4896
834.544	4995
834.682	4949
834.821	4961
834.959	5212
835.097	4972
835.235	5083
835.373	5025
835.511	5136
835.65	5010
835.788	5014
835.926	4809
836.064	4847
836.202	4938
836.34	5212
836.478	5208
836.615	5143
836.753	5197
836.891	5265
837.029	5227
837.167	5220
837.305	5113
837.443	5151
837.58	5079
837.718	5254
837.856	5166
837.993	5109
838.131	5193
838.269	5197
838.406	5265
838.544	5162
838.681	5006
838.819	5022
838.956	4877
839.094	4908
839.231	4953
839.369	5045
839.506	5436
839.643	5280
839.781	5086
839.918	5060
840.055	5105
840.193	5117
840.33	5090
840.467	5117
840.604	5162
840.742	5425
840.879	5018
841.016	5094
841.153	5117
841.29	5376
841.427	5280
841.564	5280
841.701	5315
841.838	5269
841.975	5208
842.112	5261
842.249	5155
842.385	5136
842.522	5292
842.659	5155
842.796	5109
842.933	5212
843.069	5094
843.206	5105
843.343	5250
843.479	5223
843.616	5307
843.752	5037
843.889	5003
844.025	5212
844.162	5025
844.298	5216
844.435	5064
844.571	5060
844.708	5189
844.844	5280
844.98	5311
845.117	5318
845.253	5105
845.389	5105
845.525	5162
845.661	5124
845.798	5029
845.934	5121
846.07	5025
846.206	5208
846.342	5246
846.478	5185
846.614	5022
846.75	4980
846.886	4908
847.022	5147
847.158	4984
847.294	5075
847.429	5113
847.565	5045
847.701	5296
847.837	4881
847.972	4809
848.108	4946
848.244	4927
848.379	4759
848.515	4706
848.65	4683
848.786	4710
848.921	4767
849.057	4892
849.192	4923
849.328	4820
849.463	4843
849.598	4767
849.734	4767
849.869	4653
850.004	4618
850.14	4592
850.275	4626
850.41	4535
850.545	4618
850.68	4596
850.815	4603
850.95	4607
851.085	4812
851.22	4763
851.355	4656
851.49	4588
851.625	4675
851.76	4615
851.895	4542
852.03	4538
852.165	4656
852.299	4736
852.434	4786
852.569	4763
852.703	4782
852.838	4805
852.973	4942
853.107	4930
853.242	4790
853.376	4679
853.511	4592
853.645	4637
853.78	4850
853.914	4710
854.048	4691
854.183	4660
854.317	4672
854.451	4862
854.585	4679
854.72	4630
854.854	4733
854.988	4592
855.122	4630
855.256	4531
855.39	4645
855.524	4793
855.658	4725
855.792	4736
855.926	4763
856.06	4729
856.194	4774
856.327	4733
856.461	4577
856.595	4588
856.729	4615
856.862	4736
856.996	4710
857.13	4691
857.263	4740
857.397	4816
857.53	4618
857.664	4717
857.797	4748
857.931	4790
858.064	4687
858.197	4729
858.331	4664
858.464	4592
858.597	4569
858.731	4645
858.864	4611
858.997	4588
859.13	4653
859.263	4656
859.396	4687
859.529	4542
859.662	4558
859.795	4546
859.928	4618
860.061	4771
860.194	4759
860.327	4573
860.46	4569
860.592	4702
860.725	4725
860.858	4721
860.99	4558
861.123	4512
861.256	4531
861.388	4565
861.521	5292
861.653	4493
861.786	4428
861.918	4451
862.05	4504
862.183	4519
862.315	4607
862.447	4641
862.58	4542
862.712	4447
862.844	4367
862.976	4474
863.108	4447
863.24	4740
863.372	4363
863.504	4413
863.636	4390
863.768	4485
863.9	4402
864.032	4333
864.164	4440
864.296	4413
864.428	4554
864.559	4535
864.691	4535
864.823	4558
864.954	4485
865.086	4531
865.217	4504
865.349	4424
865.48	4466
865.612	4485
865.743	4615
865.875	4459
866.006	4424
866.137	4470
866.269	4459
866.4	4428
866.531	4443
866.662	4428
866.793	4352
866.924	4436
867.055	4478
867.186	4474
867.317	4390
867.448	4417
867.579	4394
867.71	4341
867.841	4367
867.972	4485
868.103	4470
868.233	4394
868.364	4478
868.495	4462
868.625	4694
868.756	4725
868.886	4596
869.017	4615
869.147	4767
869.278	4725
869.408	4687
869.539	4622
869.669	4706
869.799	4740
869.929	4729
870.06	4759
870.19	4908
870.32	4866
870.45	4911
870.58	5006
870.71	5094
870.84	5067
870.97	4953
871.1	4900
871.23	5147
871.36	5155
871.489	5010
871.619	5052
871.749	5029
871.879	5086
872.008	5178
872.138	5067
872.267	4949
872.397	4809
872.526	4805
872.656	4721
872.785	4801
872.915	4934
873.044	5010
873.173	4900
873.303	4934
873.432	4946
873.561	4938
873.69	4896
873.819	4847
873.948	4892
874.077	4786
874.206	4771
874.335	4866
874.464	4953
874.593	5025
874.722	4976
874.851	5052
874.979	5052
875.108	5067
875.237	4877
875.365	4889
875.494	4820
875.623	4991
875.751	4816
875.88	4927
876.008	4915
876.136	5029
876.265	5193
876.393	5349
876.521	5242
876.65	5212
876.778	5151
876.906	5102
877.034	5048
877.162	5041
877.29	5014
877.418	5075
877.546	4980
877.674	5033
877.802	5029
877.93	5006
878.058	4957
878.185	4885
878.313	4976
878.441	4934
878.568	4812
878.696	4904
878.824	4927
878.951	4980
879.079	5132
879.206	5337
879.333	5155
879.461	4961
879.588	4968
879.715	5117
879.842	5239
879.97	4987
880.097	4812
880.224	4755
880.351	4805
880.478	4839
880.605	4736
880.732	4786
880.859	5075
880.986	4873
881.112	4911
881.239	4831
881.366	4653
881.493	4618
881.619	4588
881.746	4683
881.872	4649
881.999	4683
882.125	4660
882.252	4733
882.378	4797
882.505	4968
882.631	4744
882.757	4710
882.883	4729
883.01	4702
883.136	4675
883.262	4630
883.388	4607
883.514	4755
883.64	4881
883.766	4831
883.892	4653
884.018	4744
884.143	4900
884.269	4980
884.395	4672
884.52	4622
884.646	4672
884.772	4550
884.897	4561
885.023	4611
885.148	4774
885.274	4870
885.399	4828
885.524	4714
885.65	4656
885.775	4778
885.9	4694
886.025	4797
886.15	4793
886.275	4752
886.4	4649
886.525	4721
886.65	4729
886.775	4664
886.9	4870
887.025	5022
887.149	4809
887.274	4649
887.399	4588
887.523	4584
887.648	4565
887.773	4611
887.897	4744
888.021	4847
888.146	4660
888.27	4790
888.395	4847
888.519	4809
888.643	4805
888.767	4820
888.891	4653
889.015	4634
889.139	4683
889.263	4592
889.387	4744
889.511	4862
889.635	4763
889.759	4596
889.883	4675
890.006	4687
890.13	4805
890.254	4611
890.377	4687
890.501	4542
890.624	4508
890.748	4603
890.871	4470
890.995	4402
891.118	4440
891.241	4519
891.364	4474
891.488	4649
891.611	4497
891.734	4546
891.857	4569
891.98	4596
892.103	4664
892.226	4554
892.349	4531
892.471	4417
892.594	4512
892.717	4569
892.839	4569
892.962	4599
893.085	4641
893.207	4584
893.33	4478
893.452	4546
893.575	4672
893.697	4565
893.819	4797
893.941	4820
894.064	4763
894.186	4607
894.308	4519
894.43	4782
894.552	4801
894.674	4755
894.796	4561
894.918	4588
895.04	4603
895.161	4740
895.283	4672
895.405	4554
895.526	4607
895.648	4656
895.769	4691
895.891	4710
896.012	4755
896.134	4691
896.255	4630
896.376	4634
896.498	4626
896.619	4672
896.74	4596
896.861	4656
896.982	4946
897.103	5102
897.224	4828
897.345	4782
897.466	4645
897.587	4778
897.708	4847
897.828	4740
897.949	4664
898.07	4599
898.19	4615
898.311	4790
898.431	4653
898.552	4729
898.672	4782
898.792	4790
898.913	4725
899.033	4645
899.153	4466
899.273	4398
899.393	4489
899.513	4531
899.633	4512
899.753	4527
899.873	4519
899.993	4577
900.113	4550
900.232	4535
900.352	4523
900.472	4466
900.591	4398
900.711	4497
900.83	4424
900.95	4599
901.069	4679
901.189	4516
901.308	4341
901.427	4356
901.546	4348
901.665	4440
901.784	4512
901.904	4440
902.023	4325
902.141	4196
902.26	4166
902.379	4314
902.498	4238
902.617	4211
902.735	4413
902.854	4398
902.973	4333
903.091	4207
903.21	4192
903.328	4322
903.446	4249
903.565	4268
903.683	4367
903.801	4284
903.919	4367
904.038	4447
904.156	4341
904.274	4402
904.392	4356
904.51	4398
904.627	4405
904.745	4550
904.863	4660
904.981	4375
905.098	4306
905.216	4367
905.334	4436
905.451	4413
905.569	4424
905.686	4558
905.803	4527
905.921	4386
906.038	4512
906.155	4440
906.272	4386
906.389	4455
906.506	4344
906.623	4375
906.74	4344
906.857	4272
906.974	4356
907.091	4577
907.208	4687
907.324	4535
907.441	4535
907.557	4402
907.674	4348
907.79	4287
907.907	4352
908.023	4489
908.139	4462
908.256	4421
908.372	4489
908.488	4489
908.604	4306
908.72	4356
908.836	4432
908.952	4386
909.068	4447
909.184	4596
909.3	4481
909.415	4618
909.531	4535
909.647	4375
909.762	4386
909.878	4386
909.993	4470
910.108	4417
910.224	4436
910.339	4485
910.454	4394
910.57	4405
910.685	4352
910.8	4679
910.915	4660
911.03	4531
911.145	4306
911.259	4344
911.374	4386
911.489	4344
911.604	4322
911.718	4204
911.833	4246
911.947	4150
912.062	4071
912.176	4227
912.291	4280
912.405	4310
912.519	4508
912.633	4577
912.748	4409
912.862	4310
912.976	4234
913.09	4082
913.204	4196
913.318	4257
913.431	4443
913.545	4417
913.659	4459
913.772	4417
913.886	4325
914	4295
914.113	4348
914.226	4451
914.34	4455
914.453	4284
914.566	4466
914.68	4360
914.793	4363
914.906	4215
915.019	4139
915.132	4093
915.245	4204
915.358	4207
915.47	4257
915.583	4287
915.696	4322
915.809	4459
915.921	4512
916.034	4306
916.146	4306
916.259	4227
916.371	4409
916.483	4371
916.595	4257
916.708	4337
916.82	4352
916.932	4329
917.044	4329
917.156	4424
917.268	4310
917.38	4303
917.491	4280
917.603	4413
917.715	4447
917.826	4489
917.938	4390
918.049	4303
918.161	4421
918.272	4622
918.384	4535
918.495	4500
918.606	4363
918.717	4325
918.828	4390
918.939	4363
919.05	4284
919.161	4322
919.272	4177
919.383	4230
919.494	4474
919.604	4660
919.715	4459
919.826	4447
919.936	4394
920.047	4599
920.157	4531
920.267	4710
920.378	4565
920.488	4546
920.598	4763
920.708	4919
920.818	4835
920.928	4790
921.038	4949
921.148	4942
921.258	4714
921.368	4599
921.477	4523
921.587	4489
921.697	4424
921.806	4558
921.916	4497
922.025	4276
922.134	4284
922.244	4280
922.353	4329
922.462	4196
922.571	4166
922.68	4036
922.789	4017
922.898	4067
923.007	4021
923.116	4147
923.224	4120
923.333	4124
923.442	4002
923.55	3987
923.659	4044
923.767	4166
923.876	4013
923.984	4124
924.092	4002
924.201	4086
924.309	4116
924.417	4150
924.525	4086
924.633	4162
924.741	5045
924.849	3941
924.956	4124
925.064	3979
925.172	3953
925.279	3983
925.387	4078
925.494	4090
925.602	4242
925.709	4234
925.816	4067
925.924	4181
926.031	4249
926.138	4219
926.245	4227
926.352	4124
926.459	4280
926.566	4333
926.673	4219
926.779	4090
926.886	4131
926.993	4048
927.099	3998
927.206	4017
927.312	4006
927.419	4074
927.525	4051
927.631	4048
927.737	4021
927.843	3983
927.95	3880
928.056	3972
928.162	4006
928.267	4093
928.373	4706
928.479	4143
928.585	3911
928.69	4021
928.796	4082
928.901	4017
929.007	3880
929.112	4059
929.218	3998
929.323	3972
929.428	3968
929.533	4154
929.638	3918
929.743	4029
929.848	4086
929.953	4040
930.058	3998
930.163	3797
930.267	3835
930.372	4002
930.477	3842
930.581	4128
930.685	3979
930.79	3873
930.894	3926
930.998	3884
931.103	4078
931.207	3759
931.311	3732
931.415	3736
931.519	3507
931.623	3595
