Data from test_V78500241_698.txt Node
Date: Fri Mar 25 16:53:51 CST 2022
User: usil
Spectrometer: V785-0024
Trigger mode: 0
Integration Time (sec): 4.000000E-1
Scans to average: 1
Nonlinearity correction enabled: false
Boxcar width: 0
Storing dark spectrum: false
XAxis mode: Wavelengths
Number of Pixels in Spectrum: 1024
>>>>>Begin Spectral Data<<<<<
801.071	8020
801.214	7951
801.356	7875
801.499	7830
801.641	7841
801.783	7845
801.926	8020
802.068	7967
802.211	7928
802.353	7947
802.496	7894
802.638	7883
802.78	7902
802.923	7917
803.065	7807
803.208	7818
803.35	8020
803.492	8100
803.635	8145
803.777	8039
803.919	8054
804.061	8427
804.204	8081
804.346	8123
804.488	7909
804.63	8130
804.773	7989
804.915	8062
805.057	8202
805.199	8115
805.341	8176
805.483	8282
805.626	8202
805.768	8134
805.91	8126
806.052	8191
806.194	8126
806.336	8244
806.478	8134
806.62	8088
806.762	8123
806.904	8195
807.046	8431
807.188	8343
807.33	8317
807.472	8301
807.614	8210
807.756	8130
807.898	7936
808.04	7803
808.182	7875
808.324	7883
808.465	7921
808.607	7989
808.749	8062
808.891	8161
809.033	8187
809.174	8157
809.316	8027
809.458	8065
809.6	7951
809.741	8005
809.883	7970
810.025	8054
810.166	7967
810.308	7982
810.45	8092
810.591	7913
810.733	7712
810.875	7662
811.016	7468
811.158	7472
811.299	7597
811.441	7696
811.582	7647
811.724	7518
811.865	7510
812.007	7533
812.148	7590
812.29	7643
812.431	7723
812.573	7830
812.714	7921
812.855	8107
812.997	8225
813.138	8290
813.279	8180
813.421	8119
813.562	8027
813.703	7890
813.845	7757
813.986	7476
814.127	7285
814.268	7236
814.41	7152
814.551	7198
814.692	7103
814.833	7088
814.974	7061
815.115	7061
815.256	6928
815.397	6920
815.539	6932
815.68	6837
815.821	6741
815.962	6878
816.103	6829
816.244	6681
816.385	6662
816.526	6604
816.666	6460
816.807	6273
816.948	6414
817.089	6395
817.23	6490
817.371	6376
817.512	6346
817.653	6384
817.793	6391
817.934	6467
818.075	6429
818.216	6471
818.356	6395
818.497	6232
818.638	6098
818.778	6102
818.919	6144
819.06	6114
819.2	6342
819.341	6338
819.481	6304
819.622	6528
819.762	6692
819.903	6650
820.043	6597
820.184	6517
820.324	6547
820.465	6669
820.605	6631
820.746	6563
820.886	6479
821.026	6684
821.167	6715
821.307	6795
821.447	6787
821.588	6585
821.728	6540
821.868	6426
822.008	6243
822.149	6311
822.289	6319
822.429	6182
822.569	6079
822.709	6041
822.849	5923
822.99	5916
823.13	5996
823.27	5920
823.41	5737
823.55	5748
823.69	5741
823.83	5764
823.97	5646
824.11	5532
824.25	5478
824.389	5554
824.529	5615
824.669	5482
824.809	5589
824.949	5611
825.089	5642
825.228	5505
825.368	5364
825.508	5315
825.648	5337
825.787	5395
825.927	5391
826.067	5284
826.206	5235
826.346	5326
826.485	5376
826.625	5341
826.765	5562
826.904	5490
827.044	5242
827.183	5181
827.323	5136
827.462	5170
827.601	5162
827.741	5193
827.88	5197
828.02	5121
828.159	5201
828.298	5307
828.437	5349
828.577	5235
828.716	5414
828.855	5337
828.994	5143
829.134	5117
829.273	5166
829.412	5105
829.551	5162
829.69	5094
829.829	5197
829.968	5364
830.107	5235
830.246	5258
830.385	5136
830.524	5071
830.663	5098
830.802	5052
830.941	4858
831.08	4866
831.219	4991
831.357	4957
831.496	5185
831.635	4915
831.774	4831
831.913	4873
832.051	4679
832.19	4736
832.329	4843
832.467	4702
832.606	4653
832.744	4729
832.883	4702
833.022	4668
833.16	4759
833.299	4809
833.437	4805
833.576	4824
833.714	4839
833.852	4854
833.991	4873
834.129	4957
834.267	4976
834.406	4870
834.544	4961
834.682	4949
834.821	4942
834.959	5159
835.097	5014
835.235	5143
835.373	5037
835.511	5086
835.65	5033
835.788	5045
835.926	4866
836.064	4839
836.202	4911
836.34	5136
836.478	5212
836.615	5124
836.753	5227
836.891	5349
837.029	5242
837.167	5147
837.305	5109
837.443	5181
837.58	5048
837.718	5220
837.856	5147
837.993	5143
838.131	5235
838.269	5185
838.406	5197
838.544	5201
838.681	4999
838.819	4980
838.956	4854
839.094	4873
839.231	4987
839.369	5048
839.506	5410
839.643	5273
839.781	5075
839.918	5033
840.055	5090
840.193	5079
840.33	5083
840.467	5143
840.604	5162
840.742	5414
840.879	5060
841.016	5102
841.153	5140
841.29	5387
841.427	5303
841.564	5296
841.701	5349
841.838	5318
841.975	5235
842.112	5231
842.249	5155
842.385	5094
842.522	5337
842.659	5140
842.796	5124
842.933	5181
843.069	5147
843.206	5185
843.343	5277
843.479	5201
843.616	5277
843.752	5014
843.889	5018
844.025	5204
844.162	5003
844.298	5239
844.435	5086
844.571	5014
844.708	5204
844.844	5326
844.98	5318
845.117	5345
845.253	5113
845.389	5025
845.525	5132
845.661	5181
845.798	5075
845.934	5094
846.07	5067
846.206	5159
846.342	5227
846.478	5102
846.614	5041
846.75	4976
846.886	4930
847.022	5162
847.158	5010
847.294	5048
847.429	5079
847.565	5025
847.701	5273
847.837	4828
847.972	4797
848.108	4911
848.244	4968
848.379	4740
848.515	4782
848.65	4675
848.786	4725
848.921	4805
849.057	4816
849.192	4892
849.328	4850
849.463	4831
849.598	4752
849.734	4691
849.869	4691
850.004	4618
850.14	4664
850.275	4599
850.41	4519
850.545	4596
850.68	4558
850.815	4611
850.95	4634
851.085	4809
851.22	4740
851.355	4668
851.49	4588
851.625	4611
851.76	4649
851.895	4523
852.03	4550
852.165	4603
852.299	4687
852.434	4782
852.569	4725
852.703	4733
852.838	4843
852.973	4892
853.107	4831
853.242	4767
853.376	4634
853.511	4512
853.645	4580
853.78	4763
853.914	4683
854.048	4653
854.183	4634
854.317	4672
854.451	4866
854.585	4645
854.72	4630
854.854	4733
854.988	4603
855.122	4611
855.256	4550
855.39	4664
855.524	4763
855.658	4672
855.792	4687
855.926	4736
856.06	4763
856.194	4805
856.327	4626
856.461	4618
856.595	4634
856.729	4615
856.862	4752
856.996	4675
857.13	4687
857.263	4748
857.397	4790
857.53	4607
857.664	4641
857.797	4721
857.931	4767
858.064	4656
858.197	4698
858.331	4653
858.464	4622
858.597	4523
858.731	4565
858.864	4611
858.997	4561
859.13	4634
859.263	4660
859.396	4691
859.529	4512
859.662	4538
859.795	4519
859.928	4603
860.061	4733
860.194	4744
860.327	4618
860.46	4558
860.592	4672
860.725	4706
860.858	4729
860.99	4542
861.123	4485
861.256	4516
861.388	4615
861.521	5330
861.653	4462
861.786	4436
861.918	4455
862.05	4497
862.183	4489
862.315	4603
862.447	4618
862.58	4561
862.712	4398
862.844	4325
862.976	4455
863.108	4451
863.24	4892
863.372	4310
863.504	4360
863.636	4375
863.768	4440
863.9	4390
864.032	4386
864.164	4363
864.296	4432
864.428	4527
864.559	4584
864.691	4489
864.823	4546
864.954	4466
865.086	4527
865.217	4405
865.349	4413
865.48	4413
865.612	4462
865.743	4596
865.875	4508
866.006	4432
866.137	4451
866.269	4485
866.4	4459
866.531	4398
866.662	4367
866.793	4375
866.924	4409
867.055	4508
867.186	4466
867.317	4421
867.448	4405
867.579	4363
867.71	4390
867.841	4386
867.972	4497
868.103	4497
868.233	4440
868.364	4447
868.495	4546
868.625	4656
868.756	4774
868.886	4554
869.017	4641
869.147	4824
869.278	4805
869.408	4702
869.539	4626
869.669	4786
869.799	4675
869.929	4793
870.06	4736
870.19	4976
870.32	4976
870.45	4938
870.58	4991
870.71	5143
870.84	5178
870.97	5003
871.1	4949
871.23	5166
871.36	5204
871.489	5052
871.619	5113
871.749	5109
871.879	5159
872.008	5208
872.138	5060
872.267	5014
872.397	4866
872.526	4904
872.656	4725
872.785	4831
872.915	5037
873.044	5029
873.173	5048
873.303	5014
873.432	4987
873.561	5029
873.69	4866
873.819	4889
873.948	4965
874.077	4850
874.206	4858
874.335	4843
874.464	4927
874.593	5083
874.722	5033
874.851	5159
874.979	5128
875.108	5086
875.237	4915
875.365	4923
875.494	4892
875.623	5018
875.751	4877
875.88	4923
876.008	5029
876.136	5056
876.265	5239
876.393	5421
876.521	5303
876.65	5303
876.778	5189
876.906	5098
877.034	4999
877.162	5105
877.29	5003
877.418	5105
877.546	5083
877.674	5018
877.802	5052
877.93	5041
878.058	4987
878.185	4930
878.313	4987
878.441	4980
878.568	4866
878.696	4911
878.824	5014
878.951	5037
879.079	5102
879.206	5296
879.333	5121
879.461	5048
879.588	4984
879.715	5185
879.842	5265
879.97	5018
880.097	4847
880.224	4771
880.351	4843
880.478	4839
880.605	4831
880.732	4812
880.859	5102
880.986	4923
881.112	4904
881.239	4839
881.366	4683
881.493	4664
881.619	4580
881.746	4660
881.872	4645
881.999	4702
882.125	4752
882.252	4786
882.378	4828
882.505	4965
882.631	4805
882.757	4717
882.883	4778
883.01	4744
883.136	4694
883.262	4637
883.388	4645
883.514	4858
883.64	4915
883.766	4790
883.892	4710
884.018	4679
884.143	4896
884.269	5003
884.395	4679
884.52	4649
884.646	4694
884.772	4615
884.897	4599
885.023	4698
885.148	4797
885.274	4934
885.399	4847
885.524	4790
885.65	4691
885.775	4778
885.9	4759
886.025	4900
886.15	4771
886.275	4736
886.4	4641
886.525	4733
886.65	4714
886.775	4714
886.9	4911
887.025	5025
887.149	4790
887.274	4660
887.399	4653
887.523	4645
887.648	4626
887.773	4599
887.897	4805
888.021	4816
888.146	4656
888.27	4824
888.395	5014
888.519	4831
888.643	4820
888.767	4850
888.891	4729
889.015	4634
889.139	4755
889.263	4668
889.387	4771
889.511	4889
889.635	4828
889.759	4736
889.883	4702
890.006	4736
890.13	4881
890.254	4691
890.377	4706
890.501	4615
890.624	4546
890.748	4653
890.871	4508
890.995	4424
891.118	4424
891.241	4573
891.364	4535
891.488	4634
891.611	4512
891.734	4569
891.857	4637
891.98	4558
892.103	4717
892.226	4641
892.349	4519
892.471	4497
892.594	4611
892.717	4656
892.839	4622
892.962	4622
893.085	4721
893.207	4603
893.33	4489
893.452	4554
893.575	4645
893.697	4603
893.819	4801
893.941	4892
894.064	4805
894.186	4569
894.308	4577
894.43	4763
894.552	4828
894.674	4797
894.796	4596
894.918	4641
895.04	4599
895.161	4710
895.283	4653
895.405	4588
895.526	4630
895.648	4664
895.769	4706
895.891	4740
896.012	4763
896.134	4748
896.255	4683
896.376	4660
896.498	4649
896.619	4702
896.74	4645
896.861	4706
896.982	4896
897.103	5143
897.224	4877
897.345	4759
897.466	4698
897.587	4782
897.708	4847
897.828	4809
897.949	4672
898.07	4592
898.19	4679
898.311	4854
898.431	4759
898.552	4786
898.672	4812
898.792	4793
898.913	4767
899.033	4637
899.153	4538
899.273	4485
899.393	4565
899.513	4531
899.633	4550
899.753	4577
899.873	4489
899.993	4637
900.113	4550
900.232	4653
900.352	4565
900.472	4497
900.591	4443
900.711	4512
900.83	4497
900.95	4622
901.069	4698
901.189	4558
901.308	4356
901.427	4344
901.546	4386
901.665	4504
901.784	4546
901.904	4459
902.023	4383
902.141	4162
902.26	4211
902.379	4375
902.498	4280
902.617	4272
902.735	4394
902.854	4394
902.973	4367
903.091	4249
903.21	4253
903.328	4352
903.446	4295
903.565	4329
903.683	4394
903.801	4299
903.919	4413
904.038	4462
904.156	4299
904.274	4478
904.392	4421
904.51	4432
904.627	4497
904.745	4622
904.863	4698
904.981	4474
905.098	4280
905.216	4405
905.334	4424
905.451	4474
905.569	4462
905.686	4577
905.803	4538
905.921	4428
906.038	4599
906.155	4459
906.272	4405
906.389	4447
906.506	4386
906.623	4402
906.74	4428
906.857	4341
906.974	4356
907.091	4599
907.208	4683
907.324	4596
907.441	4535
907.557	4356
907.674	4371
907.79	4341
907.907	4402
908.023	4497
908.139	4550
908.256	4470
908.372	4508
908.488	4459
908.604	4390
908.72	4322
908.836	4432
908.952	4390
909.068	4462
909.184	4588
909.3	4497
909.415	4645
909.531	4596
909.647	4390
909.762	4398
909.878	4341
909.993	4462
910.108	4424
910.224	4466
910.339	4512
910.454	4413
910.57	4348
910.685	4310
910.8	4668
910.915	4592
911.03	4497
911.145	4348
911.259	4356
911.374	4409
911.489	4325
911.604	4303
911.718	4223
911.833	4207
911.947	4109
912.062	4010
912.176	4230
912.291	4246
912.405	4249
912.519	4493
912.633	4497
912.748	4386
912.862	4360
912.976	4207
913.09	4101
913.204	4230
913.318	4238
913.431	4390
913.545	4367
913.659	4478
913.772	4402
913.886	4261
914	4211
914.113	4409
914.226	4409
914.34	4398
914.453	4287
914.566	4459
914.68	4341
914.793	4383
914.906	4158
915.019	4120
915.132	4090
915.245	4242
915.358	4238
915.47	4242
915.583	4276
915.696	4329
915.809	4413
915.921	4424
916.034	4295
916.146	4242
916.259	4242
916.371	4421
916.483	4390
916.595	4291
916.708	4367
916.82	4303
916.932	4333
917.044	4352
917.156	4322
917.268	4230
917.38	4318
917.491	4272
917.603	4375
917.715	4485
917.826	4481
917.938	4348
918.049	4272
918.161	4424
918.272	4634
918.384	4546
918.495	4470
918.606	4363
918.717	4280
918.828	4322
918.939	4402
919.05	4230
919.161	4360
919.272	4166
919.383	4257
919.494	4459
919.604	4622
919.715	4424
919.826	4409
919.936	4428
920.047	4519
920.157	4550
920.267	4714
920.378	4558
920.488	4538
920.598	4736
920.708	4927
920.818	4786
920.928	4824
921.038	4953
921.148	4942
921.258	4615
921.368	4634
921.477	4546
921.587	4474
921.697	4379
921.806	4516
921.916	4428
922.025	4261
922.134	4268
922.244	4303
922.353	4356
922.462	4162
922.571	4196
922.68	4021
922.789	3998
922.898	4002
923.007	3972
923.116	4120
923.224	4074
923.333	4109
923.442	3983
923.55	3998
923.659	4036
923.767	4150
923.876	4029
923.984	4166
924.092	3994
924.201	4082
924.309	4143
924.417	4150
924.525	4059
924.633	4078
924.741	5071
924.849	3964
924.956	4131
925.064	3994
925.172	3934
925.279	4006
925.387	4048
925.494	4116
925.602	4204
925.709	4211
925.816	4055
925.924	4154
926.031	4249
926.138	4169
926.245	4238
926.352	4124
926.459	4287
926.566	4287
926.673	4223
926.779	4074
926.886	4086
926.993	3975
927.099	3972
927.206	3960
927.312	3972
927.419	4048
927.525	4048
927.631	4105
927.737	3960
927.843	3960
927.95	3846
928.056	4002
928.162	3987
928.267	4078
928.373	4645
928.479	4162
928.585	3873
928.69	3994
928.796	4051
928.901	3975
929.007	3876
929.112	4036
929.218	4063
929.323	3960
929.428	3994
929.533	4109
929.638	3983
929.743	3968
929.848	4059
929.953	4040
930.058	3945
930.163	3762
930.267	3800
930.372	3983
930.477	3804
930.581	4112
930.685	3922
930.79	3869
930.894	3861
930.998	3861
931.103	4017
931.207	3709
931.311	3724
931.415	3705
931.519	3545
931.623	3568
