Data from test_V78500241_245.txt Node
Date: Fri Mar 25 16:50:42 CST 2022
User: usil
Spectrometer: V785-0024
Trigger mode: 0
Integration Time (sec): 4.000000E-1
Scans to average: 1
Nonlinearity correction enabled: false
Boxcar width: 0
Storing dark spectrum: false
XAxis mode: Wavelengths
Number of Pixels in Spectrum: 1024
>>>>>Begin Spectral Data<<<<<
801.071	8084
801.214	7986
801.356	7909
801.499	7925
801.641	7868
801.783	7856
801.926	8016
802.068	8012
802.211	8073
802.353	8035
802.496	7947
802.638	7917
802.78	7978
802.923	7944
803.065	7890
803.208	7811
803.35	8001
803.492	8054
803.635	8218
803.777	8073
803.919	8145
804.061	8419
804.204	8176
804.346	8035
804.488	7947
804.63	8111
804.773	8012
804.915	8130
805.057	8225
805.199	8176
805.341	8225
805.483	8218
805.626	8183
805.768	8138
805.91	8214
806.052	8180
806.194	8107
806.336	8275
806.478	8134
806.62	8138
806.762	8142
806.904	8237
807.046	8488
807.188	8324
807.33	8324
807.472	8290
807.614	8096
807.756	8138
807.898	7940
808.04	7944
808.182	7913
808.324	7959
808.465	7944
808.607	8043
808.749	8115
808.891	8271
809.033	8336
809.174	8138
809.316	8039
809.458	8119
809.6	8001
809.741	7940
809.883	8024
810.025	8142
810.166	8138
810.308	8115
810.45	7993
810.591	7894
810.733	7761
810.875	7681
811.016	7613
811.158	7518
811.299	7628
811.441	7784
811.582	7689
811.724	7544
811.865	7571
812.007	7613
812.148	7586
812.29	7624
812.431	7750
812.573	7978
812.714	7940
812.855	8225
812.997	8202
813.138	8358
813.279	8157
813.421	8229
813.562	7986
813.703	7879
813.845	7807
813.986	7483
814.127	7263
814.268	7217
814.41	7247
814.551	7236
814.692	7198
814.833	7129
814.974	7114
815.115	7057
815.256	6985
815.397	6939
815.539	6958
815.68	6856
815.821	6760
815.962	6909
816.103	6806
816.244	6783
816.385	6669
816.526	6608
816.666	6540
816.807	6300
816.948	6410
817.089	6490
817.23	6445
817.371	6399
817.512	6346
817.653	6395
817.793	6357
817.934	6399
818.075	6467
818.216	6467
818.356	6452
818.497	6209
818.638	6060
818.778	6171
818.919	6136
819.06	6140
819.2	6285
819.341	6239
819.481	6384
819.622	6498
819.762	6726
819.903	6662
820.043	6582
820.184	6574
820.324	6540
820.465	6642
820.605	6635
820.746	6631
820.886	6490
821.026	6623
821.167	6711
821.307	6825
821.447	6722
821.588	6681
821.728	6528
821.868	6551
822.008	6346
822.149	6403
822.289	6403
822.429	6155
822.569	6034
822.709	6152
822.849	5920
822.99	5935
823.13	5977
823.27	5908
823.41	5794
823.55	5756
823.69	5771
823.83	5813
823.97	5688
824.11	5524
824.25	5554
824.389	5520
824.529	5543
824.669	5551
824.809	5638
824.949	5665
825.089	5661
825.228	5623
825.368	5440
825.508	5315
825.648	5387
825.787	5421
825.927	5372
826.067	5326
826.206	5360
826.346	5398
826.485	5474
826.625	5421
826.765	5589
826.904	5482
827.044	5265
827.183	5189
827.323	5086
827.462	5261
827.601	5170
827.741	5162
827.88	5299
828.02	5128
828.159	5193
828.298	5299
828.437	5330
828.577	5284
828.716	5459
828.855	5360
828.994	5162
829.134	5162
829.273	5235
829.412	5189
829.551	5162
829.69	5151
829.829	5227
829.968	5368
830.107	5246
830.246	5318
830.385	5181
830.524	5121
830.663	5090
830.802	4980
830.941	4908
831.08	4908
831.219	5010
831.357	5052
831.496	5162
831.635	4938
831.774	4847
831.913	4828
832.051	4717
832.19	4740
832.329	4877
832.467	4717
832.606	4641
832.744	4729
832.883	4733
833.022	4759
833.16	4793
833.299	4850
833.437	4847
833.576	4866
833.714	4877
833.852	4900
833.991	4896
834.129	4972
834.267	4957
834.406	4896
834.544	4984
834.682	4965
834.821	4972
834.959	5189
835.097	4987
835.235	5136
835.373	5132
835.511	5071
835.65	5071
835.788	5037
835.926	4885
836.064	4896
836.202	4942
836.34	5159
836.478	5193
836.615	5121
836.753	5269
836.891	5296
837.029	5227
837.167	5201
837.305	5193
837.443	5117
837.58	5105
837.718	5261
837.856	5166
837.993	5117
838.131	5231
838.269	5254
838.406	5162
838.544	5159
838.681	5022
838.819	5048
838.956	4911
839.094	4919
839.231	5025
839.369	5090
839.506	5425
839.643	5299
839.781	5022
839.918	4987
840.055	5037
840.193	5041
840.33	5105
840.467	5140
840.604	5094
840.742	5474
840.879	5109
841.016	5048
841.153	5159
841.29	5353
841.427	5337
841.564	5345
841.701	5402
841.838	5269
841.975	5246
842.112	5277
842.249	5102
842.385	5128
842.522	5334
842.659	5136
842.796	5105
842.933	5220
843.069	5140
843.206	5174
843.343	5337
843.479	5284
843.616	5223
843.752	5041
843.889	5018
844.025	5185
844.162	5022
844.298	5193
844.435	5105
844.571	5025
844.708	5220
844.844	5315
844.98	5326
845.117	5284
845.253	5105
845.389	5109
845.525	5143
845.661	5132
845.798	5056
845.934	5098
846.07	5060
846.206	5143
846.342	5265
846.478	5162
846.614	5014
846.75	4980
846.886	4930
847.022	5174
847.158	5003
847.294	5052
847.429	5105
847.565	5037
847.701	5364
847.837	4915
847.972	4854
848.108	4946
848.244	4961
848.379	4782
848.515	4771
848.65	4744
848.786	4790
848.921	4866
849.057	4885
849.192	4957
849.328	4843
849.463	4885
849.598	4866
849.734	4763
849.869	4748
850.004	4656
850.14	4736
850.275	4637
850.41	4580
850.545	4603
850.68	4649
850.815	4687
850.95	4675
851.085	4930
851.22	4797
851.355	4755
851.49	4675
851.625	4710
851.76	4683
851.895	4588
852.03	4565
852.165	4721
852.299	4710
852.434	4816
852.569	4805
852.703	4828
852.838	4892
852.973	5006
853.107	4987
853.242	4805
853.376	4729
853.511	4634
853.645	4683
853.78	4858
853.914	4797
854.048	4721
854.183	4694
854.317	4740
854.451	4896
854.585	4721
854.72	4656
854.854	4771
854.988	4626
855.122	4668
855.256	4561
855.39	4656
855.524	4847
855.658	4733
855.792	4793
855.926	4839
856.06	4801
856.194	4824
856.327	4786
856.461	4641
856.595	4683
856.729	4622
856.862	4774
856.996	4759
857.13	4793
857.263	4847
857.397	4828
857.53	4691
857.664	4736
857.797	4809
857.931	4866
858.064	4733
858.197	4771
858.331	4675
858.464	4691
858.597	4569
858.731	4649
858.864	4687
858.997	4626
859.13	4687
859.263	4721
859.396	4740
859.529	4645
859.662	4615
859.795	4588
859.928	4653
860.061	4820
860.194	4778
860.327	4653
860.46	4565
860.592	4752
860.725	4778
860.858	4771
860.99	4641
861.123	4599
861.256	4531
861.388	4649
861.521	5474
861.653	4516
861.786	4493
861.918	4519
862.05	4542
862.183	4569
862.315	4656
862.447	4649
862.58	4546
862.712	4466
862.844	4371
862.976	4531
863.108	4527
863.24	4923
863.372	4383
863.504	4519
863.636	4413
863.768	4554
863.9	4485
864.032	4360
864.164	4447
864.296	4516
864.428	4603
864.559	4569
864.691	4565
864.823	4535
864.954	4546
865.086	4554
865.217	4504
865.349	4447
865.48	4493
865.612	4561
865.743	4668
865.875	4466
866.006	4508
866.137	4527
866.269	4523
866.4	4489
866.531	4470
866.662	4455
866.793	4466
866.924	4451
867.055	4531
867.186	4546
867.317	4443
867.448	4402
867.579	4443
867.71	4462
867.841	4424
867.972	4523
868.103	4577
868.233	4508
868.364	4481
868.495	4546
868.625	4698
868.756	4805
868.886	4599
869.017	4615
869.147	4805
869.278	4835
869.408	4698
869.539	4702
869.669	4790
869.799	4729
869.929	4843
870.06	4748
870.19	4980
870.32	4957
870.45	4976
870.58	5094
870.71	5117
870.84	5113
870.97	4999
871.1	4938
871.23	5159
871.36	5159
871.489	5083
871.619	5086
871.749	5162
871.879	5143
872.008	5223
872.138	5121
872.267	4972
872.397	4904
872.526	4862
872.656	4748
872.785	4839
872.915	4995
873.044	5083
873.173	4961
873.303	4965
873.432	5006
873.561	4987
873.69	4908
873.819	4885
873.948	5003
874.077	4854
874.206	4790
874.335	4820
874.464	4961
874.593	5094
874.722	5006
874.851	5147
874.979	5102
875.108	5052
875.237	4976
875.365	4900
875.494	4919
875.623	5010
875.751	4889
875.88	4915
876.008	5025
876.136	5029
876.265	5235
876.393	5349
876.521	5334
876.65	5292
876.778	5239
876.906	5132
877.034	5098
877.162	5083
877.29	5052
877.418	5079
877.546	5037
877.674	5090
877.802	5067
877.93	5022
878.058	4961
878.185	4896
878.313	4965
878.441	4984
878.568	4828
878.696	4904
878.824	4984
878.951	5029
879.079	5166
879.206	5334
879.333	5181
879.461	5010
879.588	5041
879.715	5162
879.842	5235
879.97	5060
880.097	4801
880.224	4755
880.351	4820
880.478	4847
880.605	4866
880.732	4797
880.859	5098
880.986	4938
881.112	4949
881.239	4839
881.366	4653
881.493	4630
881.619	4603
881.746	4691
881.872	4698
881.999	4702
882.125	4736
882.252	4831
882.378	4805
882.505	4965
882.631	4824
882.757	4725
882.883	4721
883.01	4774
883.136	4702
883.262	4615
883.388	4653
883.514	4862
883.64	4919
883.766	4847
883.892	4729
884.018	4793
884.143	4915
884.269	5025
884.395	4706
884.52	4664
884.646	4668
884.772	4634
884.897	4626
885.023	4698
885.148	4816
885.274	4927
885.399	4828
885.524	4790
885.65	4767
885.775	4778
885.9	4729
886.025	4919
886.15	4877
886.275	4778
886.4	4694
886.525	4725
886.65	4759
886.775	4748
886.9	4923
887.025	5083
887.149	4843
887.274	4687
887.399	4592
887.523	4630
887.648	4630
887.773	4592
887.897	4839
888.021	4801
888.146	4687
888.27	4854
888.395	4984
888.519	4809
888.643	4778
888.767	4854
888.891	4706
889.015	4622
889.139	4687
889.263	4645
889.387	4801
889.511	4854
889.635	4835
889.759	4668
889.883	4622
890.006	4733
890.13	4870
890.254	4649
890.377	4672
890.501	4519
890.624	4542
890.748	4668
890.871	4577
890.995	4455
891.118	4462
891.241	4569
891.364	4603
891.488	4698
891.611	4519
891.734	4542
891.857	4645
891.98	4535
892.103	4694
892.226	4630
892.349	4535
892.471	4474
892.594	4565
892.717	4641
892.839	4599
892.962	4607
893.085	4714
893.207	4607
893.33	4474
893.452	4603
893.575	4683
893.697	4615
893.819	4831
893.941	4843
894.064	4774
894.186	4668
894.308	4592
894.43	4786
894.552	4801
894.674	4782
894.796	4599
894.918	4603
895.04	4596
895.161	4767
895.283	4664
895.405	4660
895.526	4653
895.648	4725
895.769	4733
895.891	4767
896.012	4740
896.134	4782
896.255	4675
896.376	4645
896.498	4664
896.619	4683
896.74	4653
896.861	4736
896.982	4984
897.103	5117
897.224	4843
897.345	4710
897.466	4706
897.587	4755
897.708	4873
897.828	4797
897.949	4687
898.07	4634
898.19	4702
898.311	4820
898.431	4683
898.552	4759
898.672	4828
898.792	4835
898.913	4763
899.033	4679
899.153	4561
899.273	4493
899.393	4516
899.513	4523
899.633	4538
899.753	4554
899.873	4485
899.993	4622
900.113	4527
900.232	4611
900.352	4588
900.472	4519
900.591	4428
900.711	4516
900.83	4489
900.95	4649
901.069	4714
901.189	4580
901.308	4428
901.427	4356
901.546	4379
901.665	4478
901.784	4599
901.904	4440
902.023	4303
902.141	4230
902.26	4188
902.379	4329
902.498	4246
902.617	4265
902.735	4360
902.854	4398
902.973	4367
903.091	4200
903.21	4268
903.328	4356
903.446	4344
903.565	4284
903.683	4390
903.801	4310
903.919	4455
904.038	4451
904.156	4344
904.274	4455
904.392	4386
904.51	4459
904.627	4466
904.745	4596
904.863	4660
904.981	4424
905.098	4367
905.216	4421
905.334	4451
905.451	4459
905.569	4459
905.686	4588
905.803	4561
905.921	4421
906.038	4538
906.155	4516
906.272	4459
906.389	4470
906.506	4405
906.623	4421
906.74	4455
906.857	4344
906.974	4421
907.091	4554
907.208	4668
907.324	4596
907.441	4535
907.557	4390
907.674	4367
907.79	4325
907.907	4421
908.023	4523
908.139	4531
908.256	4470
908.372	4485
908.488	4527
908.604	4398
908.72	4367
908.836	4398
908.952	4356
909.068	4493
909.184	4558
909.3	4542
909.415	4573
909.531	4558
909.647	4356
909.762	4432
909.878	4352
909.993	4447
910.108	4443
910.224	4455
910.339	4516
910.454	4409
910.57	4432
910.685	4341
910.8	4641
910.915	4584
911.03	4546
911.145	4329
911.259	4329
911.374	4394
911.489	4310
911.604	4322
911.718	4185
911.833	4196
911.947	4112
912.062	4067
912.176	4211
912.291	4257
912.405	4253
912.519	4455
912.633	4531
912.748	4348
912.862	4322
912.976	4211
913.09	4124
913.204	4230
913.318	4261
913.431	4371
913.545	4375
913.659	4451
913.772	4371
913.886	4310
914	4280
914.113	4421
914.226	4470
914.34	4394
914.453	4253
914.566	4462
914.68	4341
914.793	4344
914.906	4154
915.019	4120
915.132	4055
915.245	4188
915.358	4261
915.47	4249
915.583	4310
915.696	4348
915.809	4413
915.921	4451
916.034	4261
916.146	4295
916.259	4261
916.371	4421
916.483	4371
916.595	4291
916.708	4402
916.82	4371
916.932	4363
917.044	4352
917.156	4367
917.268	4261
917.38	4287
917.491	4318
917.603	4322
917.715	4516
917.826	4474
917.938	4356
918.049	4287
918.161	4386
918.272	4569
918.384	4558
918.495	4504
918.606	4268
918.717	4238
918.828	4413
918.939	4375
919.05	4291
919.161	4329
919.272	4131
919.383	4276
919.494	4489
919.604	4656
919.715	4432
919.826	4325
919.936	4428
920.047	4554
920.157	4546
920.267	4759
920.378	4573
920.488	4527
920.598	4721
920.708	4843
920.818	4797
920.928	4763
921.038	5025
921.148	4915
921.258	4649
921.368	4577
921.477	4504
921.587	4440
921.697	4363
921.806	4634
921.916	4478
922.025	4280
922.134	4284
922.244	4249
922.353	4341
922.462	4200
922.571	4131
922.68	4078
922.789	4013
922.898	4013
923.007	4002
923.116	4150
923.224	4090
923.333	4105
923.442	3991
923.55	3983
923.659	4040
923.767	4128
923.876	4063
923.984	4158
924.092	3998
924.201	4097
924.309	4093
924.417	4162
924.525	4059
924.633	4105
924.741	5060
924.849	3937
924.956	4109
925.064	3983
925.172	3918
925.279	3922
925.387	4059
925.494	4090
925.602	4253
925.709	4192
925.816	4086
925.924	4139
926.031	4249
926.138	4185
926.245	4227
926.352	4097
926.459	4265
926.566	4348
926.673	4135
926.779	4120
926.886	4135
926.993	3953
927.099	3998
927.206	3991
927.312	3922
927.419	4078
927.525	4059
927.631	4067
927.737	3975
927.843	3979
927.95	3884
928.056	3945
928.162	4048
928.267	4086
928.373	4630
928.479	4124
928.585	3907
928.69	4010
928.796	4063
928.901	3964
929.007	3854
929.112	4036
929.218	3983
929.323	3949
929.428	3937
929.533	4147
929.638	3953
929.743	4013
929.848	4063
929.953	4002
930.058	3991
930.163	3774
930.267	3804
930.372	3998
930.477	3785
930.581	4109
930.685	3934
930.79	3831
930.894	3937
930.998	3884
931.103	4063
931.207	3717
931.311	3724
931.415	3694
931.519	3526
931.623	3557
