Data from test_V78500241_461.txt Node
Date: Fri Mar 25 16:52:12 CST 2022
User: usil
Spectrometer: V785-0024
Trigger mode: 0
Integration Time (sec): 4.000000E-1
Scans to average: 1
Nonlinearity correction enabled: false
Boxcar width: 0
Storing dark spectrum: false
XAxis mode: Wavelengths
Number of Pixels in Spectrum: 1024
>>>>>Begin Spectral Data<<<<<
801.071	8084
801.214	7989
801.356	7906
801.499	7890
801.641	7852
801.783	7883
801.926	8054
802.068	8027
802.211	8084
802.353	8024
802.496	7849
802.638	7871
802.78	7936
802.923	7951
803.065	7852
803.208	7868
803.35	8035
803.492	8111
803.635	8130
803.777	8050
803.919	8134
804.061	8461
804.204	8168
804.346	8088
804.488	8005
804.63	8062
804.773	8073
804.915	8103
805.057	8252
805.199	8157
805.341	8225
805.483	8259
805.626	8180
805.768	8077
805.91	8103
806.052	8172
806.194	8058
806.336	8267
806.478	8092
806.62	8088
806.762	8153
806.904	8221
807.046	8423
807.188	8347
807.33	8248
807.472	8263
807.614	8126
807.756	8111
807.898	8035
808.04	7890
808.182	7871
808.324	7967
808.465	7974
808.607	8069
808.749	8123
808.891	8172
809.033	8286
809.174	8168
809.316	8012
809.458	8073
809.6	8054
809.741	8027
809.883	7970
810.025	8092
810.166	8077
810.308	7974
810.45	8024
810.591	7856
810.733	7712
810.875	7658
811.016	7510
811.158	7514
811.299	7655
811.441	7715
811.582	7727
811.724	7552
811.865	7597
812.007	7670
812.148	7559
812.29	7674
812.431	7750
812.573	7940
812.714	8016
812.855	8206
812.997	8275
813.138	8366
813.279	8161
813.421	8172
813.562	8008
813.703	7947
813.845	7818
813.986	7502
814.127	7346
814.268	7362
814.41	7305
814.551	7156
814.692	7198
814.833	7042
814.974	7164
815.115	7129
815.256	6993
815.397	6935
815.539	6966
815.68	6802
815.821	6791
815.962	6867
816.103	6867
816.244	6768
816.385	6635
816.526	6665
816.666	6566
816.807	6319
816.948	6475
817.089	6448
817.23	6471
817.371	6441
817.512	6403
817.653	6441
817.793	6369
817.934	6452
818.075	6445
818.216	6456
818.356	6369
818.497	6270
818.638	6152
818.778	6152
818.919	6121
819.06	6114
819.2	6350
819.341	6334
819.481	6353
819.622	6502
819.762	6760
819.903	6692
820.043	6585
820.184	6536
820.324	6612
820.465	6677
820.605	6650
820.746	6646
820.886	6540
821.026	6665
821.167	6715
821.307	6818
821.447	6806
821.588	6677
821.728	6582
821.868	6506
822.008	6304
822.149	6361
822.289	6429
822.429	6133
822.569	6148
822.709	6152
822.849	5965
822.99	5931
823.13	5969
823.27	5954
823.41	5824
823.55	5760
823.69	5798
823.83	5767
823.97	5676
824.11	5539
824.25	5497
824.389	5615
824.529	5570
824.669	5562
824.809	5634
824.949	5661
825.089	5634
825.228	5592
825.368	5414
825.508	5345
825.648	5364
825.787	5429
825.927	5368
826.067	5296
826.206	5299
826.346	5349
826.485	5395
826.625	5417
826.765	5573
826.904	5444
827.044	5315
827.183	5174
827.323	5178
827.462	5265
827.601	5193
827.741	5197
827.88	5242
828.02	5121
828.159	5212
828.298	5334
828.437	5360
828.577	5292
828.716	5478
828.855	5376
828.994	5197
829.134	5178
829.273	5208
829.412	5121
829.551	5170
829.69	5193
829.829	5246
829.968	5395
830.107	5246
830.246	5288
830.385	5166
830.524	5140
830.663	5060
830.802	5006
830.941	4877
831.08	4881
831.219	4961
831.357	4961
831.496	5170
831.635	4946
831.774	4809
831.913	4854
832.051	4744
832.19	4797
832.329	4816
832.467	4759
832.606	4675
832.744	4740
832.883	4725
833.022	4740
833.16	4759
833.299	4866
833.437	4847
833.576	4847
833.714	4904
833.852	4915
833.991	4862
834.129	4999
834.267	4980
834.406	4854
834.544	4968
834.682	4995
834.821	4923
834.959	5178
835.097	4976
835.235	5159
835.373	5056
835.511	5140
835.65	5010
835.788	4972
835.926	4900
836.064	4908
836.202	4915
836.34	5155
836.478	5231
836.615	5098
836.753	5208
836.891	5242
837.029	5231
837.167	5193
837.305	5178
837.443	5143
837.58	5071
837.718	5242
837.856	5201
837.993	5113
838.131	5242
838.269	5208
838.406	5201
838.544	5204
838.681	5102
838.819	5014
838.956	4900
839.094	4896
839.231	4980
839.369	5045
839.506	5452
839.643	5246
839.781	5113
839.918	4987
840.055	5075
840.193	5094
840.33	5143
840.467	5124
840.604	5235
840.742	5414
840.879	5045
841.016	5090
841.153	5162
841.29	5414
841.427	5345
841.564	5292
841.701	5444
841.838	5223
841.975	5296
842.112	5227
842.249	5136
842.385	5155
842.522	5326
842.659	5128
842.796	5128
842.933	5223
843.069	5162
843.206	5155
843.343	5315
843.479	5261
843.616	5254
843.752	5022
843.889	4987
844.025	5220
844.162	5006
844.298	5231
844.435	5151
844.571	5056
844.708	5227
844.844	5292
844.98	5292
845.117	5284
845.253	5151
845.389	5121
845.525	5174
845.661	5117
845.798	5113
845.934	5155
846.07	5041
846.206	5166
846.342	5322
846.478	5185
846.614	5014
846.75	5003
846.886	4946
847.022	5136
847.158	5075
847.294	5105
847.429	5102
847.565	5098
847.701	5360
847.837	4866
847.972	4839
848.108	4919
848.244	5006
848.379	4763
848.515	4714
848.65	4786
848.786	4706
848.921	4835
849.057	4881
849.192	4881
849.328	4805
849.463	4911
849.598	4797
849.734	4740
849.869	4710
850.004	4599
850.14	4641
850.275	4626
850.41	4580
850.545	4573
850.68	4626
850.815	4637
850.95	4603
851.085	4812
851.22	4763
851.355	4729
851.49	4645
851.625	4649
851.76	4637
851.895	4569
852.03	4550
852.165	4637
852.299	4759
852.434	4809
852.569	4763
852.703	4778
852.838	4850
852.973	4927
853.107	4927
853.242	4748
853.376	4664
853.511	4542
853.645	4664
853.78	4820
853.914	4672
854.048	4721
854.183	4668
854.317	4733
854.451	4831
854.585	4714
854.72	4679
854.854	4733
854.988	4596
855.122	4637
855.256	4542
855.39	4649
855.524	4763
855.658	4706
855.792	4675
855.926	4710
856.06	4774
856.194	4797
856.327	4698
856.461	4645
856.595	4596
856.729	4656
856.862	4694
856.996	4717
857.13	4748
857.263	4812
857.397	4771
857.53	4637
857.664	4729
857.797	4786
857.931	4816
858.064	4683
858.197	4752
858.331	4687
858.464	4615
858.597	4489
858.731	4599
858.864	4634
858.997	4596
859.13	4649
859.263	4668
859.396	4656
859.529	4615
859.662	4584
859.795	4592
859.928	4634
860.061	4755
860.194	4771
860.327	4569
860.46	4630
860.592	4694
860.725	4706
860.858	4744
860.99	4580
861.123	4577
861.256	4542
861.388	4618
861.521	5379
861.653	4466
861.786	4413
861.918	4455
862.05	4508
862.183	4550
862.315	4580
862.447	4641
862.58	4588
862.712	4375
862.844	4299
862.976	4432
863.108	4478
863.24	4759
863.372	4341
863.504	4417
863.636	4375
863.768	4455
863.9	4413
864.032	4352
864.164	4394
864.296	4462
864.428	4596
864.559	4546
864.691	4485
864.823	4516
864.954	4497
865.086	4500
865.217	4474
865.349	4398
865.48	4466
865.612	4466
865.743	4687
865.875	4447
866.006	4424
866.137	4451
866.269	4398
866.4	4478
866.531	4413
866.662	4394
866.793	4409
866.924	4455
867.055	4447
867.186	4447
867.317	4451
867.448	4375
867.579	4398
867.71	4432
867.841	4352
867.972	4443
868.103	4516
868.233	4485
868.364	4459
868.495	4489
868.625	4641
868.756	4763
868.886	4565
869.017	4672
869.147	4763
869.278	4771
869.408	4664
869.539	4599
869.669	4778
869.799	4702
869.929	4763
870.06	4744
870.19	4911
870.32	4946
870.45	4915
870.58	4980
870.71	5037
870.84	5121
870.97	4953
871.1	4919
871.23	5117
871.36	5105
871.489	5052
871.619	5094
871.749	5124
871.879	5109
872.008	5208
872.138	5037
872.267	5003
872.397	4828
872.526	4809
872.656	4767
872.785	4847
872.915	4915
873.044	5045
873.173	4946
873.303	4953
873.432	4980
873.561	4984
873.69	4892
873.819	4866
873.948	4919
874.077	4839
874.206	4782
874.335	4812
874.464	4911
874.593	5064
874.722	4965
874.851	5086
874.979	5067
875.108	5060
875.237	4934
875.365	4847
875.494	4911
875.623	4972
875.751	4786
875.88	4911
876.008	4976
876.136	5052
876.265	5170
876.393	5353
876.521	5239
876.65	5235
876.778	5159
876.906	5045
877.034	4991
877.162	5029
877.29	5033
877.418	5079
877.546	5090
877.674	5067
877.802	4968
877.93	5037
878.058	4900
878.185	4889
878.313	4957
878.441	4949
878.568	4763
878.696	4847
878.824	4946
878.951	4995
879.079	5132
879.206	5261
879.333	5048
879.461	4961
879.588	5010
879.715	5102
879.842	5197
879.97	5014
880.097	4782
880.224	4786
880.351	4809
880.478	4828
880.605	4805
880.732	4790
880.859	5064
880.986	4885
881.112	4885
881.239	4809
881.366	4668
881.493	4645
881.619	4618
881.746	4698
881.872	4664
881.999	4668
882.125	4656
882.252	4809
882.378	4809
882.505	5018
882.631	4812
882.757	4691
882.883	4706
883.01	4759
883.136	4675
883.262	4634
883.388	4607
883.514	4835
883.64	4847
883.766	4797
883.892	4702
884.018	4755
884.143	4870
884.269	4999
884.395	4755
884.52	4668
884.646	4641
884.772	4615
884.897	4588
885.023	4660
885.148	4835
885.274	4854
885.399	4835
885.524	4778
885.65	4740
885.775	4748
885.9	4717
886.025	4835
886.15	4843
886.275	4702
886.4	4653
886.525	4736
886.65	4717
886.775	4717
886.9	4911
887.025	4976
887.149	4858
887.274	4656
887.399	4573
887.523	4634
887.648	4558
887.773	4615
887.897	4759
888.021	4816
888.146	4691
888.27	4801
888.395	4877
888.519	4797
888.643	4793
888.767	4820
888.891	4679
889.015	4577
889.139	4694
889.263	4641
889.387	4755
889.511	4854
889.635	4824
889.759	4649
889.883	4622
890.006	4702
890.13	4816
890.254	4611
890.377	4702
890.501	4516
890.624	4561
890.748	4615
890.871	4512
890.995	4447
891.118	4394
891.241	4535
891.364	4535
891.488	4637
891.611	4474
891.734	4523
891.857	4558
891.98	4527
892.103	4691
892.226	4615
892.349	4558
892.471	4451
892.594	4554
892.717	4580
892.839	4565
892.962	4603
893.085	4672
893.207	4611
893.33	4424
893.452	4519
893.575	4664
893.697	4615
893.819	4797
893.941	4862
894.064	4767
894.186	4607
894.308	4558
894.43	4748
894.552	4820
894.674	4755
894.796	4538
894.918	4558
895.04	4584
895.161	4717
895.283	4649
895.405	4565
895.526	4599
895.648	4702
895.769	4660
895.891	4714
896.012	4714
896.134	4721
896.255	4691
896.376	4603
896.498	4596
896.619	4721
896.74	4660
896.861	4698
896.982	4942
897.103	5075
897.224	4778
897.345	4714
897.466	4664
897.587	4710
897.708	4885
897.828	4790
897.949	4615
898.07	4577
898.19	4607
898.311	4793
898.431	4672
898.552	4809
898.672	4828
898.792	4793
898.913	4717
899.033	4626
899.153	4478
899.273	4447
899.393	4504
899.513	4535
899.633	4523
899.753	4512
899.873	4516
899.993	4561
900.113	4565
900.232	4577
900.352	4573
900.472	4451
900.591	4428
900.711	4538
900.83	4421
900.95	4599
901.069	4706
901.189	4535
901.308	4348
901.427	4341
901.546	4367
901.665	4500
901.784	4523
901.904	4386
902.023	4299
902.141	4188
902.26	4177
902.379	4299
902.498	4204
902.617	4207
902.735	4367
902.854	4383
902.973	4348
903.091	4234
903.21	4211
903.328	4333
903.446	4291
903.565	4234
903.683	4329
903.801	4265
903.919	4375
904.038	4443
904.156	4322
904.274	4455
904.392	4360
904.51	4440
904.627	4466
904.745	4561
904.863	4618
904.981	4405
905.098	4341
905.216	4394
905.334	4462
905.451	4462
905.569	4470
905.686	4565
905.803	4569
905.921	4421
906.038	4546
906.155	4485
906.272	4409
906.389	4462
906.506	4402
906.623	4356
906.74	4402
906.857	4299
906.974	4405
907.091	4508
907.208	4714
907.324	4618
907.441	4542
907.557	4360
907.674	4348
907.79	4318
907.907	4405
908.023	4466
908.139	4451
908.256	4455
908.372	4459
908.488	4428
908.604	4367
908.72	4299
908.836	4363
908.952	4352
909.068	4474
909.184	4573
909.3	4489
909.415	4596
909.531	4523
909.647	4360
909.762	4371
909.878	4352
909.993	4440
910.108	4417
910.224	4398
910.339	4459
910.454	4356
910.57	4352
910.685	4276
910.8	4649
910.915	4546
911.03	4478
911.145	4367
911.259	4363
911.374	4371
911.489	4306
911.604	4287
911.718	4173
911.833	4200
911.947	4059
912.062	4017
912.176	4188
912.291	4276
912.405	4272
912.519	4432
912.633	4500
912.748	4371
912.862	4295
912.976	4249
913.09	4086
913.204	4200
913.318	4238
913.431	4383
913.545	4398
913.659	4417
913.772	4390
913.886	4257
914	4211
914.113	4360
914.226	4440
914.34	4402
914.453	4257
914.566	4421
914.68	4333
914.793	4325
914.906	4169
915.019	4131
915.132	4112
915.245	4162
915.358	4227
915.47	4265
915.583	4249
915.696	4287
915.809	4390
915.921	4413
916.034	4223
916.146	4253
916.259	4238
916.371	4383
916.483	4314
916.595	4268
916.708	4318
916.82	4341
916.932	4367
917.044	4360
917.156	4344
917.268	4196
917.38	4284
917.491	4341
917.603	4280
917.715	4421
917.826	4436
917.938	4424
918.049	4268
918.161	4413
918.272	4558
918.384	4523
918.495	4443
918.606	4318
918.717	4265
918.828	4348
918.939	4314
919.05	4291
919.161	4325
919.272	4131
919.383	4276
919.494	4470
919.604	4611
919.715	4417
919.826	4348
919.936	4405
920.047	4512
920.157	4508
920.267	4656
920.378	4508
920.488	4481
920.598	4733
920.708	4930
920.818	4812
920.928	4752
921.038	4972
921.148	4881
921.258	4626
921.368	4603
921.477	4527
921.587	4512
921.697	4390
921.806	4573
921.916	4398
922.025	4253
922.134	4272
922.244	4177
922.353	4356
922.462	4173
922.571	4135
922.68	4074
922.789	3994
922.898	4025
923.007	3979
923.116	4120
923.224	4112
923.333	4120
923.442	4010
923.55	3960
923.659	4063
923.767	4093
923.876	4021
923.984	4109
924.092	3975
924.201	4055
924.309	4112
924.417	4105
924.525	4139
924.633	4128
924.741	4980
924.849	3899
924.956	4131
925.064	3949
925.172	3907
925.279	3945
925.387	4093
925.494	4063
925.602	4154
925.709	4227
925.816	3979
925.924	4097
926.031	4230
926.138	4181
926.245	4223
926.352	4116
926.459	4272
926.566	4291
926.673	4101
926.779	4040
926.886	4078
926.993	3972
927.099	3964
927.206	3930
927.312	3960
927.419	4071
927.525	4025
927.631	4078
927.737	3972
927.843	3953
927.95	3854
928.056	3968
928.162	3998
928.267	4025
928.373	4668
928.479	4086
928.585	3918
928.69	4040
928.796	4139
928.901	3968
929.007	3854
929.112	4010
929.218	3964
929.323	3949
929.428	3956
929.533	4109
929.638	3880
929.743	3937
929.848	3983
929.953	3975
930.058	3975
930.163	3755
930.267	3808
930.372	3972
930.477	3812
930.581	4105
930.685	3953
930.79	3827
930.894	3884
930.998	3888
931.103	4036
931.207	3694
931.311	3713
931.415	3652
931.519	3500
931.623	3549
