Data from test_V78500241_2613.txt Node
Date: Fri Mar 25 17:07:10 CST 2022
User: usil
Spectrometer: V785-0024
Trigger mode: 0
Integration Time (sec): 4.000000E-1
Scans to average: 1
Nonlinearity correction enabled: false
Boxcar width: 0
Storing dark spectrum: false
XAxis mode: Wavelengths
Number of Pixels in Spectrum: 1024
>>>>>Begin Spectral Data<<<<<
801.071	8073
801.214	8001
801.356	7894
801.499	7890
801.641	7772
801.783	7822
801.926	7947
802.068	7955
802.211	8012
802.353	8039
802.496	7875
802.638	7860
802.78	7913
802.923	8005
803.065	7811
803.208	7860
803.35	8005
803.492	8073
803.635	8191
803.777	8020
803.919	8187
804.061	8339
804.204	8161
804.346	8062
804.488	8043
804.63	8054
804.773	7997
804.915	8180
805.057	8263
805.199	8149
805.341	8218
805.483	8279
805.626	8263
805.768	8161
805.91	8240
806.052	8123
806.194	8077
806.336	8343
806.478	8126
806.62	8092
806.762	8081
806.904	8218
807.046	8404
807.188	8362
807.33	8290
807.472	8248
807.614	8153
807.756	8172
807.898	8081
808.04	7913
808.182	7925
808.324	7944
808.465	7909
808.607	8077
808.749	8153
808.891	8199
809.033	8328
809.174	8225
809.316	8012
809.458	8103
809.6	7974
809.741	7959
809.883	8035
810.025	8088
810.166	8024
810.308	8016
810.45	8008
810.591	7860
810.733	7818
810.875	7628
811.016	7533
811.158	7487
811.299	7529
811.441	7814
811.582	7655
811.724	7563
811.865	7578
812.007	7556
812.148	7556
812.29	7700
812.431	7677
812.573	7833
812.714	7917
812.855	8065
812.997	8221
813.138	8301
813.279	8149
813.421	8073
813.562	7936
813.703	7852
813.845	7715
813.986	7381
814.127	7247
814.268	7228
814.41	7168
814.551	7171
814.692	7225
814.833	7004
814.974	7137
815.115	7122
815.256	6951
815.397	6977
815.539	6973
815.68	6859
815.821	6764
815.962	6863
816.103	6802
816.244	6711
816.385	6627
816.526	6612
816.666	6547
816.807	6327
816.948	6456
817.089	6437
817.23	6407
817.371	6388
817.512	6407
817.653	6323
817.793	6369
817.934	6441
818.075	6445
818.216	6414
818.356	6395
818.497	6220
818.638	6038
818.778	6182
818.919	6163
819.06	6159
819.2	6384
819.341	6300
819.481	6429
819.622	6544
819.762	6810
819.903	6719
820.043	6612
820.184	6604
820.324	6585
820.465	6677
820.605	6715
820.746	6692
820.886	6547
821.026	6768
821.167	6726
821.307	6867
821.447	6776
821.588	6658
821.728	6604
821.868	6578
822.008	6346
822.149	6384
822.289	6399
822.429	6235
822.569	6106
822.709	6194
822.849	5942
822.99	5961
823.13	5912
823.27	5942
823.41	5844
823.55	5847
823.69	5844
823.83	5805
823.97	5649
824.11	5619
824.25	5566
824.389	5634
824.529	5585
824.669	5528
824.809	5680
824.949	5714
825.089	5684
825.228	5573
825.368	5448
825.508	5402
825.648	5398
825.787	5436
825.927	5387
826.067	5357
826.206	5280
826.346	5448
826.485	5417
826.625	5482
826.765	5562
826.904	5516
827.044	5311
827.183	5204
827.323	5201
827.462	5254
827.601	5223
827.741	5204
827.88	5208
828.02	5151
828.159	5227
828.298	5379
828.437	5398
828.577	5349
828.716	5524
828.855	5379
828.994	5197
829.134	5178
829.273	5208
829.412	5178
829.551	5193
829.69	5208
829.829	5284
829.968	5436
830.107	5330
830.246	5337
830.385	5250
830.524	5143
830.663	5140
830.802	5018
830.941	4877
831.08	4900
831.219	5064
831.357	5033
831.496	5181
831.635	4991
831.774	4961
831.913	4915
832.051	4740
832.19	4786
832.329	4850
832.467	4786
832.606	4694
832.744	4725
832.883	4755
833.022	4790
833.16	4866
833.299	4831
833.437	4820
833.576	4904
833.714	4934
833.852	4949
833.991	4866
834.129	4995
834.267	4965
834.406	4980
834.544	4999
834.682	5022
834.821	5010
834.959	5273
835.097	5010
835.235	5201
835.373	5155
835.511	5143
835.65	5041
835.788	5041
835.926	4957
836.064	4938
836.202	4927
836.34	5204
836.478	5246
836.615	5098
836.753	5246
836.891	5353
837.029	5292
837.167	5231
837.305	5201
837.443	5204
837.58	5128
837.718	5296
837.856	5223
837.993	5147
838.131	5292
838.269	5239
838.406	5239
838.544	5303
838.681	5033
838.819	5006
838.956	4980
839.094	4953
839.231	5056
839.369	5136
839.506	5486
839.643	5288
839.781	5113
839.918	5098
840.055	5121
840.193	5098
840.33	5098
840.467	5162
840.604	5223
840.742	5471
840.879	5056
841.016	5124
841.153	5185
841.29	5433
841.427	5387
841.564	5368
841.701	5376
841.838	5318
841.975	5284
842.112	5292
842.249	5201
842.385	5147
842.522	5288
842.659	5235
842.796	5170
842.933	5254
843.069	5166
843.206	5185
843.343	5315
843.479	5280
843.616	5322
843.752	5086
843.889	5052
844.025	5239
844.162	5022
844.298	5223
844.435	5117
844.571	5067
844.708	5193
844.844	5376
844.98	5337
845.117	5357
845.253	5166
845.389	5140
845.525	5159
845.661	5170
845.798	5033
845.934	5117
846.07	5048
846.206	5181
846.342	5303
846.478	5170
846.614	5083
846.75	5037
846.886	4927
847.022	5121
847.158	5025
847.294	5105
847.429	5132
847.565	5121
847.701	5341
847.837	4919
847.972	4816
848.108	4980
848.244	4934
848.379	4778
848.515	4748
848.65	4771
848.786	4820
848.921	4797
849.057	4896
849.192	4915
849.328	4824
849.463	4900
849.598	4767
849.734	4816
849.869	4740
850.004	4672
850.14	4698
850.275	4634
850.41	4493
850.545	4599
850.68	4649
850.815	4637
850.95	4645
851.085	4835
851.22	4748
851.355	4740
851.49	4637
851.625	4672
851.76	4622
851.895	4565
852.03	4592
852.165	4687
852.299	4767
852.434	4812
852.569	4767
852.703	4793
852.838	4892
852.973	4915
853.107	4930
853.242	4744
853.376	4668
853.511	4611
853.645	4630
853.78	4866
853.914	4733
854.048	4744
854.183	4656
854.317	4710
854.451	4881
854.585	4736
854.72	4683
854.854	4797
854.988	4596
855.122	4622
855.256	4542
855.39	4679
855.524	4778
855.658	4797
855.792	4706
855.926	4797
856.06	4729
856.194	4870
856.327	4729
856.461	4641
856.595	4649
856.729	4710
856.862	4790
856.996	4721
857.13	4740
857.263	4797
857.397	4854
857.53	4698
857.664	4744
857.797	4755
857.931	4790
858.064	4683
858.197	4740
858.331	4698
858.464	4641
858.597	4500
858.731	4672
858.864	4653
858.997	4580
859.13	4687
859.263	4729
859.396	4744
859.529	4611
859.662	4607
859.795	4516
859.928	4649
860.061	4793
860.194	4801
860.327	4622
860.46	4588
860.592	4782
860.725	4733
860.858	4744
860.99	4599
861.123	4470
861.256	4561
861.388	4668
861.521	5482
861.653	4519
861.786	4459
861.918	4455
862.05	4538
862.183	4580
862.315	4618
862.447	4645
862.58	4592
862.712	4470
862.844	4348
862.976	4531
863.108	4459
863.24	4740
863.372	4379
863.504	4474
863.636	4447
863.768	4527
863.9	4470
864.032	4409
864.164	4421
864.296	4489
864.428	4527
864.559	4622
864.691	4580
864.823	4607
864.954	4542
865.086	4535
865.217	4451
865.349	4462
865.48	4516
865.612	4516
865.743	4672
865.875	4489
866.006	4436
866.137	4474
866.269	4478
866.4	4451
866.531	4451
866.662	4443
866.793	4417
866.924	4421
867.055	4489
867.186	4516
867.317	4432
867.448	4413
867.579	4455
867.71	4428
867.841	4379
867.972	4474
868.103	4455
868.233	4428
868.364	4508
868.495	4478
868.625	4736
868.756	4763
868.886	4565
869.017	4660
869.147	4774
869.278	4812
869.408	4683
869.539	4649
869.669	4763
869.799	4683
869.929	4771
870.06	4812
870.19	4961
870.32	4949
870.45	4934
870.58	5041
870.71	5159
870.84	5117
870.97	4968
871.1	4965
871.23	5124
871.36	5124
871.489	5048
871.619	5113
871.749	5075
871.879	5151
872.008	5208
872.138	5098
872.267	5045
872.397	4923
872.526	4843
872.656	4729
872.785	4812
872.915	4984
873.044	5041
873.173	4987
873.303	4961
873.432	5003
873.561	5006
873.69	4892
873.819	4885
873.948	4915
874.077	4877
874.206	4725
874.335	4824
874.464	4961
874.593	5037
874.722	4957
874.851	5162
874.979	5067
875.108	5079
875.237	4934
875.365	4923
875.494	4881
875.623	4999
875.751	4889
875.88	4949
876.008	4999
876.136	5014
876.265	5204
876.393	5353
876.521	5258
876.65	5277
876.778	5178
876.906	5075
877.034	5033
877.162	5102
877.29	4968
877.418	5079
877.546	5094
877.674	5067
877.802	5060
877.93	5029
878.058	4957
878.185	4904
878.313	4976
878.441	4923
878.568	4831
878.696	4892
878.824	4968
878.951	5014
879.079	5121
879.206	5307
879.333	5056
879.461	4957
879.588	5037
879.715	5166
879.842	5258
879.97	4984
880.097	4866
880.224	4801
880.351	4835
880.478	4793
880.605	4793
880.732	4797
880.859	5121
880.986	4927
881.112	4900
881.239	4816
881.366	4687
881.493	4637
881.619	4668
881.746	4645
881.872	4645
881.999	4672
882.125	4691
882.252	4748
882.378	4850
882.505	4965
882.631	4790
882.757	4679
882.883	4782
883.01	4755
883.136	4672
883.262	4641
883.388	4653
883.514	4862
883.64	4904
883.766	4809
883.892	4744
884.018	4721
884.143	4900
884.269	5041
884.395	4706
884.52	4653
884.646	4656
884.772	4615
884.897	4550
885.023	4714
885.148	4797
885.274	4862
885.399	4877
885.524	4736
885.65	4755
885.775	4698
885.9	4725
886.025	4892
886.15	4831
886.275	4748
886.4	4694
886.525	4740
886.65	4729
886.775	4679
886.9	4927
887.025	5071
887.149	4812
887.274	4672
887.399	4584
887.523	4698
887.648	4637
887.773	4588
887.897	4740
888.021	4824
888.146	4653
888.27	4812
888.395	4900
888.519	4790
888.643	4835
888.767	4862
888.891	4675
889.015	4588
889.139	4679
889.263	4569
889.387	4793
889.511	4938
889.635	4797
889.759	4656
889.883	4672
890.006	4752
890.13	4828
890.254	4634
890.377	4694
890.501	4603
890.624	4538
890.748	4668
890.871	4485
890.995	4402
891.118	4386
891.241	4504
891.364	4535
891.488	4660
891.611	4443
891.734	4527
891.857	4618
891.98	4554
892.103	4664
892.226	4599
892.349	4542
892.471	4474
892.594	4573
892.717	4588
892.839	4588
892.962	4580
893.085	4675
893.207	4569
893.33	4424
893.452	4508
893.575	4694
893.697	4592
893.819	4755
893.941	4885
894.064	4759
894.186	4599
894.308	4558
894.43	4725
894.552	4816
894.674	4763
894.796	4535
894.918	4577
895.04	4531
895.161	4744
895.283	4675
895.405	4599
895.526	4675
895.648	4706
895.769	4687
895.891	4721
896.012	4759
896.134	4740
896.255	4641
896.376	4626
896.498	4641
896.619	4683
896.74	4626
896.861	4679
896.982	4942
897.103	5113
897.224	4850
897.345	4748
897.466	4660
897.587	4774
897.708	4854
897.828	4801
897.949	4668
898.07	4523
898.19	4675
898.311	4873
898.431	4710
898.552	4744
898.672	4805
898.792	4801
898.913	4778
899.033	4641
899.153	4554
899.273	4462
899.393	4481
899.513	4478
899.633	4546
899.753	4550
899.873	4508
899.993	4588
900.113	4588
900.232	4622
900.352	4554
900.472	4481
900.591	4421
900.711	4512
900.83	4466
900.95	4637
901.069	4664
901.189	4527
901.308	4394
901.427	4352
901.546	4402
901.665	4478
901.784	4542
901.904	4394
902.023	4314
902.141	4154
902.26	4185
902.379	4375
902.498	4200
902.617	4230
902.735	4405
902.854	4405
902.973	4390
903.091	4238
903.21	4238
903.328	4272
903.446	4303
903.565	4306
903.683	4348
903.801	4272
903.919	4417
904.038	4436
904.156	4295
904.274	4451
904.392	4348
904.51	4440
904.627	4428
904.745	4546
904.863	4645
904.981	4375
905.098	4318
905.216	4390
905.334	4459
905.451	4432
905.569	4440
905.686	4569
905.803	4546
905.921	4459
906.038	4535
906.155	4485
906.272	4459
906.389	4512
906.506	4352
906.623	4432
906.74	4341
906.857	4280
906.974	4386
907.091	4592
907.208	4675
907.324	4550
907.441	4500
907.557	4386
907.674	4341
907.79	4333
907.907	4409
908.023	4432
908.139	4466
908.256	4386
908.372	4493
908.488	4485
908.604	4363
908.72	4367
908.836	4383
908.952	4383
909.068	4409
909.184	4550
909.3	4508
909.415	4569
909.531	4554
909.647	4371
909.762	4394
909.878	4352
909.993	4390
910.108	4417
910.224	4436
910.339	4535
910.454	4417
910.57	4405
910.685	4322
910.8	4641
910.915	4596
911.03	4504
911.145	4329
911.259	4356
911.374	4341
911.489	4325
911.604	4253
911.718	4150
911.833	4173
911.947	4135
912.062	4017
912.176	4246
912.291	4265
912.405	4257
912.519	4455
912.633	4546
912.748	4390
912.862	4341
912.976	4230
913.09	4063
913.204	4147
913.318	4246
913.431	4360
913.545	4390
913.659	4440
913.772	4325
913.886	4215
914	4261
914.113	4360
914.226	4432
914.34	4447
914.453	4249
914.566	4402
914.68	4344
914.793	4322
914.906	4200
915.019	4124
915.132	4082
915.245	4211
915.358	4230
915.47	4242
915.583	4238
915.696	4303
915.809	4417
915.921	4440
916.034	4257
916.146	4211
916.259	4223
916.371	4363
916.483	4352
916.595	4265
916.708	4284
916.82	4306
916.932	4322
917.044	4356
917.156	4318
917.268	4299
917.38	4284
917.491	4249
917.603	4352
917.715	4405
917.826	4436
917.938	4363
918.049	4253
918.161	4379
918.272	4546
918.384	4542
918.495	4409
918.606	4284
918.717	4246
918.828	4367
918.939	4367
919.05	4265
919.161	4280
919.272	4139
919.383	4227
919.494	4440
919.604	4656
919.715	4440
919.826	4352
919.936	4398
920.047	4504
920.157	4489
920.267	4694
920.378	4459
920.488	4535
920.598	4740
920.708	4908
920.818	4691
920.928	4733
921.038	4987
921.148	4927
921.258	4607
921.368	4573
921.477	4478
921.587	4493
921.697	4379
921.806	4497
921.916	4405
922.025	4242
922.134	4265
922.244	4211
922.353	4356
922.462	4192
922.571	4101
922.68	4021
922.789	3972
922.898	4036
923.007	3998
923.116	4093
923.224	4078
923.333	4093
923.442	4040
923.55	3991
923.659	3991
923.767	4112
923.876	3983
923.984	4097
924.092	3956
924.201	4074
924.309	4116
924.417	4143
924.525	4067
924.633	4067
924.741	5102
924.849	3896
924.956	4139
925.064	3991
925.172	3930
925.279	3975
925.387	4059
925.494	4048
925.602	4192
925.709	4188
925.816	4036
925.924	4139
926.031	4238
926.138	4196
926.245	4177
926.352	4112
926.459	4299
926.566	4310
926.673	4185
926.779	4120
926.886	4086
926.993	3956
927.099	3956
927.206	3949
927.312	3934
927.419	4086
927.525	3998
927.631	4093
927.737	3994
927.843	3949
927.95	3846
928.056	3960
928.162	3983
928.267	4032
928.373	4580
928.479	4112
928.585	3884
928.69	4002
928.796	4101
928.901	3941
929.007	3869
929.112	3979
929.218	3983
929.323	3930
929.428	3934
929.533	4093
929.638	3911
929.743	3934
929.848	4040
929.953	4036
930.058	3975
930.163	3781
930.267	3846
930.372	3987
930.477	3751
930.581	4093
930.685	3949
930.79	3770
930.894	3865
930.998	3827
931.103	4067
931.207	3724
931.311	3728
931.415	3671
931.519	3530
931.623	3519
