Data from test_V78500241_2209.txt Node
Date: Fri Mar 25 17:04:21 CST 2022
User: usil
Spectrometer: V785-0024
Trigger mode: 0
Integration Time (sec): 4.000000E-1
Scans to average: 1
Nonlinearity correction enabled: false
Boxcar width: 0
Storing dark spectrum: false
XAxis mode: Wavelengths
Number of Pixels in Spectrum: 1024
>>>>>Begin Spectral Data<<<<<
801.071	8035
801.214	7993
801.356	7830
801.499	7871
801.641	7811
801.783	7833
801.926	7982
802.068	7921
802.211	8054
802.353	8088
802.496	7856
802.638	7868
802.78	7936
802.923	7906
803.065	7849
803.208	7902
803.35	7951
803.492	8130
803.635	8187
803.777	8043
803.919	8142
804.061	8419
804.204	8187
804.346	8092
804.488	7978
804.63	8088
804.773	7974
804.915	8077
805.057	8336
805.199	8237
805.341	8248
805.483	8244
805.626	8290
805.768	8134
805.91	8191
806.052	8183
806.194	8138
806.336	8298
806.478	8130
806.62	8081
806.762	8115
806.904	8324
807.046	8480
807.188	8324
807.33	8351
807.472	8339
807.614	8221
807.756	8176
807.898	8020
808.04	7871
808.182	7887
808.324	7902
808.465	7940
808.607	8043
808.749	8119
808.891	8195
809.033	8305
809.174	8221
809.316	8050
809.458	8069
809.6	8123
809.741	8073
809.883	8050
810.025	8130
810.166	8050
810.308	8024
810.45	8005
810.591	7837
810.733	7765
810.875	7670
811.016	7567
811.158	7483
811.299	7537
811.441	7715
811.582	7704
811.724	7529
811.865	7510
812.007	7616
812.148	7685
812.29	7609
812.431	7765
812.573	7894
812.714	7967
812.855	8138
812.997	8229
813.138	8286
813.279	8206
813.421	7997
813.562	7982
813.703	7811
813.845	7738
813.986	7445
814.127	7259
814.268	7175
814.41	7217
814.551	7175
814.692	7194
814.833	7091
814.974	7133
815.115	7145
815.256	7088
815.397	6954
815.539	6939
815.68	6871
815.821	6791
815.962	6875
816.103	6852
816.244	6665
816.385	6578
816.526	6563
816.666	6441
816.807	6308
816.948	6429
817.089	6464
817.23	6399
817.371	6395
817.512	6426
817.653	6403
817.793	6361
817.934	6445
818.075	6471
818.216	6429
818.356	6391
818.497	6228
818.638	6152
818.778	6136
818.919	6140
819.06	6155
819.2	6372
819.341	6361
819.481	6376
819.622	6479
819.762	6730
819.903	6715
820.043	6597
820.184	6627
820.324	6570
820.465	6696
820.605	6734
820.746	6620
820.886	6570
821.026	6604
821.167	6787
821.307	6814
821.447	6795
821.588	6715
821.728	6589
821.868	6494
822.008	6342
822.149	6376
822.289	6365
822.429	6167
822.569	6091
822.709	6175
822.849	5946
822.99	5904
823.13	5965
823.27	5908
823.41	5897
823.55	5764
823.69	5760
823.83	5855
823.97	5615
824.11	5554
824.25	5471
824.389	5573
824.529	5562
824.669	5524
824.809	5646
824.949	5615
825.089	5596
825.228	5547
825.368	5459
825.508	5296
825.648	5376
825.787	5421
825.927	5353
826.067	5318
826.206	5318
826.346	5406
826.485	5436
826.625	5425
826.765	5558
826.904	5516
827.044	5242
827.183	5208
827.323	5105
827.462	5277
827.601	5128
827.741	5166
827.88	5246
828.02	5121
828.159	5239
828.298	5299
828.437	5330
828.577	5326
828.716	5493
828.855	5341
828.994	5159
829.134	5151
829.273	5208
829.412	5181
829.551	5189
829.69	5227
829.829	5318
829.968	5376
830.107	5246
830.246	5307
830.385	5166
830.524	5132
830.663	5117
830.802	4949
830.941	4885
831.08	4847
831.219	4995
831.357	5003
831.496	5155
831.635	4968
831.774	4797
831.913	4843
832.051	4698
832.19	4767
832.329	4828
832.467	4645
832.606	4645
832.744	4717
832.883	4714
833.022	4733
833.16	4862
833.299	4812
833.437	4839
833.576	4873
833.714	4896
833.852	4889
833.991	4904
834.129	4972
834.267	4942
834.406	4934
834.544	4980
834.682	4999
834.821	4984
834.959	5105
835.097	5018
835.235	5143
835.373	5060
835.511	5052
835.65	5022
835.788	5006
835.926	4862
836.064	4900
836.202	4953
836.34	5189
836.478	5242
836.615	5151
836.753	5193
836.891	5315
837.029	5246
837.167	5208
837.305	5166
837.443	5124
837.58	5109
837.718	5208
837.856	5170
837.993	5086
838.131	5261
838.269	5193
838.406	5185
838.544	5193
838.681	5048
838.819	5056
838.956	4911
839.094	4904
839.231	4946
839.369	5064
839.506	5391
839.643	5292
839.781	4999
839.918	4991
840.055	5090
840.193	5143
840.33	5094
840.467	5151
840.604	5178
840.742	5440
840.879	5060
841.016	5102
841.153	5136
841.29	5425
841.427	5345
841.564	5311
841.701	5307
841.838	5307
841.975	5246
842.112	5261
842.249	5143
842.385	5143
842.522	5303
842.659	5178
842.796	5128
842.933	5132
843.069	5147
843.206	5193
843.343	5303
843.479	5239
843.616	5223
843.752	5052
843.889	5006
844.025	5220
844.162	4984
844.298	5242
844.435	5083
844.571	5109
844.708	5166
844.844	5334
844.98	5330
845.117	5322
845.253	5155
845.389	5071
845.525	5140
845.661	5162
845.798	5029
845.934	5201
846.07	5045
846.206	5189
846.342	5311
846.478	5140
846.614	5064
846.75	4972
846.886	4923
847.022	5128
847.158	5037
847.294	5083
847.429	5166
847.565	5098
847.701	5288
847.837	4877
847.972	4816
848.108	4972
848.244	4949
848.379	4809
848.515	4702
848.65	4740
848.786	4793
848.921	4782
849.057	4866
849.192	4862
849.328	4843
849.463	4824
849.598	4828
849.734	4782
849.869	4710
850.004	4611
850.14	4683
850.275	4607
850.41	4565
850.545	4569
850.68	4584
850.815	4641
850.95	4607
851.085	4858
851.22	4740
851.355	4687
851.49	4622
851.625	4592
851.76	4599
851.895	4569
852.03	4554
852.165	4687
852.299	4702
852.434	4767
852.569	4694
852.703	4752
852.838	4835
852.973	4908
853.107	4896
853.242	4755
853.376	4656
853.511	4512
853.645	4622
853.78	4809
853.914	4641
854.048	4672
854.183	4683
854.317	4752
854.451	4812
854.585	4653
854.72	4653
854.854	4790
854.988	4611
855.122	4702
855.256	4538
855.39	4653
855.524	4782
855.658	4736
855.792	4725
855.926	4763
856.06	4797
856.194	4801
856.327	4710
856.461	4641
856.595	4588
856.729	4641
856.862	4755
856.996	4672
857.13	4736
857.263	4729
857.397	4801
857.53	4649
857.664	4725
857.797	4702
857.931	4797
858.064	4698
858.197	4717
858.331	4626
858.464	4523
858.597	4519
858.731	4649
858.864	4683
858.997	4592
859.13	4691
859.263	4664
859.396	4672
859.529	4580
859.662	4584
859.795	4519
859.928	4660
860.061	4763
860.194	4782
860.327	4615
860.46	4565
860.592	4725
860.725	4744
860.858	4687
860.99	4580
861.123	4546
861.256	4523
861.388	4592
861.521	5273
861.653	4478
861.786	4459
861.918	4421
862.05	4478
862.183	4538
862.315	4580
862.447	4630
862.58	4538
862.712	4459
862.844	4306
862.976	4470
863.108	4481
863.24	4809
863.372	4333
863.504	4470
863.636	4417
863.768	4497
863.9	4405
864.032	4379
864.164	4383
864.296	4459
864.428	4535
864.559	4596
864.691	4519
864.823	4489
864.954	4489
865.086	4500
865.217	4424
865.349	4371
865.48	4485
865.612	4489
865.743	4588
865.875	4462
866.006	4424
866.137	4443
866.269	4379
866.4	4428
866.531	4428
866.662	4383
866.793	4421
866.924	4402
867.055	4497
867.186	4466
867.317	4428
867.448	4394
867.579	4436
867.71	4428
867.841	4379
867.972	4459
868.103	4440
868.233	4466
868.364	4455
868.495	4497
868.625	4626
868.756	4767
868.886	4577
869.017	4603
869.147	4714
869.278	4778
869.408	4649
869.539	4577
869.669	4733
869.799	4649
869.929	4755
870.06	4710
870.19	4991
870.32	4938
870.45	4927
870.58	4980
870.71	5155
870.84	5079
870.97	4972
871.1	4873
871.23	5189
871.36	5193
871.489	5045
871.619	5033
871.749	5102
871.879	5113
872.008	5166
872.138	5067
872.267	4953
872.397	4835
872.526	4771
872.656	4706
872.785	4816
872.915	4934
873.044	5041
873.173	4976
873.303	4938
873.432	4934
873.561	4995
873.69	4915
873.819	4790
873.948	4915
874.077	4790
874.206	4771
874.335	4828
874.464	4942
874.593	5029
874.722	4999
874.851	5048
874.979	5071
875.108	5033
875.237	4930
875.365	4847
875.494	4877
875.623	4957
875.751	4839
875.88	4885
876.008	4999
876.136	5014
876.265	5159
876.393	5326
876.521	5178
876.65	5261
876.778	5204
876.906	5064
877.034	5018
877.162	5079
877.29	5037
877.418	5090
877.546	5048
877.674	5003
877.802	5025
877.93	5071
878.058	4930
878.185	4911
878.313	4949
878.441	4934
878.568	4786
878.696	4847
878.824	4930
878.951	5010
879.079	5105
879.206	5299
879.333	5083
879.461	4972
879.588	4995
879.715	5094
879.842	5258
879.97	5029
880.097	4774
880.224	4725
880.351	4824
880.478	4801
880.605	4759
880.732	4740
880.859	5064
880.986	4911
881.112	4942
881.239	4782
881.366	4683
881.493	4637
881.619	4565
881.746	4645
881.872	4637
881.999	4653
882.125	4660
882.252	4805
882.378	4824
882.505	4972
882.631	4790
882.757	4634
882.883	4710
883.01	4714
883.136	4668
883.262	4584
883.388	4577
883.514	4816
883.64	4858
883.766	4771
883.892	4656
884.018	4706
884.143	4904
884.269	5022
884.395	4653
884.52	4618
884.646	4649
884.772	4618
884.897	4580
885.023	4698
885.148	4729
885.274	4870
885.399	4805
885.524	4698
885.65	4702
885.775	4767
885.9	4714
886.025	4835
886.15	4774
886.275	4687
886.4	4687
886.525	4759
886.65	4714
886.775	4717
886.9	4946
887.025	5052
887.149	4820
887.274	4637
887.399	4565
887.523	4630
887.648	4588
887.773	4626
887.897	4664
888.021	4786
888.146	4637
888.27	4786
888.395	4911
888.519	4797
888.643	4828
888.767	4866
888.891	4702
889.015	4588
889.139	4668
889.263	4641
889.387	4736
889.511	4854
889.635	4790
889.759	4607
889.883	4637
890.006	4752
890.13	4816
890.254	4580
890.377	4679
890.501	4531
890.624	4523
890.748	4645
890.871	4481
890.995	4386
891.118	4379
891.241	4531
891.364	4569
891.488	4622
891.611	4523
891.734	4489
891.857	4618
891.98	4561
892.103	4637
892.226	4573
892.349	4504
892.471	4417
892.594	4538
892.717	4626
892.839	4546
892.962	4599
893.085	4664
893.207	4573
893.33	4470
893.452	4508
893.575	4637
893.697	4596
893.819	4812
893.941	4831
894.064	4767
894.186	4565
894.308	4573
894.43	4717
894.552	4797
894.674	4763
894.796	4531
894.918	4592
895.04	4546
895.161	4679
895.283	4641
895.405	4554
895.526	4649
895.648	4649
895.769	4675
895.891	4736
896.012	4687
896.134	4721
896.255	4653
896.376	4618
896.498	4649
896.619	4668
896.74	4634
896.861	4683
896.982	4919
897.103	5029
897.224	4831
897.345	4721
897.466	4687
897.587	4725
897.708	4862
897.828	4805
897.949	4668
898.07	4588
898.19	4615
898.311	4858
898.431	4630
898.552	4736
898.672	4828
898.792	4736
898.913	4683
899.033	4645
899.153	4500
899.273	4405
899.393	4531
899.513	4508
899.633	4497
899.753	4531
899.873	4500
899.993	4592
900.113	4565
900.232	4603
900.352	4565
900.472	4481
900.591	4348
900.711	4478
900.83	4478
900.95	4577
901.069	4687
901.189	4554
901.308	4386
901.427	4280
901.546	4421
901.665	4478
901.784	4504
901.904	4436
902.023	4318
902.141	4185
902.26	4185
902.379	4242
902.498	4272
902.617	4173
902.735	4383
902.854	4386
902.973	4352
903.091	4188
903.21	4253
903.328	4356
903.446	4249
903.565	4242
903.683	4360
903.801	4276
903.919	4405
904.038	4421
904.156	4284
904.274	4459
904.392	4424
904.51	4432
904.627	4466
904.745	4592
904.863	4607
904.981	4447
905.098	4306
905.216	4360
905.334	4424
905.451	4386
905.569	4436
905.686	4569
905.803	4558
905.921	4360
906.038	4542
906.155	4481
906.272	4363
906.389	4443
906.506	4329
906.623	4344
906.74	4371
906.857	4356
906.974	4371
907.091	4611
907.208	4675
907.324	4580
907.441	4523
907.557	4329
907.674	4344
907.79	4314
907.907	4402
908.023	4493
908.139	4485
908.256	4443
908.372	4459
908.488	4417
908.604	4371
908.72	4329
908.836	4352
908.952	4314
909.068	4428
909.184	4580
909.3	4432
909.415	4607
909.531	4542
909.647	4344
909.762	4386
909.878	4333
909.993	4413
910.108	4428
910.224	4371
910.339	4421
910.454	4413
910.57	4360
910.685	4287
910.8	4630
910.915	4569
911.03	4474
911.145	4333
911.259	4344
911.374	4367
911.489	4314
911.604	4299
911.718	4169
911.833	4204
911.947	4078
912.062	4059
912.176	4242
912.291	4257
912.405	4272
912.519	4440
912.633	4459
912.748	4352
912.862	4276
912.976	4253
913.09	4063
913.204	4120
913.318	4242
913.431	4360
913.545	4379
913.659	4421
913.772	4348
913.886	4211
914	4207
914.113	4352
914.226	4436
914.34	4386
914.453	4192
914.566	4428
914.68	4261
914.793	4314
914.906	4139
915.019	4112
915.132	4078
915.245	4154
915.358	4249
915.47	4223
915.583	4272
915.696	4272
915.809	4409
915.921	4402
916.034	4234
916.146	4272
916.259	4223
916.371	4371
916.483	4318
916.595	4280
916.708	4310
916.82	4333
916.932	4329
917.044	4341
917.156	4337
917.268	4280
917.38	4265
917.491	4268
917.603	4295
917.715	4409
917.826	4386
917.938	4310
918.049	4234
918.161	4379
918.272	4527
918.384	4474
918.495	4436
918.606	4325
918.717	4276
918.828	4333
918.939	4363
919.05	4280
919.161	4341
919.272	4143
919.383	4181
919.494	4470
919.604	4622
919.715	4481
919.826	4329
919.936	4333
920.047	4512
920.157	4470
920.267	4675
920.378	4546
920.488	4497
920.598	4759
920.708	4866
920.818	4752
920.928	4691
921.038	4919
921.148	4889
921.258	4664
921.368	4558
921.477	4508
921.587	4470
921.697	4337
921.806	4565
921.916	4466
922.025	4295
922.134	4234
922.244	4253
922.353	4325
922.462	4143
922.571	4131
922.68	4010
922.789	3998
922.898	4051
923.007	4006
923.116	4071
923.224	4063
923.333	4082
923.442	4036
923.55	4010
923.659	4055
923.767	4051
923.876	3987
923.984	4124
924.092	3975
924.201	4040
924.309	4067
924.417	4105
924.525	4055
924.633	4097
924.741	5014
924.849	3922
924.956	4105
925.064	3949
925.172	3926
925.279	3987
925.387	4078
925.494	4040
925.602	4169
925.709	4135
925.816	4048
925.924	4147
926.031	4238
926.138	4139
926.245	4185
926.352	4090
926.459	4215
926.566	4291
926.673	4154
926.779	4120
926.886	4078
926.993	3934
927.099	3949
927.206	3987
927.312	3964
927.419	4032
927.525	3979
927.631	4090
927.737	3922
927.843	3941
927.95	3800
928.056	3964
928.162	3975
928.267	4082
928.373	4679
928.479	4090
928.585	3861
928.69	4040
928.796	4074
928.901	3956
929.007	3816
929.112	3994
929.218	4013
929.323	3926
929.428	3949
929.533	4105
929.638	3911
929.743	3968
929.848	4021
929.953	3994
930.058	3911
930.163	3800
930.267	3827
930.372	3934
930.477	3835
930.581	4090
930.685	3937
930.79	3838
930.894	3873
930.998	3827
931.103	4044
931.207	3690
931.311	3717
931.415	3656
931.519	3519
931.623	3557
