Data from test_V78500241_1435.txt Node
Date: Fri Mar 25 16:58:58 CST 2022
User: usil
Spectrometer: V785-0024
Trigger mode: 0
Integration Time (sec): 4.000000E-1
Scans to average: 1
Nonlinearity correction enabled: false
Boxcar width: 0
Storing dark spectrum: false
XAxis mode: Wavelengths
Number of Pixels in Spectrum: 1024
>>>>>Begin Spectral Data<<<<<
801.071	8005
801.214	8024
801.356	7887
801.499	7909
801.641	7784
801.783	7860
801.926	7951
802.068	7917
802.211	7944
802.353	7978
802.496	7818
802.638	7852
802.78	7921
802.923	7936
803.065	7890
803.208	7830
803.35	7970
803.492	8100
803.635	8111
803.777	8016
803.919	8119
804.061	8461
804.204	8168
804.346	8008
804.488	7982
804.63	8115
804.773	8031
804.915	8103
805.057	8252
805.199	8168
805.341	8225
805.483	8301
805.626	8164
805.768	8096
805.91	8172
806.052	8279
806.194	8096
806.336	8282
806.478	8096
806.62	7925
806.762	8221
806.904	8252
807.046	8480
807.188	8317
807.33	8347
807.472	8336
807.614	8195
807.756	8164
807.898	7925
808.04	7955
808.182	7970
808.324	7921
808.465	7970
808.607	8073
808.749	8092
808.891	8199
809.033	8298
809.174	8248
809.316	8027
809.458	8077
809.6	8035
809.741	8027
809.883	8084
810.025	8111
810.166	8107
810.308	8020
810.45	8043
810.591	7875
810.733	7784
810.875	7658
811.016	7578
811.158	7510
811.299	7594
811.441	7765
811.582	7761
811.724	7567
811.865	7556
812.007	7594
812.148	7636
812.29	7662
812.431	7776
812.573	7951
812.714	7940
812.855	8119
812.997	8202
813.138	8374
813.279	8263
813.421	8161
813.562	7978
813.703	7833
813.845	7803
813.986	7480
814.127	7236
814.268	7247
814.41	7175
814.551	7168
814.692	7232
814.833	7156
814.974	7099
815.115	7145
815.256	6981
815.397	6905
815.539	6924
815.68	6878
815.821	6829
815.962	6882
816.103	6890
816.244	6662
816.385	6669
816.526	6620
816.666	6551
816.807	6281
816.948	6414
817.089	6475
817.23	6452
817.371	6388
817.512	6410
817.653	6475
817.793	6388
817.934	6437
818.075	6502
818.216	6418
818.356	6418
818.497	6235
818.638	6102
818.778	6182
818.919	6136
819.06	6190
819.2	6334
819.341	6327
819.481	6334
819.622	6563
819.762	6764
819.903	6734
820.043	6654
820.184	6589
820.324	6563
820.465	6730
820.605	6677
820.746	6673
820.886	6494
821.026	6696
821.167	6696
821.307	6768
821.447	6772
821.588	6642
821.728	6585
821.868	6502
822.008	6327
822.149	6399
822.289	6270
822.429	6140
822.569	6049
822.709	6117
822.849	5885
822.99	5824
823.13	5904
823.27	5878
823.41	5805
823.55	5775
823.69	5745
823.83	5783
823.97	5665
824.11	5589
824.25	5532
824.389	5566
824.529	5604
824.669	5505
824.809	5653
824.949	5672
825.089	5634
825.228	5543
825.368	5459
825.508	5402
825.648	5360
825.787	5349
825.927	5410
826.067	5284
826.206	5280
826.346	5372
826.485	5452
826.625	5459
826.765	5528
826.904	5516
827.044	5288
827.183	5212
827.323	5132
827.462	5235
827.601	5231
827.741	5193
827.88	5166
828.02	5113
828.159	5212
828.298	5318
828.437	5455
828.577	5269
828.716	5471
828.855	5330
828.994	5181
829.134	5162
829.273	5193
829.412	5151
829.551	5166
829.69	5162
829.829	5231
829.968	5322
830.107	5265
830.246	5307
830.385	5220
830.524	5086
830.663	5075
830.802	4995
830.941	4934
831.08	4831
831.219	4984
831.357	5048
831.496	5166
831.635	4923
831.774	4850
831.913	4877
832.051	4759
832.19	4759
832.329	4824
832.467	4702
832.606	4626
832.744	4755
832.883	4714
833.022	4725
833.16	4809
833.299	4828
833.437	4809
833.576	4812
833.714	4885
833.852	4881
833.991	4915
834.129	4934
834.267	4968
834.406	4889
834.544	4984
834.682	4942
834.821	4965
834.959	5174
835.097	5045
835.235	5170
835.373	5086
835.511	5105
835.65	5033
835.788	5064
835.926	4870
836.064	4862
836.202	4946
836.34	5159
836.478	5189
836.615	5147
836.753	5193
836.891	5299
837.029	5265
837.167	5174
837.305	5140
837.443	5136
837.58	5090
837.718	5231
837.856	5147
837.993	5105
838.131	5250
838.269	5235
838.406	5197
838.544	5208
838.681	5079
838.819	5006
838.956	4900
839.094	4946
839.231	4987
839.369	5155
839.506	5429
839.643	5239
839.781	5041
839.918	4976
840.055	5094
840.193	5113
840.33	5079
840.467	5181
840.604	5151
840.742	5471
840.879	5071
841.016	5094
841.153	5155
841.29	5379
841.427	5318
841.564	5277
841.701	5395
841.838	5273
841.975	5250
842.112	5299
842.249	5151
842.385	5147
842.522	5334
842.659	5220
842.796	5178
842.933	5197
843.069	5105
843.206	5140
843.343	5315
843.479	5250
843.616	5261
843.752	5014
843.889	5079
844.025	5250
844.162	5010
844.298	5197
844.435	5117
844.571	5052
844.708	5181
844.844	5292
844.98	5303
845.117	5284
845.253	5147
845.389	5060
845.525	5208
845.661	5132
845.798	5067
845.934	5166
846.07	5079
846.206	5250
846.342	5265
846.478	5204
846.614	5003
846.75	4968
846.886	4938
847.022	5151
847.158	4984
847.294	5090
847.429	5128
847.565	5067
847.701	5315
847.837	4839
847.972	4767
848.108	4942
848.244	4927
848.379	4774
848.515	4725
848.65	4736
848.786	4733
848.921	4774
849.057	4850
849.192	4892
849.328	4835
849.463	4801
849.598	4828
849.734	4763
849.869	4687
850.004	4656
850.14	4649
850.275	4580
850.41	4573
850.545	4607
850.68	4599
850.815	4599
850.95	4656
851.085	4847
851.22	4748
851.355	4694
851.49	4622
851.625	4565
851.76	4668
851.895	4580
852.03	4550
852.165	4668
852.299	4717
852.434	4820
852.569	4748
852.703	4797
852.838	4870
852.973	4892
853.107	4957
853.242	4733
853.376	4656
853.511	4535
853.645	4634
853.78	4816
853.914	4691
854.048	4664
854.183	4641
854.317	4691
854.451	4778
854.585	4683
854.72	4645
854.854	4763
854.988	4584
855.122	4615
855.256	4504
855.39	4710
855.524	4824
855.658	4744
855.792	4679
855.926	4721
856.06	4778
856.194	4801
856.327	4694
856.461	4656
856.595	4649
856.729	4649
856.862	4763
856.996	4717
857.13	4710
857.263	4759
857.397	4797
857.53	4668
857.664	4778
857.797	4790
857.931	4824
858.064	4679
858.197	4736
858.331	4626
858.464	4611
858.597	4535
858.731	4664
858.864	4679
858.997	4630
859.13	4634
859.263	4641
859.396	4748
859.529	4626
859.662	4607
859.795	4519
859.928	4694
860.061	4828
860.194	4744
860.327	4607
860.46	4607
860.592	4740
860.725	4721
860.858	4740
860.99	4596
861.123	4577
861.256	4577
861.388	4641
861.521	5440
861.653	4527
861.786	4500
861.918	4519
862.05	4561
862.183	4599
862.315	4607
862.447	4698
862.58	4577
862.712	4493
862.844	4386
862.976	4531
863.108	4500
863.24	4900
863.372	4341
863.504	4474
863.636	4489
863.768	4493
863.9	4489
864.032	4398
864.164	4432
864.296	4508
864.428	4561
864.559	4561
864.691	4592
864.823	4516
864.954	4527
865.086	4542
865.217	4474
865.349	4421
865.48	4512
865.612	4531
865.743	4656
865.875	4462
866.006	4459
866.137	4508
866.269	4470
866.4	4451
866.531	4474
866.662	4421
866.793	4432
866.924	4428
867.055	4485
867.186	4493
867.317	4481
867.448	4409
867.579	4421
867.71	4466
867.841	4379
867.972	4516
868.103	4512
868.233	4516
868.364	4500
868.495	4519
868.625	4687
868.756	4824
868.886	4630
869.017	4596
869.147	4812
869.278	4828
869.408	4702
869.539	4592
869.669	4717
869.799	4660
869.929	4839
870.06	4740
870.19	5045
870.32	4930
870.45	4968
870.58	5025
870.71	5128
870.84	5105
870.97	4999
871.1	4911
871.23	5201
871.36	5128
871.489	5045
871.619	5075
871.749	5045
871.879	5155
872.008	5216
872.138	5060
872.267	5010
872.397	4881
872.526	4847
872.656	4755
872.785	4797
872.915	4965
873.044	5037
873.173	4961
873.303	5056
873.432	4991
873.561	4961
873.69	4900
873.819	4919
873.948	4984
874.077	4835
874.206	4801
874.335	4831
874.464	4934
874.593	5048
874.722	5018
874.851	5090
874.979	5064
875.108	5052
875.237	4961
875.365	4965
875.494	4904
875.623	4980
875.751	4896
875.88	4904
876.008	5018
876.136	5045
876.265	5204
876.393	5395
876.521	5261
876.65	5292
876.778	5242
876.906	5094
877.034	5064
877.162	5052
877.29	4991
877.418	5071
877.546	5075
877.674	5075
877.802	5045
877.93	5083
878.058	4976
878.185	4915
878.313	5052
878.441	4953
878.568	4828
878.696	4900
878.824	4968
878.951	4991
879.079	5136
879.206	5364
879.333	5071
879.461	5006
879.588	4987
879.715	5124
879.842	5201
879.97	5041
880.097	4847
880.224	4793
880.351	4858
880.478	4877
880.605	4828
880.732	4790
880.859	5117
880.986	4904
881.112	4961
881.239	4831
881.366	4721
881.493	4622
881.619	4596
881.746	4675
881.872	4691
881.999	4634
882.125	4729
882.252	4790
882.378	4816
882.505	4972
882.631	4816
882.757	4675
882.883	4740
883.01	4744
883.136	4645
883.262	4573
883.388	4679
883.514	4805
883.64	4896
883.766	4801
883.892	4691
884.018	4740
884.143	4930
884.269	5048
884.395	4744
884.52	4675
884.646	4668
884.772	4569
884.897	4531
885.023	4740
885.148	4820
885.274	4900
885.399	4870
885.524	4759
885.65	4668
885.775	4767
885.9	4714
886.025	4854
886.15	4831
886.275	4744
886.4	4694
886.525	4752
886.65	4668
886.775	4679
886.9	4934
887.025	5090
887.149	4812
887.274	4729
887.399	4607
887.523	4630
887.648	4618
887.773	4599
887.897	4793
888.021	4824
888.146	4702
888.27	4805
888.395	4915
888.519	4824
888.643	4858
888.767	4843
888.891	4675
889.015	4603
889.139	4668
889.263	4596
889.387	4782
889.511	4866
889.635	4801
889.759	4691
889.883	4653
890.006	4698
890.13	4892
890.254	4641
890.377	4683
890.501	4615
890.624	4561
890.748	4664
890.871	4561
890.995	4462
891.118	4440
891.241	4580
891.364	4592
891.488	4634
891.611	4512
891.734	4569
891.857	4668
891.98	4519
892.103	4653
892.226	4626
892.349	4561
892.471	4413
892.594	4558
892.717	4637
892.839	4580
892.962	4565
893.085	4641
893.207	4592
893.33	4497
893.452	4554
893.575	4721
893.697	4603
893.819	4847
893.941	4877
894.064	4790
894.186	4607
894.308	4599
894.43	4778
894.552	4797
894.674	4744
894.796	4596
894.918	4596
895.04	4607
895.161	4755
895.283	4691
895.405	4565
895.526	4675
895.648	4721
895.769	4698
895.891	4736
896.012	4782
896.134	4714
896.255	4679
896.376	4634
896.498	4691
896.619	4736
896.74	4630
896.861	4634
896.982	4919
897.103	5071
897.224	4816
897.345	4763
897.466	4687
897.587	4771
897.708	4835
897.828	4835
897.949	4729
898.07	4603
898.19	4656
898.311	4805
898.431	4717
898.552	4755
898.672	4843
898.792	4873
898.913	4767
899.033	4645
899.153	4512
899.273	4440
899.393	4485
899.513	4519
899.633	4580
899.753	4554
899.873	4519
899.993	4531
900.113	4599
900.232	4626
900.352	4592
900.472	4550
900.591	4424
900.711	4546
900.83	4474
900.95	4592
901.069	4683
901.189	4584
901.308	4398
901.427	4344
901.546	4375
901.665	4527
901.784	4527
901.904	4421
902.023	4394
902.141	4246
902.26	4177
902.379	4325
902.498	4242
902.617	4238
902.735	4409
902.854	4398
902.973	4333
903.091	4223
903.21	4196
903.328	4325
903.446	4284
903.565	4295
903.683	4383
903.801	4299
903.919	4417
904.038	4462
904.156	4337
904.274	4443
904.392	4386
904.51	4466
904.627	4417
904.745	4561
904.863	4660
904.981	4394
905.098	4310
905.216	4348
905.334	4386
905.451	4417
905.569	4478
905.686	4554
905.803	4577
905.921	4436
906.038	4603
906.155	4493
906.272	4436
906.389	4474
906.506	4371
906.623	4348
906.74	4337
906.857	4306
906.974	4394
907.091	4558
907.208	4649
907.324	4607
907.441	4481
907.557	4379
907.674	4367
907.79	4318
907.907	4386
908.023	4535
908.139	4500
908.256	4428
908.372	4523
908.488	4459
908.604	4367
908.72	4299
908.836	4367
908.952	4383
909.068	4462
909.184	4577
909.3	4497
909.415	4596
909.531	4531
909.647	4409
909.762	4409
909.878	4322
909.993	4428
910.108	4432
910.224	4413
910.339	4447
910.454	4428
910.57	4402
910.685	4337
910.8	4641
910.915	4558
911.03	4497
911.145	4306
911.259	4363
911.374	4379
911.489	4284
911.604	4280
911.718	4192
911.833	4177
911.947	4071
912.062	4063
912.176	4196
912.291	4261
912.405	4291
912.519	4424
912.633	4474
912.748	4356
912.862	4310
912.976	4287
913.09	4090
913.204	4166
913.318	4253
913.431	4428
913.545	4417
913.659	4421
913.772	4363
913.886	4268
914	4196
914.113	4405
914.226	4417
914.34	4421
914.453	4207
914.566	4417
914.68	4344
914.793	4284
914.906	4200
915.019	4150
915.132	4082
915.245	4227
915.358	4230
915.47	4257
915.583	4325
915.696	4341
915.809	4516
915.921	4405
916.034	4284
916.146	4303
916.259	4196
916.371	4386
916.483	4348
916.595	4223
916.708	4303
916.82	4310
916.932	4310
917.044	4333
917.156	4333
917.268	4227
917.38	4280
917.491	4303
917.603	4402
917.715	4443
917.826	4390
917.938	4337
918.049	4284
918.161	4443
918.272	4527
918.384	4478
918.495	4462
918.606	4348
918.717	4272
918.828	4337
918.939	4413
919.05	4284
919.161	4367
919.272	4120
919.383	4246
919.494	4489
919.604	4626
919.715	4455
919.826	4386
919.936	4390
920.047	4599
920.157	4531
920.267	4763
920.378	4565
920.488	4504
920.598	4729
920.708	4889
920.818	4763
920.928	4782
921.038	4984
921.148	4911
921.258	4656
921.368	4607
921.477	4531
921.587	4481
921.697	4356
921.806	4565
921.916	4440
922.025	4299
922.134	4249
922.244	4272
922.353	4356
922.462	4162
922.571	4139
922.68	3972
922.789	3975
922.898	4025
923.007	3987
923.116	4105
923.224	4097
923.333	4063
923.442	3941
923.55	4006
923.659	4063
923.767	4120
923.876	3979
923.984	4101
924.092	4029
924.201	4086
924.309	4063
924.417	4120
924.525	4067
924.633	4147
924.741	5022
924.849	3930
924.956	4154
925.064	3934
925.172	3903
925.279	3983
925.387	4048
925.494	4078
925.602	4200
925.709	4200
925.816	4059
925.924	4105
926.031	4211
926.138	4166
926.245	4200
926.352	4078
926.459	4261
926.566	4337
926.673	4166
926.779	4082
926.886	4067
926.993	4006
927.099	4006
927.206	3922
927.312	3930
927.419	4032
927.525	4055
927.631	4082
927.737	3972
927.843	3979
927.95	3838
928.056	4010
928.162	3945
928.267	4048
928.373	4596
928.479	4120
928.585	3846
928.69	4002
928.796	4078
928.901	3972
929.007	3865
929.112	4002
929.218	3972
929.323	3964
929.428	3915
929.533	4135
929.638	3899
929.743	3945
929.848	4044
929.953	4029
930.058	3953
930.163	3785
930.267	3816
930.372	4010
930.477	3816
930.581	4093
930.685	3911
930.79	3842
930.894	3850
930.998	3804
931.103	4097
931.207	3717
931.311	3701
931.415	3667
931.519	3561
931.623	3542
