Data from test_V78500241_2419.txt Node
Date: Fri Mar 25 17:05:49 CST 2022
User: usil
Spectrometer: V785-0024
Trigger mode: 0
Integration Time (sec): 4.000000E-1
Scans to average: 1
Nonlinearity correction enabled: false
Boxcar width: 0
Storing dark spectrum: false
XAxis mode: Wavelengths
Number of Pixels in Spectrum: 1024
>>>>>Begin Spectral Data<<<<<
801.071	7974
801.214	8016
801.356	7894
801.499	7807
801.641	7818
801.783	7818
801.926	7921
802.068	7993
802.211	7932
802.353	7997
802.496	7852
802.638	7864
802.78	7913
802.923	7879
803.065	7871
803.208	7814
803.35	7898
803.492	8073
803.635	8157
803.777	8024
803.919	8145
804.061	8476
804.204	8145
804.346	8081
804.488	7993
804.63	8092
804.773	8043
804.915	8107
805.057	8279
805.199	8157
805.341	8214
805.483	8324
805.626	8282
805.768	8123
805.91	8199
806.052	8191
806.194	8077
806.336	8355
806.478	8043
806.62	8073
806.762	8206
806.904	8221
807.046	8492
807.188	8313
807.33	8328
807.472	8282
807.614	8134
807.756	8123
807.898	8012
808.04	7852
808.182	7879
808.324	7883
808.465	7932
808.607	8065
808.749	8069
808.891	8202
809.033	8332
809.174	8202
809.316	8096
809.458	8092
809.6	7970
809.741	8020
809.883	8024
810.025	8092
810.166	8115
810.308	8081
810.45	7989
810.591	7814
810.733	7734
810.875	7719
811.016	7487
811.158	7472
811.299	7594
811.441	7662
811.582	7677
811.724	7616
811.865	7480
812.007	7636
812.148	7518
812.29	7674
812.431	7712
812.573	7894
812.714	7997
812.855	8183
812.997	8195
813.138	8294
813.279	8161
813.421	8031
813.562	8027
813.703	7852
813.845	7700
813.986	7449
814.127	7213
814.268	7221
814.41	7175
814.551	7206
814.692	7232
814.833	7088
814.974	7069
815.115	7110
815.256	6989
815.397	6905
815.539	7004
815.68	6829
815.821	6772
815.962	6867
816.103	6878
816.244	6722
816.385	6635
816.526	6555
816.666	6502
816.807	6331
816.948	6433
817.089	6456
817.23	6433
817.371	6384
817.512	6350
817.653	6399
817.793	6315
817.934	6388
818.075	6464
818.216	6426
818.356	6399
818.497	6296
818.638	6106
818.778	6155
818.919	6098
819.06	6167
819.2	6361
819.341	6422
819.481	6407
819.622	6532
819.762	6776
819.903	6688
820.043	6574
820.184	6623
820.324	6582
820.465	6696
820.605	6703
820.746	6612
820.886	6528
821.026	6707
821.167	6665
821.307	6844
821.447	6791
821.588	6696
821.728	6593
821.868	6517
822.008	6304
822.149	6338
822.289	6410
822.429	6140
822.569	6095
822.709	6133
822.849	5996
822.99	5920
823.13	5939
823.27	5927
823.41	5813
823.55	5745
823.69	5756
823.83	5775
823.97	5688
824.11	5543
824.25	5532
824.389	5573
824.529	5581
824.669	5520
824.809	5680
824.949	5680
825.089	5592
825.228	5577
825.368	5387
825.508	5254
825.648	5376
825.787	5406
825.927	5360
826.067	5277
826.206	5311
826.346	5391
826.485	5425
826.625	5398
826.765	5547
826.904	5482
827.044	5208
827.183	5166
827.323	5128
827.462	5223
827.601	5216
827.741	5159
827.88	5212
828.02	5166
828.159	5170
828.298	5299
828.437	5341
828.577	5307
828.716	5532
828.855	5296
828.994	5166
829.134	5140
829.273	5189
829.412	5128
829.551	5147
829.69	5151
829.829	5220
829.968	5379
830.107	5349
830.246	5223
830.385	5208
830.524	5109
830.663	5071
830.802	4965
830.941	4866
831.08	4885
831.219	4980
831.357	4968
831.496	5166
831.635	4889
831.774	4870
831.913	4835
832.051	4729
832.19	4729
832.329	4854
832.467	4733
832.606	4653
832.744	4752
832.883	4744
833.022	4706
833.16	4809
833.299	4797
833.437	4862
833.576	4824
833.714	4850
833.852	4850
833.991	4850
834.129	4976
834.267	4927
834.406	4904
834.544	4984
834.682	4991
834.821	4942
834.959	5143
835.097	4968
835.235	5170
835.373	5113
835.511	5064
835.65	4968
835.788	4991
835.926	4892
836.064	4839
836.202	4946
836.34	5181
836.478	5250
836.615	5155
836.753	5204
836.891	5303
837.029	5201
837.167	5162
837.305	5121
837.443	5136
837.58	5075
837.718	5269
837.856	5242
837.993	5143
838.131	5220
838.269	5174
838.406	5216
838.544	5174
838.681	5079
838.819	5003
838.956	4877
839.094	4908
839.231	4961
839.369	5090
839.506	5417
839.643	5242
839.781	5079
839.918	5037
840.055	5086
840.193	5079
840.33	5079
840.467	5143
840.604	5193
840.742	5410
840.879	5098
841.016	5113
841.153	5121
841.29	5376
841.427	5311
841.564	5280
841.701	5357
841.838	5277
841.975	5227
842.112	5235
842.249	5105
842.385	5075
842.522	5429
842.659	5132
842.796	5132
842.933	5193
843.069	5140
843.206	5143
843.343	5322
843.479	5235
843.616	5258
843.752	5079
843.889	5033
844.025	5193
844.162	5037
844.298	5208
844.435	5079
844.571	5018
844.708	5193
844.844	5299
844.98	5349
845.117	5269
845.253	5121
845.389	5124
845.525	5132
845.661	5090
845.798	5025
845.934	5109
846.07	5064
846.206	5136
846.342	5265
846.478	5128
846.614	5075
846.75	4919
846.886	4980
847.022	5113
847.158	5029
847.294	5071
847.429	5124
847.565	5075
847.701	5330
847.837	4835
847.972	4786
848.108	4900
848.244	4942
848.379	4812
848.515	4683
848.65	4714
848.786	4771
848.921	4790
849.057	4831
849.192	4858
849.328	4809
849.463	4824
849.598	4790
849.734	4740
849.869	4714
850.004	4611
850.14	4694
850.275	4649
850.41	4554
850.545	4565
850.68	4618
850.815	4588
850.95	4626
851.085	4809
851.22	4733
851.355	4691
851.49	4573
851.625	4607
851.76	4577
851.895	4546
852.03	4508
852.165	4683
852.299	4729
852.434	4717
852.569	4721
852.703	4786
852.838	4873
852.973	4908
853.107	4896
853.242	4717
853.376	4656
853.511	4588
853.645	4634
853.78	4759
853.914	4664
854.048	4660
854.183	4653
854.317	4691
854.451	4786
854.585	4687
854.72	4630
854.854	4767
854.988	4577
855.122	4588
855.256	4481
855.39	4649
855.524	4721
855.658	4691
855.792	4679
855.926	4721
856.06	4744
856.194	4828
856.327	4683
856.461	4577
856.595	4558
856.729	4649
856.862	4736
856.996	4687
857.13	4736
857.263	4725
857.397	4767
857.53	4645
857.664	4752
857.797	4767
857.931	4786
858.064	4717
858.197	4721
858.331	4645
858.464	4599
858.597	4508
858.731	4668
858.864	4637
858.997	4577
859.13	4603
859.263	4691
859.396	4748
859.529	4569
859.662	4558
859.795	4535
859.928	4656
860.061	4752
860.194	4736
860.327	4599
860.46	4580
860.592	4691
860.725	4752
860.858	4725
860.99	4558
861.123	4512
861.256	4523
861.388	4577
861.521	5269
861.653	4489
861.786	4466
861.918	4447
862.05	4489
862.183	4538
862.315	4580
862.447	4656
862.58	4550
862.712	4367
862.844	4337
862.976	4440
863.108	4455
863.24	4759
863.372	4310
863.504	4424
863.636	4394
863.768	4497
863.9	4443
864.032	4348
864.164	4363
864.296	4443
864.428	4535
864.559	4577
864.691	4500
864.823	4497
864.954	4455
865.086	4512
865.217	4462
865.349	4405
865.48	4413
865.612	4497
865.743	4649
865.875	4497
866.006	4455
866.137	4462
866.269	4455
866.4	4459
866.531	4405
866.662	4398
866.793	4394
866.924	4386
867.055	4459
867.186	4462
867.317	4432
867.448	4379
867.579	4409
867.71	4405
867.841	4363
867.972	4447
868.103	4470
868.233	4466
868.364	4451
868.495	4531
868.625	4672
868.756	4755
868.886	4588
869.017	4618
869.147	4763
869.278	4736
869.408	4634
869.539	4664
869.669	4679
869.799	4675
869.929	4771
870.06	4687
870.19	4953
870.32	4908
870.45	4965
870.58	5029
870.71	5117
870.84	5075
870.97	4938
871.1	4946
871.23	5128
871.36	5075
871.489	4987
871.619	5048
871.749	5083
871.879	5083
872.008	5193
872.138	5064
872.267	4984
872.397	4774
872.526	4774
872.656	4694
872.785	4778
872.915	4965
873.044	5025
873.173	4949
873.303	4999
873.432	4987
873.561	4938
873.69	4843
873.819	4870
873.948	4866
874.077	4801
874.206	4729
874.335	4847
874.464	4900
874.593	5045
874.722	4957
874.851	5086
874.979	5064
875.108	4999
875.237	4953
875.365	4877
875.494	4824
875.623	5006
875.751	4847
875.88	4862
876.008	4923
876.136	5003
876.265	5197
876.393	5345
876.521	5265
876.65	5174
876.778	5143
876.906	5060
877.034	5010
877.162	5037
877.29	4980
877.418	5060
877.546	5079
877.674	5022
877.802	5014
877.93	5010
878.058	4911
878.185	4854
878.313	4995
878.441	4999
878.568	4797
878.696	4828
878.824	4908
878.951	5003
879.079	5155
879.206	5296
879.333	5102
879.461	4995
879.588	4965
879.715	5075
879.842	5242
879.97	5018
880.097	4725
880.224	4725
880.351	4805
880.478	4820
880.605	4809
880.732	4778
880.859	5048
880.986	4915
881.112	4911
881.239	4839
881.366	4679
881.493	4615
881.619	4573
881.746	4649
881.872	4622
881.999	4630
882.125	4721
882.252	4828
882.378	4828
882.505	4946
882.631	4812
882.757	4687
882.883	4721
883.01	4744
883.136	4710
883.262	4622
883.388	4634
883.514	4835
883.64	4908
883.766	4786
883.892	4683
884.018	4771
884.143	4870
884.269	5094
884.395	4698
884.52	4649
884.646	4706
884.772	4573
884.897	4577
885.023	4691
885.148	4771
885.274	4953
885.399	4824
885.524	4767
885.65	4733
885.775	4790
885.9	4763
886.025	4854
886.15	4816
886.275	4752
886.4	4694
886.525	4763
886.65	4710
886.775	4759
886.9	4938
887.025	5045
887.149	4896
887.274	4710
887.399	4569
887.523	4679
887.648	4611
887.773	4611
887.897	4816
888.021	4850
888.146	4694
888.27	4866
888.395	4942
888.519	4885
888.643	4881
888.767	4915
888.891	4717
889.015	4637
889.139	4653
889.263	4698
889.387	4797
889.511	4976
889.635	4862
889.759	4694
889.883	4706
890.006	4847
890.13	4930
890.254	4702
890.377	4710
890.501	4550
890.624	4531
890.748	4656
890.871	4527
890.995	4531
891.118	4424
891.241	4561
891.364	4580
891.488	4694
891.611	4497
891.734	4546
891.857	4626
891.98	4615
892.103	4710
892.226	4599
892.349	4592
892.471	4459
892.594	4573
892.717	4664
892.839	4592
892.962	4630
893.085	4725
893.207	4626
893.33	4485
893.452	4546
893.575	4714
893.697	4596
893.819	4782
893.941	4881
894.064	4862
894.186	4599
894.308	4618
894.43	4786
894.552	4843
894.674	4797
894.796	4573
894.918	4637
895.04	4603
895.161	4744
895.283	4668
895.405	4592
895.526	4626
895.648	4733
895.769	4721
895.891	4763
896.012	4725
896.134	4759
896.255	4698
896.376	4656
896.498	4660
896.619	4721
896.74	4668
896.861	4672
896.982	4946
897.103	5109
897.224	4835
897.345	4797
897.466	4721
897.587	4710
897.708	4892
897.828	4831
897.949	4714
898.07	4596
898.19	4672
898.311	4858
898.431	4687
898.552	4774
898.672	4850
898.792	4793
898.913	4809
899.033	4668
899.153	4523
899.273	4466
899.393	4569
899.513	4527
899.633	4558
899.753	4603
899.873	4603
899.993	4592
900.113	4607
900.232	4603
900.352	4558
900.472	4508
900.591	4424
900.711	4508
900.83	4421
900.95	4599
901.069	4626
901.189	4558
901.308	4371
901.427	4337
901.546	4386
901.665	4519
901.784	4538
901.904	4428
902.023	4371
902.141	4219
902.26	4223
902.379	4310
902.498	4291
902.617	4227
902.735	4379
902.854	4398
902.973	4386
903.091	4242
903.21	4272
903.328	4306
903.446	4314
903.565	4257
903.683	4363
903.801	4322
903.919	4413
904.038	4508
904.156	4367
904.274	4447
904.392	4390
904.51	4436
904.627	4535
904.745	4592
904.863	4660
904.981	4421
905.098	4344
905.216	4390
905.334	4424
905.451	4451
905.569	4455
905.686	4630
905.803	4588
905.921	4432
906.038	4622
906.155	4516
906.272	4436
906.389	4497
906.506	4375
906.623	4428
906.74	4424
906.857	4325
906.974	4394
907.091	4607
907.208	4698
907.324	4611
907.441	4542
907.557	4375
907.674	4390
907.79	4318
907.907	4379
908.023	4531
908.139	4519
908.256	4493
908.372	4478
908.488	4508
908.604	4367
908.72	4371
908.836	4428
908.952	4390
909.068	4481
909.184	4569
909.3	4542
909.415	4653
909.531	4569
909.647	4398
909.762	4386
909.878	4337
909.993	4474
910.108	4417
910.224	4440
910.339	4512
910.454	4451
910.57	4402
910.685	4341
910.8	4714
910.915	4622
911.03	4538
911.145	4325
911.259	4367
911.374	4428
911.489	4253
911.604	4303
911.718	4204
911.833	4249
911.947	4143
912.062	4048
912.176	4280
912.291	4284
912.405	4280
912.519	4470
912.633	4542
912.748	4413
912.862	4333
912.976	4234
913.09	4150
913.204	4246
913.318	4306
913.431	4417
913.545	4386
913.659	4485
913.772	4394
913.886	4276
914	4253
914.113	4379
914.226	4470
914.34	4405
914.453	4287
914.566	4443
914.68	4268
914.793	4386
914.906	4188
915.019	4116
915.132	4143
915.245	4219
915.358	4211
915.47	4261
915.583	4306
915.696	4295
915.809	4413
915.921	4447
916.034	4310
916.146	4219
916.259	4196
916.371	4466
916.483	4386
916.595	4303
916.708	4375
916.82	4352
916.932	4383
917.044	4337
917.156	4352
917.268	4261
917.38	4295
917.491	4295
917.603	4360
917.715	4478
917.826	4409
917.938	4337
918.049	4246
918.161	4421
918.272	4554
918.384	4538
918.495	4455
918.606	4333
918.717	4207
918.828	4348
918.939	4424
919.05	4276
919.161	4371
919.272	4139
919.383	4287
919.494	4447
919.604	4634
919.715	4478
919.826	4371
919.936	4413
920.047	4527
920.157	4497
920.267	4778
920.378	4577
920.488	4550
920.598	4694
920.708	4908
920.818	4801
920.928	4744
921.038	4976
921.148	4934
921.258	4656
921.368	4554
921.477	4542
921.587	4466
921.697	4402
921.806	4580
921.916	4478
922.025	4314
922.134	4287
922.244	4261
922.353	4367
922.462	4143
922.571	4143
922.68	4044
922.789	4013
922.898	4063
923.007	4029
923.116	4124
923.224	4162
923.333	4097
923.442	4021
923.55	4017
923.659	4036
923.767	4158
923.876	4040
923.984	4166
924.092	4010
924.201	4135
924.309	4109
924.417	4162
924.525	4128
924.633	4131
924.741	5071
924.849	3922
924.956	4177
925.064	3994
925.172	3892
925.279	3968
925.387	4093
925.494	4090
925.602	4234
925.709	4196
925.816	4013
925.924	4147
926.031	4227
926.138	4192
926.245	4215
926.352	4139
926.459	4196
926.566	4318
926.673	4188
926.779	4078
926.886	4112
926.993	4002
927.099	3926
927.206	3998
927.312	3983
927.419	4128
927.525	4051
927.631	4131
927.737	3975
927.843	3979
927.95	3918
928.056	3907
928.162	4051
928.267	4082
928.373	4683
928.479	4154
928.585	3892
928.69	4025
928.796	4097
928.901	4002
929.007	3816
929.112	4013
929.218	3987
929.323	3949
929.428	3911
929.533	4188
929.638	3949
929.743	3956
929.848	4082
929.953	4021
930.058	3979
930.163	3770
930.267	3861
930.372	3968
930.477	3835
930.581	4128
930.685	3953
930.79	3838
930.894	3903
930.998	3861
931.103	4055
931.207	3690
931.311	3740
931.415	3728
931.519	3564
931.623	3587
