Data from test_V78500241_1177.txt Node
Date: Fri Mar 25 16:57:11 CST 2022
User: usil
Spectrometer: V785-0024
Trigger mode: 0
Integration Time (sec): 4.000000E-1
Scans to average: 1
Nonlinearity correction enabled: false
Boxcar width: 0
Storing dark spectrum: false
XAxis mode: Wavelengths
Number of Pixels in Spectrum: 1024
>>>>>Begin Spectral Data<<<<<
801.071	8043
801.214	8043
801.356	7845
801.499	7864
801.641	7765
801.783	7818
801.926	7932
802.068	7902
802.211	7925
802.353	7932
802.496	7795
802.638	7944
802.78	7944
802.923	7932
803.065	7849
803.208	7883
803.35	7970
803.492	8043
803.635	8130
803.777	8027
803.919	8202
804.061	8465
804.204	8176
804.346	8043
804.488	7944
804.63	8126
804.773	8012
804.915	8107
805.057	8317
805.199	8206
805.341	8259
805.483	8317
805.626	8180
805.768	8172
805.91	8225
806.052	8164
806.194	8138
806.336	8332
806.478	8164
806.62	8149
806.762	8138
806.904	8225
807.046	8385
807.188	8309
807.33	8275
807.472	8248
807.614	8157
807.756	8081
807.898	7997
808.04	7932
808.182	7936
808.324	7883
808.465	7860
808.607	8081
808.749	8100
808.891	8221
809.033	8328
809.174	8286
809.316	8024
809.458	8012
809.6	7978
809.741	8024
809.883	8005
810.025	8092
810.166	8096
810.308	8001
810.45	7947
810.591	7868
810.733	7700
810.875	7761
811.016	7476
811.158	7464
811.299	7624
811.441	7708
811.582	7734
811.724	7632
811.865	7487
812.007	7548
812.148	7624
812.29	7544
812.431	7746
812.573	7921
812.714	7936
812.855	8084
812.997	8206
813.138	8279
813.279	8210
813.421	8077
813.562	8008
813.703	7868
813.845	7818
813.986	7476
814.127	7221
814.268	7202
814.41	7232
814.551	7183
814.692	7217
814.833	7065
814.974	7095
815.115	7065
815.256	6909
815.397	6935
815.539	6935
815.68	6875
815.821	6829
815.962	6894
816.103	6840
816.244	6726
816.385	6700
816.526	6646
816.666	6502
816.807	6338
816.948	6410
817.089	6475
817.23	6418
817.371	6388
817.512	6395
817.653	6418
817.793	6311
817.934	6350
818.075	6475
818.216	6479
818.356	6384
818.497	6232
818.638	6125
818.778	6152
818.919	6152
819.06	6087
819.2	6327
819.341	6300
819.481	6410
819.622	6521
819.762	6715
819.903	6681
820.043	6597
820.184	6578
820.324	6544
820.465	6692
820.605	6635
820.746	6604
820.886	6521
821.026	6593
821.167	6681
821.307	6806
821.447	6779
821.588	6684
821.728	6604
821.868	6441
822.008	6304
822.149	6327
822.289	6331
822.429	6144
822.569	6114
822.709	6041
822.849	5950
822.99	5897
823.13	5942
823.27	5908
823.41	5741
823.55	5813
823.69	5809
823.83	5764
823.97	5657
824.11	5516
824.25	5512
824.389	5520
824.529	5558
824.669	5516
824.809	5573
824.949	5661
825.089	5592
825.228	5589
825.368	5357
825.508	5326
825.648	5307
825.787	5414
825.927	5372
826.067	5280
826.206	5284
826.346	5353
826.485	5417
826.625	5406
826.765	5486
826.904	5493
827.044	5258
827.183	5227
827.323	5159
827.462	5231
827.601	5216
827.741	5208
827.88	5166
828.02	5113
828.159	5216
828.298	5311
828.437	5337
828.577	5277
828.716	5501
828.855	5345
828.994	5151
829.134	5147
829.273	5166
829.412	5113
829.551	5136
829.69	5128
829.829	5223
829.968	5368
830.107	5239
830.246	5239
830.385	5216
830.524	5086
830.663	5045
830.802	4961
830.941	4915
831.08	4896
831.219	4957
831.357	4965
831.496	5162
831.635	4892
831.774	4793
831.913	4850
832.051	4733
832.19	4721
832.329	4812
832.467	4706
832.606	4660
832.744	4691
832.883	4721
833.022	4748
833.16	4755
833.299	4835
833.437	4824
833.576	4816
833.714	4877
833.852	4839
833.991	4862
834.129	4972
834.267	4923
834.406	4911
834.544	4972
834.682	4980
834.821	4968
834.959	5121
835.097	4972
835.235	5197
835.373	5102
835.511	5098
835.65	5067
835.788	4999
835.926	4862
836.064	4892
836.202	4927
836.34	5170
836.478	5197
836.615	5067
836.753	5246
836.891	5235
837.029	5197
837.167	5151
837.305	5140
837.443	5094
837.58	5071
837.718	5220
837.856	5178
837.993	5143
838.131	5242
838.269	5185
838.406	5239
838.544	5162
838.681	5041
838.819	4976
838.956	4831
839.094	4908
839.231	4976
839.369	5056
839.506	5406
839.643	5227
839.781	5079
839.918	5052
840.055	5098
840.193	5083
840.33	5052
840.467	5166
840.604	5147
840.742	5455
840.879	5056
841.016	5033
841.153	5204
841.29	5379
841.427	5284
841.564	5265
841.701	5376
841.838	5265
841.975	5216
842.112	5254
842.249	5090
842.385	5064
842.522	5303
842.659	5151
842.796	5124
842.933	5193
843.069	5136
843.206	5121
843.343	5322
843.479	5201
843.616	5273
843.752	5029
843.889	5006
844.025	5201
844.162	4987
844.298	5212
844.435	5064
844.571	5018
844.708	5197
844.844	5337
844.98	5318
845.117	5330
845.253	5143
845.389	5109
845.525	5105
845.661	5143
845.798	5025
845.934	5109
846.07	5075
846.206	5174
846.342	5261
846.478	5124
846.614	4984
846.75	4938
846.886	4927
847.022	5105
847.158	5006
847.294	5041
847.429	5090
847.565	5018
847.701	5334
847.837	4885
847.972	4820
848.108	4942
848.244	4908
848.379	4771
848.515	4721
848.65	4698
848.786	4774
848.921	4748
849.057	4797
849.192	4885
849.328	4790
849.463	4831
849.598	4774
849.734	4752
849.869	4660
850.004	4611
850.14	4634
850.275	4599
850.41	4519
850.545	4554
850.68	4592
850.815	4607
850.95	4573
851.085	4809
851.22	4721
851.355	4656
851.49	4618
851.625	4611
851.76	4611
851.895	4603
852.03	4554
852.165	4687
852.299	4744
852.434	4786
852.569	4702
852.703	4790
852.838	4809
852.973	4889
853.107	4896
853.242	4748
853.376	4675
853.511	4554
853.645	4615
853.78	4820
853.914	4729
854.048	4698
854.183	4607
854.317	4664
854.451	4820
854.585	4664
854.72	4672
854.854	4725
854.988	4550
855.122	4615
855.256	4538
855.39	4641
855.524	4759
855.658	4691
855.792	4706
855.926	4717
856.06	4725
856.194	4812
856.327	4687
856.461	4561
856.595	4611
856.729	4649
856.862	4714
856.996	4698
857.13	4653
857.263	4733
857.397	4847
857.53	4641
857.664	4698
857.797	4714
857.931	4786
858.064	4687
858.197	4736
858.331	4664
858.464	4577
858.597	4493
858.731	4599
858.864	4664
858.997	4611
859.13	4645
859.263	4687
859.396	4645
859.529	4546
859.662	4542
859.795	4538
859.928	4599
860.061	4748
860.194	4782
860.327	4592
860.46	4554
860.592	4683
860.725	4683
860.858	4698
860.99	4519
861.123	4504
861.256	4504
861.388	4596
861.521	5208
861.653	4470
861.786	4413
861.918	4421
862.05	4504
862.183	4538
862.315	4573
862.447	4645
862.58	4523
862.712	4383
862.844	4341
862.976	4451
863.108	4451
863.24	4885
863.372	4341
863.504	4451
863.636	4417
863.768	4436
863.9	4402
864.032	4325
864.164	4390
864.296	4462
864.428	4538
864.559	4550
864.691	4481
864.823	4516
864.954	4508
865.086	4512
865.217	4459
865.349	4398
865.48	4432
865.612	4489
865.743	4599
865.875	4455
866.006	4398
866.137	4455
866.269	4428
866.4	4428
866.531	4409
866.662	4379
866.793	4383
866.924	4424
867.055	4508
867.186	4428
867.317	4413
867.448	4383
867.579	4398
867.71	4379
867.841	4360
867.972	4462
868.103	4481
868.233	4466
868.364	4405
868.495	4474
868.625	4660
868.756	4675
868.886	4573
869.017	4588
869.147	4710
869.278	4748
869.408	4599
869.539	4687
869.669	4740
869.799	4649
869.929	4748
870.06	4744
870.19	4938
870.32	4911
870.45	4915
870.58	5018
870.71	5113
870.84	5086
870.97	4923
871.1	4873
871.23	5094
871.36	5113
871.489	4961
871.619	5056
871.749	5075
871.879	5113
872.008	5147
872.138	5067
872.267	4976
872.397	4858
872.526	4774
872.656	4725
872.785	4812
872.915	4927
873.044	4968
873.173	4911
873.303	4942
873.432	4934
873.561	4889
873.69	4873
873.819	4873
873.948	4915
874.077	4812
874.206	4740
874.335	4771
874.464	4927
874.593	5079
874.722	4927
874.851	5018
874.979	5033
875.108	5056
875.237	4923
875.365	4881
875.494	4885
875.623	4968
875.751	4793
875.88	4824
876.008	4934
876.136	5048
876.265	5208
876.393	5334
876.521	5208
876.65	5181
876.778	5140
876.906	5083
877.034	4957
877.162	5022
877.29	4957
877.418	5060
877.546	5010
877.674	5014
877.802	4965
877.93	4999
878.058	4953
878.185	4881
878.313	4965
878.441	4953
878.568	4793
878.696	4870
878.824	4942
878.951	5014
879.079	5041
879.206	5269
879.333	5132
879.461	4957
879.588	4991
879.715	5113
879.842	5140
879.97	5022
880.097	4782
880.224	4725
880.351	4843
880.478	4755
880.605	4793
880.732	4759
880.859	5098
880.986	4862
881.112	4866
881.239	4752
881.366	4698
881.493	4584
881.619	4546
881.746	4630
881.872	4607
881.999	4637
882.125	4637
882.252	4771
882.378	4812
882.505	4953
882.631	4782
882.757	4645
882.883	4744
883.01	4706
883.136	4679
883.262	4618
883.388	4641
883.514	4752
883.64	4816
883.766	4782
883.892	4660
884.018	4725
884.143	4892
884.269	4961
884.395	4691
884.52	4580
884.646	4656
884.772	4580
884.897	4573
885.023	4653
885.148	4797
885.274	4866
885.399	4790
885.524	4729
885.65	4683
885.775	4740
885.9	4710
886.025	4801
886.15	4755
886.275	4725
886.4	4634
886.525	4729
886.65	4660
886.775	4637
886.9	4900
887.025	5041
887.149	4790
887.274	4630
887.399	4596
887.523	4603
887.648	4618
887.773	4622
887.897	4733
888.021	4786
888.146	4706
888.27	4763
888.395	4870
888.519	4790
888.643	4767
888.767	4835
888.891	4679
889.015	4615
889.139	4660
889.263	4599
889.387	4717
889.511	4889
889.635	4820
889.759	4660
889.883	4656
890.006	4679
890.13	4847
890.254	4615
890.377	4626
890.501	4554
890.624	4523
890.748	4622
890.871	4489
890.995	4447
891.118	4344
891.241	4523
891.364	4611
891.488	4626
891.611	4542
891.734	4542
891.857	4626
891.98	4538
892.103	4622
892.226	4558
892.349	4508
892.471	4440
892.594	4527
892.717	4561
892.839	4550
892.962	4550
893.085	4622
893.207	4573
893.33	4443
893.452	4497
893.575	4653
893.697	4603
893.819	4790
893.941	4786
894.064	4759
894.186	4588
894.308	4538
894.43	4706
894.552	4839
894.674	4774
894.796	4527
894.918	4615
895.04	4565
895.161	4710
895.283	4603
895.405	4550
895.526	4649
895.648	4653
895.769	4710
895.891	4786
896.012	4733
896.134	4736
896.255	4717
896.376	4607
896.498	4550
896.619	4649
896.74	4565
896.861	4645
896.982	4908
897.103	5006
897.224	4847
897.345	4736
897.466	4691
897.587	4691
897.708	4839
897.828	4752
897.949	4596
898.07	4554
898.19	4664
898.311	4816
898.431	4660
898.552	4748
898.672	4820
898.792	4831
898.913	4714
899.033	4588
899.153	4523
899.273	4481
899.393	4478
899.513	4478
899.633	4546
899.753	4542
899.873	4500
899.993	4596
900.113	4542
900.232	4561
900.352	4538
900.472	4519
900.591	4402
900.711	4485
900.83	4421
900.95	4630
901.069	4645
901.189	4500
901.308	4348
901.427	4287
901.546	4379
901.665	4500
901.784	4535
901.904	4303
902.023	4303
902.141	4207
902.26	4192
902.379	4287
902.498	4268
902.617	4223
902.735	4375
902.854	4405
902.973	4371
903.091	4207
903.21	4242
903.328	4306
903.446	4272
903.565	4223
903.683	4344
903.801	4257
903.919	4405
904.038	4390
904.156	4310
904.274	4451
904.392	4383
904.51	4409
904.627	4443
904.745	4554
904.863	4615
904.981	4413
905.098	4322
905.216	4383
905.334	4451
905.451	4432
905.569	4413
905.686	4588
905.803	4558
905.921	4390
906.038	4546
906.155	4485
906.272	4424
906.389	4432
906.506	4352
906.623	4356
906.74	4402
906.857	4306
906.974	4390
907.091	4512
907.208	4637
907.324	4550
907.441	4500
907.557	4344
907.674	4303
907.79	4284
907.907	4360
908.023	4493
908.139	4481
908.256	4363
908.372	4451
908.488	4432
908.604	4363
908.72	4322
908.836	4405
908.952	4318
909.068	4413
909.184	4527
909.3	4481
909.415	4592
909.531	4542
909.647	4379
909.762	4375
909.878	4367
909.993	4424
910.108	4390
910.224	4394
910.339	4485
910.454	4459
910.57	4352
910.685	4276
910.8	4645
910.915	4596
911.03	4481
911.145	4352
911.259	4356
911.374	4409
911.489	4299
911.604	4238
911.718	4154
911.833	4230
911.947	4109
912.062	4010
912.176	4215
912.291	4238
912.405	4215
912.519	4455
912.633	4478
912.748	4352
912.862	4303
912.976	4211
913.09	4112
913.204	4158
913.318	4188
913.431	4356
913.545	4379
913.659	4440
913.772	4329
913.886	4238
914	4154
914.113	4421
914.226	4481
914.34	4405
914.453	4227
914.566	4405
914.68	4341
914.793	4291
914.906	4173
915.019	4154
915.132	4090
915.245	4185
915.358	4207
915.47	4200
915.583	4265
915.696	4306
915.809	4390
915.921	4402
916.034	4234
916.146	4242
916.259	4188
916.371	4352
916.483	4363
916.595	4276
916.708	4310
916.82	4268
916.932	4322
917.044	4318
917.156	4306
917.268	4284
917.38	4230
917.491	4276
917.603	4371
917.715	4398
917.826	4443
917.938	4344
918.049	4246
918.161	4424
918.272	4508
918.384	4523
918.495	4466
918.606	4257
918.717	4246
918.828	4287
918.939	4360
919.05	4219
919.161	4314
919.272	4116
919.383	4242
919.494	4440
919.604	4618
919.715	4409
919.826	4337
919.936	4413
920.047	4485
920.157	4474
920.267	4706
920.378	4542
920.488	4455
920.598	4687
920.708	4873
920.818	4725
920.928	4759
921.038	4946
921.148	4904
921.258	4626
921.368	4611
921.477	4497
921.587	4440
921.697	4379
921.806	4554
921.916	4413
922.025	4268
922.134	4234
922.244	4227
922.353	4261
922.462	4169
922.571	4147
922.68	3979
922.789	4002
922.898	4032
923.007	3975
923.116	4082
923.224	4067
923.333	4082
923.442	4006
923.55	3964
923.659	4074
923.767	4063
923.876	4029
923.984	4147
924.092	3983
924.201	4078
924.309	4109
924.417	4147
924.525	4067
924.633	4120
924.741	5045
924.849	3949
924.956	4112
925.064	3911
925.172	3930
925.279	3960
925.387	4093
925.494	4040
925.602	4227
925.709	4169
925.816	3991
925.924	4128
926.031	4200
926.138	4181
926.245	4192
926.352	4093
926.459	4238
926.566	4265
926.673	4188
926.779	4071
926.886	4067
926.993	3968
927.099	3915
927.206	3956
927.312	3953
927.419	4093
927.525	4048
927.631	4090
927.737	3956
927.843	3880
927.95	3850
928.056	3953
928.162	3979
928.267	4063
928.373	4637
928.479	4093
928.585	3888
928.69	4029
928.796	4093
928.901	3956
929.007	3861
929.112	3998
929.218	3994
929.323	3926
929.428	3991
929.533	4078
929.638	3903
929.743	3945
929.848	4036
929.953	3934
930.058	3884
930.163	3778
930.267	3835
930.372	3987
930.477	3816
930.581	4086
930.685	3941
930.79	3774
930.894	3918
930.998	3850
931.103	4059
931.207	3720
931.311	3690
931.415	3667
931.519	3538
931.623	3572
