Data from test_V78500241_726.txt Node
Date: Fri Mar 25 16:54:02 CST 2022
User: usil
Spectrometer: V785-0024
Trigger mode: 0
Integration Time (sec): 4.000000E-1
Scans to average: 1
Nonlinearity correction enabled: false
Boxcar width: 0
Storing dark spectrum: false
XAxis mode: Wavelengths
Number of Pixels in Spectrum: 1024
>>>>>Begin Spectral Data<<<<<
801.071	8054
801.214	8001
801.356	7906
801.499	7883
801.641	7826
801.783	7871
801.926	8039
802.068	7970
802.211	7970
802.353	8035
802.496	7913
802.638	7932
802.78	7883
802.923	7902
803.065	7837
803.208	7772
803.35	7978
803.492	8157
803.635	8153
803.777	8050
803.919	8081
804.061	8393
804.204	8153
804.346	8100
804.488	7955
804.63	8153
804.773	8001
804.915	8100
805.057	8290
805.199	8123
805.341	8187
805.483	8324
805.626	8248
805.768	8107
805.91	8161
806.052	8199
806.194	8092
806.336	8317
806.478	8172
806.62	8130
806.762	8206
806.904	8218
807.046	8442
807.188	8362
807.33	8286
807.472	8309
807.614	8149
807.756	8081
807.898	7978
808.04	7845
808.182	7868
808.324	7890
808.465	7925
808.607	8096
808.749	8084
808.891	8164
809.033	8244
809.174	8221
809.316	8062
809.458	8027
809.6	7974
809.741	7967
809.883	8020
810.025	8092
810.166	8081
810.308	8050
810.45	8073
810.591	7902
810.733	7784
810.875	7674
811.016	7495
811.158	7578
811.299	7559
811.441	7681
811.582	7639
811.724	7582
811.865	7548
812.007	7613
812.148	7521
812.29	7643
812.431	7658
812.573	7772
812.714	7940
812.855	8088
812.997	8180
813.138	8267
813.279	8225
813.421	8149
813.562	8012
813.703	7879
813.845	7731
813.986	7388
814.127	7331
814.268	7190
814.41	7217
814.551	7053
814.692	7175
814.833	7038
814.974	7107
815.115	7076
815.256	6947
815.397	6973
815.539	6924
815.68	6875
815.821	6783
815.962	6871
816.103	6806
816.244	6719
816.385	6623
816.526	6623
816.666	6536
816.807	6311
816.948	6429
817.089	6509
817.23	6448
817.371	6365
817.512	6422
817.653	6448
817.793	6395
817.934	6433
818.075	6388
818.216	6433
818.356	6422
818.497	6270
818.638	6083
818.778	6129
818.919	6148
819.06	6098
819.2	6277
819.341	6311
819.481	6403
819.622	6551
819.762	6684
819.903	6700
820.043	6601
820.184	6532
820.324	6597
820.465	6658
820.605	6639
820.746	6604
820.886	6521
821.026	6662
821.167	6677
821.307	6814
821.447	6692
821.588	6631
821.728	6559
821.868	6452
822.008	6376
822.149	6323
822.289	6384
822.429	6144
822.569	6155
822.709	6091
822.849	5908
822.99	5908
823.13	5916
823.27	5927
823.41	5779
823.55	5821
823.69	5817
823.83	5771
823.97	5665
824.11	5532
824.25	5535
824.389	5528
824.529	5573
824.669	5539
824.809	5646
824.949	5672
825.089	5638
825.228	5551
825.368	5444
825.508	5395
825.648	5395
825.787	5414
825.927	5360
826.067	5326
826.206	5353
826.346	5398
826.485	5417
826.625	5398
826.765	5501
826.904	5501
827.044	5269
827.183	5181
827.323	5128
827.462	5223
827.601	5174
827.741	5216
827.88	5254
828.02	5067
828.159	5254
828.298	5296
828.437	5376
828.577	5296
828.716	5486
828.855	5341
828.994	5204
829.134	5162
829.273	5250
829.412	5166
829.551	5102
829.69	5212
829.829	5261
829.968	5376
830.107	5265
830.246	5292
830.385	5140
830.524	5189
830.663	5067
830.802	4980
830.941	4896
831.08	4896
831.219	5041
831.357	4987
831.496	5113
831.635	4938
831.774	4858
831.913	4831
832.051	4721
832.19	4755
832.329	4873
832.467	4691
832.606	4706
832.744	4729
832.883	4729
833.022	4717
833.16	4736
833.299	4828
833.437	4858
833.576	4831
833.714	4835
833.852	4835
833.991	4877
834.129	4976
834.267	4980
834.406	4923
834.544	5003
834.682	5006
834.821	4968
834.959	5155
835.097	5003
835.235	5132
835.373	5083
835.511	5079
835.65	5029
835.788	5014
835.926	4904
836.064	4892
836.202	4934
836.34	5185
836.478	5208
836.615	5079
836.753	5227
836.891	5273
837.029	5208
837.167	5166
837.305	5155
837.443	5124
837.58	5045
837.718	5273
837.856	5174
837.993	5155
838.131	5261
838.269	5216
838.406	5258
838.544	5242
838.681	5037
838.819	5006
838.956	4915
839.094	4885
839.231	4991
839.369	5102
839.506	5417
839.643	5258
839.781	5090
839.918	4980
840.055	5132
840.193	5121
840.33	5155
840.467	5162
840.604	5201
840.742	5425
840.879	5102
841.016	5147
841.153	5170
841.29	5349
841.427	5376
841.564	5360
841.701	5341
841.838	5235
841.975	5246
842.112	5246
842.249	5136
842.385	5155
842.522	5318
842.659	5201
842.796	5197
842.933	5185
843.069	5159
843.206	5170
843.343	5280
843.479	5227
843.616	5326
843.752	5022
843.889	5010
844.025	5258
844.162	5060
844.298	5174
844.435	5140
844.571	5075
844.708	5174
844.844	5246
844.98	5292
845.117	5246
845.253	5128
845.389	5029
845.525	5121
845.661	5098
845.798	5045
845.934	5181
846.07	5052
846.206	5197
846.342	5273
846.478	5208
846.614	5018
846.75	4949
846.886	4946
847.022	5071
847.158	5037
847.294	5048
847.429	5102
847.565	5022
847.701	5292
847.837	4824
847.972	4816
848.108	4972
848.244	4949
848.379	4778
848.515	4778
848.65	4698
848.786	4740
848.921	4774
849.057	4866
849.192	4896
849.328	4858
849.463	4877
849.598	4786
849.734	4786
849.869	4714
850.004	4637
850.14	4656
850.275	4603
850.41	4554
850.545	4558
850.68	4622
850.815	4611
850.95	4626
851.085	4816
851.22	4752
851.355	4694
851.49	4668
851.625	4702
851.76	4637
851.895	4546
852.03	4542
852.165	4668
852.299	4763
852.434	4850
852.569	4717
852.703	4771
852.838	4862
852.973	4946
853.107	4976
853.242	4816
853.376	4717
853.511	4615
853.645	4630
853.78	4854
853.914	4653
854.048	4706
854.183	4626
854.317	4660
854.451	4850
854.585	4698
854.72	4675
854.854	4782
854.988	4683
855.122	4672
855.256	4561
855.39	4721
855.524	4786
855.658	4797
855.792	4744
855.926	4748
856.06	4862
856.194	4877
856.327	4721
856.461	4630
856.595	4672
856.729	4645
856.862	4809
856.996	4687
857.13	4793
857.263	4786
857.397	4862
857.53	4679
857.664	4717
857.797	4786
857.931	4828
858.064	4740
858.197	4793
858.331	4675
858.464	4683
858.597	4592
858.731	4694
858.864	4714
858.997	4649
859.13	4691
859.263	4679
859.396	4691
859.529	4630
859.662	4641
859.795	4550
859.928	4694
860.061	4805
860.194	4809
860.327	4698
860.46	4599
860.592	4786
860.725	4744
860.858	4725
860.99	4637
861.123	4599
861.256	4569
861.388	4683
861.521	5414
861.653	4542
861.786	4493
861.918	4493
862.05	4516
862.183	4584
862.315	4630
862.447	4687
862.58	4565
862.712	4428
862.844	4363
862.976	4504
863.108	4558
863.24	4930
863.372	4386
863.504	4417
863.636	4474
863.768	4504
863.9	4493
864.032	4398
864.164	4421
864.296	4497
864.428	4565
864.559	4607
864.691	4618
864.823	4550
864.954	4508
865.086	4523
865.217	4485
865.349	4466
865.48	4493
865.612	4554
865.743	4668
865.875	4508
866.006	4466
866.137	4519
866.269	4462
866.4	4485
866.531	4447
866.662	4409
866.793	4428
866.924	4443
867.055	4527
867.186	4512
867.317	4440
867.448	4409
867.579	4409
867.71	4417
867.841	4421
867.972	4500
868.103	4485
868.233	4481
868.364	4474
868.495	4516
868.625	4710
868.756	4752
868.886	4634
869.017	4615
869.147	4797
869.278	4828
869.408	4740
869.539	4660
869.669	4774
869.799	4702
869.929	4729
870.06	4809
870.19	5025
870.32	4900
870.45	4972
870.58	5064
870.71	5136
870.84	5105
870.97	4980
871.1	4987
871.23	5189
871.36	5102
871.489	5060
871.619	5060
871.749	5159
871.879	5155
872.008	5208
872.138	5075
872.267	5056
872.397	4885
872.526	4805
872.656	4744
872.785	4881
872.915	4999
873.044	5056
873.173	5003
873.303	4999
873.432	4934
873.561	4987
873.69	4942
873.819	4885
873.948	4938
874.077	4885
874.206	4786
874.335	4820
874.464	4949
874.593	5033
874.722	5006
874.851	5140
874.979	5071
875.108	5090
875.237	4995
875.365	4889
875.494	4873
875.623	4987
875.751	4866
875.88	4919
876.008	5048
876.136	5079
876.265	5242
876.393	5299
876.521	5254
876.65	5269
876.778	5227
876.906	5098
877.034	5037
877.162	5048
877.29	5014
877.418	5102
877.546	5075
877.674	5056
877.802	5075
877.93	5071
878.058	5018
878.185	4915
878.313	4911
878.441	5037
878.568	4839
878.696	4927
878.824	4984
878.951	5003
879.079	5121
879.206	5292
879.333	5143
879.461	5018
879.588	5006
879.715	5128
879.842	5277
879.97	5029
880.097	4790
880.224	4801
880.351	4752
880.478	4854
880.605	4896
880.732	4812
880.859	5060
880.986	4946
881.112	4923
881.239	4812
881.366	4687
881.493	4641
881.619	4588
881.746	4660
881.872	4660
881.999	4683
882.125	4767
882.252	4835
882.378	4801
882.505	4995
882.631	4786
882.757	4683
882.883	4771
883.01	4786
883.136	4691
883.262	4653
883.388	4641
883.514	4850
883.64	4896
883.766	4824
883.892	4687
884.018	4729
884.143	4904
884.269	5022
884.395	4694
884.52	4645
884.646	4630
884.772	4618
884.897	4584
885.023	4656
885.148	4847
885.274	4885
885.399	4801
885.524	4755
885.65	4710
885.775	4831
885.9	4790
886.025	4930
886.15	4835
886.275	4717
886.4	4714
886.525	4725
886.65	4736
886.775	4736
886.9	4923
887.025	5075
887.149	4831
887.274	4653
887.399	4622
887.523	4622
887.648	4565
887.773	4622
887.897	4790
888.021	4793
888.146	4736
888.27	4843
888.395	4873
888.519	4847
888.643	4854
888.767	4858
888.891	4706
889.015	4641
889.139	4668
889.263	4596
889.387	4786
889.511	4927
889.635	4809
889.759	4679
889.883	4660
890.006	4736
890.13	4896
890.254	4618
890.377	4714
890.501	4573
890.624	4561
890.748	4679
890.871	4519
890.995	4451
891.118	4363
891.241	4558
891.364	4508
891.488	4649
891.611	4443
891.734	4603
891.857	4622
891.98	4538
892.103	4653
892.226	4649
892.349	4504
892.471	4421
892.594	4588
892.717	4607
892.839	4577
892.962	4588
893.085	4710
893.207	4596
893.33	4504
893.452	4542
893.575	4691
893.697	4588
893.819	4854
893.941	4809
894.064	4820
894.186	4573
894.308	4596
894.43	4717
894.552	4839
894.674	4771
894.796	4561
894.918	4656
895.04	4622
895.161	4748
895.283	4656
895.405	4603
895.526	4675
895.648	4733
895.769	4702
895.891	4725
896.012	4755
896.134	4721
896.255	4706
896.376	4630
896.498	4630
896.619	4698
896.74	4584
896.861	4664
896.982	4972
897.103	5094
897.224	4816
897.345	4774
897.466	4672
897.587	4714
897.708	4915
897.828	4790
897.949	4672
898.07	4599
898.19	4683
898.311	4812
898.431	4675
898.552	4721
898.672	4812
898.792	4877
898.913	4740
899.033	4630
899.153	4497
899.273	4443
899.393	4512
899.513	4497
899.633	4523
899.753	4569
899.873	4516
899.993	4603
900.113	4497
900.232	4596
900.352	4569
900.472	4493
900.591	4405
900.711	4535
900.83	4485
900.95	4588
901.069	4706
901.189	4561
901.308	4360
901.427	4348
901.546	4440
901.665	4470
901.784	4535
901.904	4413
902.023	4356
902.141	4204
902.26	4215
902.379	4322
902.498	4238
902.617	4249
902.735	4409
902.854	4413
902.973	4424
903.091	4196
903.21	4215
903.328	4341
903.446	4276
903.565	4303
903.683	4314
903.801	4322
903.919	4443
904.038	4447
904.156	4344
904.274	4417
904.392	4447
904.51	4451
904.627	4497
904.745	4637
904.863	4641
904.981	4394
905.098	4348
905.216	4363
905.334	4451
905.451	4474
905.569	4485
905.686	4580
905.803	4569
905.921	4428
906.038	4603
906.155	4535
906.272	4379
906.389	4459
906.506	4360
906.623	4390
906.74	4367
906.857	4333
906.974	4394
907.091	4550
907.208	4691
907.324	4622
907.441	4493
907.557	4303
907.674	4352
907.79	4295
907.907	4386
908.023	4504
908.139	4497
908.256	4462
908.372	4493
908.488	4459
908.604	4390
908.72	4322
908.836	4363
908.952	4379
909.068	4447
909.184	4569
909.3	4466
909.415	4565
909.531	4561
909.647	4375
909.762	4394
909.878	4333
909.993	4462
910.108	4436
910.224	4428
910.339	4478
910.454	4398
910.57	4363
910.685	4344
910.8	4702
910.915	4588
911.03	4508
911.145	4291
911.259	4341
911.374	4402
911.489	4303
911.604	4291
911.718	4238
911.833	4211
911.947	4074
912.062	4025
912.176	4207
912.291	4272
912.405	4234
912.519	4493
912.633	4542
912.748	4432
912.862	4333
912.976	4188
913.09	4116
913.204	4181
913.318	4249
913.431	4402
913.545	4371
913.659	4440
913.772	4341
913.886	4280
914	4200
914.113	4421
914.226	4440
914.34	4405
914.453	4196
914.566	4440
914.68	4314
914.793	4325
914.906	4162
915.019	4131
915.132	4093
915.245	4200
915.358	4223
915.47	4246
915.583	4291
915.696	4284
915.809	4421
915.921	4466
916.034	4253
916.146	4261
916.259	4219
916.371	4367
916.483	4352
916.595	4242
916.708	4314
916.82	4284
916.932	4363
917.044	4322
917.156	4310
917.268	4261
917.38	4356
917.491	4299
917.603	4303
917.715	4424
917.826	4466
917.938	4371
918.049	4238
918.161	4341
918.272	4535
918.384	4546
918.495	4436
918.606	4284
918.717	4280
918.828	4333
918.939	4379
919.05	4314
919.161	4318
919.272	4169
919.383	4284
919.494	4481
919.604	4634
919.715	4413
919.826	4325
919.936	4409
920.047	4481
920.157	4478
920.267	4729
920.378	4546
920.488	4550
920.598	4725
920.708	4854
920.818	4755
920.928	4767
921.038	5006
921.148	4915
921.258	4618
921.368	4550
921.477	4535
921.587	4447
921.697	4367
921.806	4550
921.916	4432
922.025	4268
922.134	4280
922.244	4230
922.353	4333
922.462	4150
922.571	4162
922.68	4059
922.789	3987
922.898	4025
923.007	3964
923.116	4048
923.224	4090
923.333	4090
923.442	4006
923.55	4006
923.659	4071
923.767	4093
923.876	4036
923.984	4128
924.092	4029
924.201	4101
924.309	4128
924.417	4082
924.525	4067
924.633	4059
924.741	4957
924.849	3930
924.956	4120
925.064	3983
925.172	3880
925.279	3937
925.387	4071
925.494	4006
925.602	4223
925.709	4211
925.816	4074
925.924	4147
926.031	4246
926.138	4207
926.245	4196
926.352	4112
926.459	4272
926.566	4318
926.673	4147
926.779	4105
926.886	4116
926.993	3998
927.099	4002
927.206	3873
927.312	3949
927.419	4048
927.525	4010
927.631	4097
927.737	3949
927.843	3960
927.95	3800
928.056	3911
928.162	4006
928.267	4051
928.373	4710
928.479	4082
928.585	3873
928.69	4059
928.796	4078
928.901	4002
929.007	3854
929.112	3991
929.218	3998
929.323	3911
929.428	3991
929.533	4109
929.638	3937
929.743	3956
929.848	4048
929.953	4021
930.058	3937
930.163	3762
930.267	3804
930.372	4013
930.477	3819
930.581	4090
930.685	3964
930.79	3823
930.894	3888
930.998	3846
931.103	4059
931.207	3713
931.311	3682
931.415	3709
931.519	3530
931.623	3523
