Data from test_V78500241_2267.txt Node
Date: Fri Mar 25 17:04:45 CST 2022
User: usil
Spectrometer: V785-0024
Trigger mode: 0
Integration Time (sec): 4.000000E-1
Scans to average: 1
Nonlinearity correction enabled: false
Boxcar width: 0
Storing dark spectrum: false
XAxis mode: Wavelengths
Number of Pixels in Spectrum: 1024
>>>>>Begin Spectral Data<<<<<
801.071	8054
801.214	7947
801.356	7879
801.499	7879
801.641	7879
801.783	7852
801.926	8001
802.068	7906
802.211	8020
802.353	8012
802.496	7864
802.638	7792
802.78	7871
802.923	7951
803.065	7833
803.208	7925
803.35	7967
803.492	8084
803.635	8202
803.777	8050
803.919	8176
804.061	8427
804.204	8183
804.346	8035
804.488	7959
804.63	8092
804.773	8107
804.915	8069
805.057	8332
805.199	8145
805.341	8221
805.483	8244
805.626	8229
805.768	8138
805.91	8153
806.052	8214
806.194	8077
806.336	8301
806.478	8115
806.62	8100
806.762	8180
806.904	8305
807.046	8457
807.188	8343
807.33	8298
807.472	8339
807.614	8187
807.756	8138
807.898	8012
808.04	7837
808.182	7887
808.324	7909
808.465	7963
808.607	8016
808.749	8115
808.891	8191
809.033	8282
809.174	8210
809.316	8073
809.458	8058
809.6	7963
809.741	8088
809.883	7982
810.025	8115
810.166	8062
810.308	8005
810.45	7978
810.591	7852
810.733	7746
810.875	7670
811.016	7510
811.158	7480
811.299	7658
811.441	7727
811.582	7708
811.724	7518
811.865	7521
812.007	7586
812.148	7544
812.29	7586
812.431	7712
812.573	7833
812.714	7932
812.855	8119
812.997	8206
813.138	8290
813.279	8180
813.421	8020
813.562	7982
813.703	7837
813.845	7750
813.986	7422
814.127	7247
814.268	7221
814.41	7171
814.551	7110
814.692	7175
814.833	7133
814.974	7065
815.115	7107
815.256	6985
815.397	6897
815.539	6905
815.68	6783
815.821	6810
815.962	6901
816.103	6791
816.244	6715
816.385	6578
816.526	6608
816.666	6521
816.807	6338
816.948	6445
817.089	6506
817.23	6452
817.371	6361
817.512	6376
817.653	6395
817.793	6353
817.934	6395
818.075	6456
818.216	6456
818.356	6391
818.497	6251
818.638	6136
818.778	6175
818.919	6167
819.06	6129
819.2	6300
819.341	6331
819.481	6338
819.622	6604
819.762	6779
819.903	6730
820.043	6612
820.184	6582
820.324	6589
820.465	6662
820.605	6707
820.746	6681
820.886	6582
821.026	6658
821.167	6738
821.307	6779
821.447	6760
821.588	6646
821.728	6631
821.868	6532
822.008	6365
822.149	6395
822.289	6361
822.429	6129
822.569	6148
822.709	6106
822.849	5950
822.99	5904
823.13	5969
823.27	5920
823.41	5832
823.55	5809
823.69	5828
823.83	5798
823.97	5714
824.11	5501
824.25	5539
824.389	5581
824.529	5604
824.669	5532
824.809	5676
824.949	5691
825.089	5668
825.228	5573
825.368	5429
825.508	5421
825.648	5414
825.787	5383
825.927	5433
826.067	5337
826.206	5353
826.346	5360
826.485	5444
826.625	5436
826.765	5615
826.904	5528
827.044	5277
827.183	5223
827.323	5147
827.462	5284
827.601	5189
827.741	5231
827.88	5231
828.02	5151
828.159	5258
828.298	5349
828.437	5368
828.577	5349
828.716	5516
828.855	5372
828.994	5193
829.134	5197
829.273	5223
829.412	5185
829.551	5136
829.69	5193
829.829	5318
829.968	5398
830.107	5307
830.246	5315
830.385	5193
830.524	5140
830.663	5105
830.802	5064
830.941	4938
831.08	4911
831.219	5018
831.357	5022
831.496	5155
831.635	4995
831.774	4873
831.913	4904
832.051	4786
832.19	4786
832.329	4881
832.467	4771
832.606	4668
832.744	4801
832.883	4748
833.022	4740
833.16	4828
833.299	4820
833.437	4900
833.576	4889
833.714	4885
833.852	4885
833.991	4923
834.129	5022
834.267	4984
834.406	4968
834.544	5018
834.682	5006
834.821	4968
834.959	5197
835.097	5033
835.235	5132
835.373	5147
835.511	5185
835.65	5029
835.788	5067
835.926	4942
836.064	4866
836.202	4987
836.34	5204
836.478	5239
836.615	5140
836.753	5284
836.891	5265
837.029	5311
837.167	5220
837.305	5216
837.443	5159
837.58	5181
837.718	5299
837.856	5181
837.993	5151
838.131	5269
838.269	5235
838.406	5189
838.544	5174
838.681	5098
838.819	5006
838.956	4957
839.094	4900
839.231	4999
839.369	5098
839.506	5459
839.643	5322
839.781	5113
839.918	5014
840.055	5143
840.193	5132
840.33	5143
840.467	5128
840.604	5246
840.742	5478
840.879	5117
841.016	5105
841.153	5151
841.29	5372
841.427	5334
841.564	5372
841.701	5360
841.838	5337
841.975	5269
842.112	5334
842.249	5193
842.385	5075
842.522	5376
842.659	5185
842.796	5181
842.933	5250
843.069	5124
843.206	5223
843.343	5292
843.479	5239
843.616	5307
843.752	5037
843.889	5037
844.025	5250
844.162	5029
844.298	5239
844.435	5090
844.571	5060
844.708	5216
844.844	5296
844.98	5387
845.117	5277
845.253	5155
845.389	5094
845.525	5216
845.661	5151
845.798	5045
845.934	5136
846.07	5083
846.206	5189
846.342	5360
846.478	5181
846.614	5083
846.75	5029
846.886	4968
847.022	5140
847.158	5003
847.294	5083
847.429	5113
847.565	5098
847.701	5368
847.837	4881
847.972	4866
848.108	4972
848.244	4961
848.379	4782
848.515	4797
848.65	4714
848.786	4733
848.921	4835
849.057	4892
849.192	4862
849.328	4782
849.463	4858
849.598	4896
849.734	4809
849.869	4717
850.004	4641
850.14	4755
850.275	4641
850.41	4554
850.545	4630
850.68	4618
850.815	4641
850.95	4710
851.085	4881
851.22	4793
851.355	4668
851.49	4645
851.625	4710
851.76	4710
851.895	4561
852.03	4527
852.165	4683
852.299	4736
852.434	4831
852.569	4801
852.703	4828
852.838	4843
852.973	4923
853.107	4942
853.242	4744
853.376	4736
853.511	4584
853.645	4618
853.78	4809
853.914	4748
854.048	4733
854.183	4706
854.317	4733
854.451	4881
854.585	4736
854.72	4672
854.854	4759
854.988	4630
855.122	4660
855.256	4573
855.39	4714
855.524	4790
855.658	4706
855.792	4714
855.926	4748
856.06	4797
856.194	4824
856.327	4767
856.461	4649
856.595	4668
856.729	4622
856.862	4812
856.996	4706
857.13	4729
857.263	4782
857.397	4831
857.53	4683
857.664	4702
857.797	4778
857.931	4816
858.064	4653
858.197	4790
858.331	4683
858.464	4615
858.597	4584
858.731	4653
858.864	4675
858.997	4664
859.13	4694
859.263	4706
859.396	4637
859.529	4622
859.662	4596
859.795	4546
859.928	4653
860.061	4790
860.194	4763
860.327	4649
860.46	4577
860.592	4805
860.725	4740
860.858	4752
860.99	4641
861.123	4542
861.256	4611
861.388	4618
861.521	5357
861.653	4504
861.786	4489
861.918	4440
862.05	4531
862.183	4599
862.315	4618
862.447	4687
862.58	4611
862.712	4390
862.844	4329
862.976	4489
863.108	4481
863.24	4896
863.372	4356
863.504	4424
863.636	4413
863.768	4523
863.9	4455
864.032	4383
864.164	4481
864.296	4485
864.428	4596
864.559	4641
864.691	4561
864.823	4573
864.954	4588
865.086	4561
865.217	4493
865.349	4424
865.48	4451
865.612	4535
865.743	4656
865.875	4516
866.006	4500
866.137	4508
866.269	4451
866.4	4447
866.531	4436
866.662	4421
866.793	4428
866.924	4497
867.055	4481
867.186	4466
867.317	4455
867.448	4390
867.579	4455
867.71	4421
867.841	4398
867.972	4504
868.103	4466
868.233	4466
868.364	4474
868.495	4493
868.625	4694
868.756	4771
868.886	4599
869.017	4611
869.147	4778
869.278	4790
869.408	4653
869.539	4656
869.669	4721
869.799	4683
869.929	4778
870.06	4797
870.19	5003
870.32	4938
870.45	4984
870.58	5041
870.71	5117
870.84	5105
870.97	4999
871.1	4930
871.23	5170
871.36	5124
871.489	5098
871.619	5136
871.749	5155
871.879	5124
872.008	5197
872.138	5102
872.267	4976
872.397	4858
872.526	4801
872.656	4771
872.785	4824
872.915	4961
873.044	5022
873.173	4927
873.303	4961
873.432	4961
873.561	4980
873.69	4919
873.819	4862
873.948	4923
874.077	4831
874.206	4755
874.335	4820
874.464	4965
874.593	5052
874.722	4949
874.851	5151
874.979	5067
875.108	5041
875.237	4942
875.365	4877
875.494	4946
875.623	5052
875.751	4881
875.88	4915
876.008	5010
876.136	5060
876.265	5181
876.393	5349
876.521	5296
876.65	5227
876.778	5155
876.906	5113
877.034	5041
877.162	5010
877.29	4934
877.418	5071
877.546	5075
877.674	5083
877.802	5086
877.93	5025
878.058	4965
878.185	4919
878.313	5003
878.441	4927
878.568	4812
878.696	4854
878.824	4953
878.951	4984
879.079	5136
879.206	5368
879.333	5105
879.461	5022
879.588	4972
879.715	5113
879.842	5261
879.97	5064
880.097	4793
880.224	4771
880.351	4835
880.478	4790
880.605	4828
880.732	4805
880.859	5086
880.986	4946
881.112	4900
881.239	4797
881.366	4660
881.493	4618
881.619	4588
881.746	4641
881.872	4645
881.999	4710
882.125	4691
882.252	4797
882.378	4850
882.505	4995
882.631	4854
882.757	4679
882.883	4748
883.01	4721
883.136	4721
883.262	4630
883.388	4691
883.514	4866
883.64	4862
883.766	4824
883.892	4694
884.018	4691
884.143	4892
884.269	5003
884.395	4656
884.52	4641
884.646	4634
884.772	4577
884.897	4580
885.023	4710
885.148	4790
885.274	4831
885.399	4835
885.524	4710
885.65	4698
885.775	4774
885.9	4752
886.025	4889
886.15	4831
886.275	4721
886.4	4626
886.525	4774
886.65	4672
886.775	4736
886.9	4934
887.025	5060
887.149	4797
887.274	4679
887.399	4558
887.523	4607
887.648	4641
887.773	4630
887.897	4755
888.021	4801
888.146	4675
888.27	4828
888.395	4904
888.519	4812
888.643	4843
888.767	4847
888.891	4714
889.015	4637
889.139	4653
889.263	4626
889.387	4809
889.511	4870
889.635	4835
889.759	4656
889.883	4626
890.006	4729
890.13	4850
890.254	4653
890.377	4668
890.501	4554
890.624	4538
890.748	4691
890.871	4516
890.995	4421
891.118	4386
891.241	4538
891.364	4584
891.488	4660
891.611	4538
891.734	4584
891.857	4596
891.98	4599
892.103	4645
892.226	4622
892.349	4527
892.471	4413
892.594	4523
892.717	4599
892.839	4603
892.962	4599
893.085	4702
893.207	4561
893.33	4459
893.452	4538
893.575	4691
893.697	4558
893.819	4771
893.941	4850
894.064	4816
894.186	4573
894.308	4565
894.43	4717
894.552	4831
894.674	4736
894.796	4554
894.918	4615
895.04	4611
895.161	4702
895.283	4698
895.405	4584
895.526	4668
895.648	4717
895.769	4710
895.891	4687
896.012	4740
896.134	4778
896.255	4710
896.376	4656
896.498	4611
896.619	4645
896.74	4573
896.861	4668
896.982	4938
897.103	5079
897.224	4854
897.345	4759
897.466	4603
897.587	4744
897.708	4824
897.828	4786
897.949	4694
898.07	4584
898.19	4687
898.311	4820
898.431	4672
898.552	4790
898.672	4873
898.792	4797
898.913	4748
899.033	4626
899.153	4550
899.273	4447
899.393	4478
899.513	4497
899.633	4535
899.753	4588
899.873	4527
899.993	4577
900.113	4470
900.232	4561
900.352	4546
900.472	4478
900.591	4455
900.711	4478
900.83	4402
900.95	4607
901.069	4698
901.189	4565
901.308	4348
901.427	4375
901.546	4409
901.665	4489
901.784	4546
901.904	4428
902.023	4341
902.141	4177
902.26	4196
902.379	4303
902.498	4234
902.617	4200
902.735	4371
902.854	4367
902.973	4390
903.091	4246
903.21	4215
903.328	4310
903.446	4303
903.565	4295
903.683	4360
903.801	4375
903.919	4413
904.038	4421
904.156	4299
904.274	4432
904.392	4367
904.51	4432
904.627	4447
904.745	4592
904.863	4668
904.981	4379
905.098	4375
905.216	4356
905.334	4432
905.451	4436
905.569	4500
905.686	4535
905.803	4592
905.921	4421
906.038	4611
906.155	4462
906.272	4462
906.389	4440
906.506	4367
906.623	4405
906.74	4379
906.857	4291
906.974	4379
907.091	4558
907.208	4683
907.324	4554
907.441	4474
907.557	4379
907.674	4303
907.79	4344
907.907	4379
908.023	4466
908.139	4470
908.256	4428
908.372	4462
908.488	4455
908.604	4371
908.72	4337
908.836	4379
908.952	4383
909.068	4421
909.184	4554
909.3	4478
909.415	4618
909.531	4546
909.647	4363
909.762	4367
909.878	4310
909.993	4421
910.108	4440
910.224	4428
910.339	4523
910.454	4443
910.57	4352
910.685	4303
910.8	4626
910.915	4599
911.03	4489
911.145	4352
911.259	4310
911.374	4390
911.489	4291
911.604	4287
911.718	4200
911.833	4200
911.947	4082
912.062	4029
912.176	4219
912.291	4299
912.405	4261
912.519	4451
912.633	4497
912.748	4424
912.862	4341
912.976	4177
913.09	4128
913.204	4150
913.318	4215
913.431	4363
913.545	4360
913.659	4447
913.772	4375
913.886	4223
914	4230
914.113	4417
914.226	4455
914.34	4383
914.453	4234
914.566	4424
914.68	4272
914.793	4333
914.906	4204
915.019	4181
915.132	4086
915.245	4242
915.358	4227
915.47	4204
915.583	4268
915.696	4303
915.809	4413
915.921	4432
916.034	4230
916.146	4284
916.259	4196
916.371	4371
916.483	4375
916.595	4257
916.708	4303
916.82	4318
916.932	4329
917.044	4314
917.156	4348
917.268	4253
917.38	4280
917.491	4280
917.603	4375
917.715	4455
917.826	4421
917.938	4322
918.049	4261
918.161	4409
918.272	4584
918.384	4546
918.495	4466
918.606	4318
918.717	4280
918.828	4322
918.939	4405
919.05	4299
919.161	4333
919.272	4150
919.383	4246
919.494	4451
919.604	4611
919.715	4462
919.826	4325
919.936	4428
920.047	4489
920.157	4481
920.267	4710
920.378	4554
920.488	4478
920.598	4725
920.708	4885
920.818	4771
920.928	4736
921.038	4949
921.148	4934
921.258	4599
921.368	4596
921.477	4451
921.587	4470
921.697	4375
921.806	4546
921.916	4459
922.025	4295
922.134	4257
922.244	4246
922.353	4329
922.462	4147
922.571	4166
922.68	3983
922.789	3964
922.898	4071
923.007	4029
923.116	4116
923.224	4086
923.333	4063
923.442	4059
923.55	4032
923.659	4093
923.767	4116
923.876	4063
923.984	4139
924.092	3987
924.201	4124
924.309	4097
924.417	4124
924.525	4059
924.633	4128
924.741	5045
924.849	3945
924.956	4154
925.064	3953
925.172	3869
925.279	3960
925.387	4013
925.494	4036
925.602	4238
925.709	4181
925.816	4044
925.924	4112
926.031	4207
926.138	4169
926.245	4223
926.352	4074
926.459	4268
926.566	4276
926.673	4185
926.779	4040
926.886	4124
926.993	3983
927.099	3960
927.206	3972
927.312	3953
927.419	4036
927.525	3998
927.631	4071
927.737	3941
927.843	3953
927.95	3827
928.056	3972
928.162	3975
928.267	4093
928.373	4668
928.479	4124
928.585	3880
928.69	4017
928.796	4112
928.901	3991
929.007	3911
929.112	4017
929.218	4013
929.323	3960
929.428	3953
929.533	4128
929.638	3896
929.743	4013
929.848	4029
929.953	4040
930.058	3956
930.163	3797
930.267	3804
930.372	4002
930.477	3812
930.581	4120
930.685	3934
930.79	3846
930.894	3831
930.998	3861
931.103	4055
931.207	3720
931.311	3663
931.415	3686
931.519	3568
931.623	3496
