Data from test_V78500241_551.txt Node
Date: Fri Mar 25 16:52:50 CST 2022
User: usil
Spectrometer: V785-0024
Trigger mode: 0
Integration Time (sec): 4.000000E-1
Scans to average: 1
Nonlinearity correction enabled: false
Boxcar width: 0
Storing dark spectrum: false
XAxis mode: Wavelengths
Number of Pixels in Spectrum: 1024
>>>>>Begin Spectral Data<<<<<
801.071	8012
801.214	8020
801.356	7898
801.499	7769
801.641	7814
801.783	7845
801.926	7963
802.068	7959
802.211	8020
802.353	7989
802.496	7898
802.638	7959
802.78	7963
802.923	7906
803.065	7833
803.208	7849
803.35	7928
803.492	8046
803.635	8149
803.777	8001
803.919	8115
804.061	8408
804.204	8142
804.346	7978
804.488	7944
804.63	8039
804.773	8031
804.915	8046
805.057	8301
805.199	8142
805.341	8305
805.483	8317
805.626	8142
805.768	8039
805.91	8187
806.052	8183
806.194	8031
806.336	8256
806.478	8103
806.62	8073
806.762	8172
806.904	8263
807.046	8454
807.188	8320
807.33	8267
807.472	8309
807.614	8202
807.756	8130
807.898	7993
808.04	7837
808.182	7947
808.324	7940
808.465	7826
808.607	8043
808.749	8088
808.891	8218
809.033	8248
809.174	8187
809.316	8107
809.458	8039
809.6	7993
809.741	7989
809.883	8001
810.025	8050
810.166	8027
810.308	8012
810.45	8012
810.591	7890
810.733	7734
810.875	7655
811.016	7464
811.158	7495
811.299	7616
811.441	7750
811.582	7742
811.724	7578
811.865	7559
812.007	7601
812.148	7559
812.29	7674
812.431	7727
812.573	7826
812.714	7970
812.855	8115
812.997	8298
813.138	8385
813.279	8271
813.421	8172
813.562	8050
813.703	7913
813.845	7826
813.986	7529
814.127	7343
814.268	7312
814.41	7274
814.551	7179
814.692	7107
814.833	7114
814.974	7088
815.115	7072
815.256	6985
815.397	6897
815.539	6973
815.68	6848
815.821	6837
815.962	6863
816.103	6833
816.244	6703
816.385	6597
816.526	6631
816.666	6513
816.807	6273
816.948	6452
817.089	6456
817.23	6414
817.371	6319
817.512	6384
817.653	6422
817.793	6311
817.934	6410
818.075	6471
818.216	6407
818.356	6399
818.497	6228
818.638	6106
818.778	6140
818.919	6148
819.06	6129
819.2	6296
819.341	6258
819.481	6273
819.622	6521
819.762	6745
819.903	6715
820.043	6597
820.184	6563
820.324	6509
820.465	6589
820.605	6604
820.746	6658
820.886	6494
821.026	6658
821.167	6658
821.307	6806
821.447	6760
821.588	6627
821.728	6582
821.868	6483
822.008	6273
822.149	6331
822.289	6334
822.429	6144
822.569	6060
822.709	6106
822.849	5889
822.99	5851
823.13	5942
823.27	5946
823.41	5779
823.55	5767
823.69	5775
823.83	5794
823.97	5661
824.11	5482
824.25	5516
824.389	5562
824.529	5585
824.669	5505
824.809	5608
824.949	5672
825.089	5577
825.228	5577
825.368	5353
825.508	5296
825.648	5341
825.787	5387
825.927	5429
826.067	5315
826.206	5284
826.346	5364
826.485	5387
826.625	5402
826.765	5509
826.904	5448
827.044	5284
827.183	5216
827.323	5124
827.462	5273
827.601	5155
827.741	5189
827.88	5223
828.02	5113
828.159	5258
828.298	5208
828.437	5341
828.577	5280
828.716	5467
828.855	5315
828.994	5136
829.134	5136
829.273	5132
829.412	5060
829.551	5071
829.69	5147
829.829	5223
829.968	5372
830.107	5258
830.246	5292
830.385	5181
830.524	5098
830.663	5056
830.802	4972
830.941	4843
831.08	4877
831.219	4972
831.357	4968
831.496	5162
831.635	4930
831.774	4820
831.913	4854
832.051	4694
832.19	4733
832.329	4850
832.467	4687
832.606	4618
832.744	4736
832.883	4714
833.022	4702
833.16	4771
833.299	4824
833.437	4839
833.576	4835
833.714	4801
833.852	4866
833.991	4915
834.129	4991
834.267	4976
834.406	4870
834.544	4972
834.682	4942
834.821	4915
834.959	5098
835.097	4961
835.235	5143
835.373	5079
835.511	5090
835.65	5033
835.788	5014
835.926	4847
836.064	4862
836.202	4881
836.34	5159
836.478	5170
836.615	5079
836.753	5193
836.891	5231
837.029	5223
837.167	5162
837.305	5121
837.443	5143
837.58	5041
837.718	5189
837.856	5174
837.993	5193
838.131	5242
838.269	5208
838.406	5220
838.544	5147
838.681	5041
838.819	4991
838.956	4866
839.094	4850
839.231	4984
839.369	5075
839.506	5395
839.643	5216
839.781	5029
839.918	5052
840.055	5060
840.193	5075
840.33	5105
840.467	5121
840.604	5208
840.742	5391
840.879	5098
841.016	5056
841.153	5143
841.29	5368
841.427	5315
841.564	5280
841.701	5360
841.838	5307
841.975	5178
842.112	5258
842.249	5109
842.385	5140
842.522	5288
842.659	5159
842.796	5124
842.933	5220
843.069	5155
843.206	5159
843.343	5334
843.479	5220
843.616	5246
843.752	5056
843.889	4999
844.025	5220
844.162	5045
844.298	5197
844.435	5056
844.571	5079
844.708	5181
844.844	5250
844.98	5292
845.117	5242
845.253	5143
845.389	5018
845.525	5151
845.661	5117
845.798	4976
845.934	5132
846.07	5041
846.206	5151
846.342	5280
846.478	5181
846.614	4946
846.75	4930
846.886	4885
847.022	5113
847.158	5025
847.294	5025
847.429	5083
847.565	5014
847.701	5280
847.837	4824
847.972	4812
848.108	4957
848.244	4919
848.379	4759
848.515	4691
848.65	4641
848.786	4736
848.921	4763
849.057	4847
849.192	4904
849.328	4797
849.463	4793
849.598	4771
849.734	4714
849.869	4649
850.004	4580
850.14	4710
850.275	4611
850.41	4519
850.545	4565
850.68	4554
850.815	4634
850.95	4596
851.085	4828
851.22	4725
851.355	4641
851.49	4622
851.625	4622
851.76	4622
851.895	4565
852.03	4527
852.165	4653
852.299	4725
852.434	4771
852.569	4736
852.703	4786
852.838	4824
852.973	4908
853.107	4961
853.242	4736
853.376	4679
853.511	4561
853.645	4641
853.78	4812
853.914	4706
854.048	4683
854.183	4653
854.317	4698
854.451	4889
854.585	4729
854.72	4622
854.854	4744
854.988	4607
855.122	4687
855.256	4531
855.39	4687
855.524	4824
855.658	4778
855.792	4714
855.926	4759
856.06	4782
856.194	4801
856.327	4691
856.461	4691
856.595	4664
856.729	4672
856.862	4759
856.996	4710
857.13	4759
857.263	4820
857.397	4839
857.53	4698
857.664	4763
857.797	4778
857.931	4839
858.064	4744
858.197	4782
858.331	4706
858.464	4618
858.597	4565
858.731	4679
858.864	4691
858.997	4660
859.13	4721
859.263	4736
859.396	4725
859.529	4596
859.662	4626
859.795	4531
859.928	4683
860.061	4778
860.194	4824
860.327	4660
860.46	4622
860.592	4717
860.725	4782
860.858	4763
860.99	4630
861.123	4542
861.256	4618
861.388	4683
861.521	5467
861.653	4516
861.786	4485
861.918	4489
862.05	4512
862.183	4565
862.315	4653
862.447	4653
862.58	4561
862.712	4417
862.844	4352
862.976	4497
863.108	4493
863.24	4908
863.372	4394
863.504	4466
863.636	4443
863.768	4558
863.9	4451
864.032	4386
864.164	4466
864.296	4481
864.428	4538
864.559	4538
864.691	4565
864.823	4500
864.954	4542
865.086	4542
865.217	4466
865.349	4432
865.48	4493
865.612	4504
865.743	4710
865.875	4500
866.006	4417
866.137	4489
866.269	4500
866.4	4436
866.531	4466
866.662	4447
866.793	4451
866.924	4405
867.055	4500
867.186	4474
867.317	4470
867.448	4424
867.579	4447
867.71	4466
867.841	4462
867.972	4462
868.103	4489
868.233	4508
868.364	4432
868.495	4500
868.625	4675
868.756	4820
868.886	4596
869.017	4615
869.147	4805
869.278	4809
869.408	4660
869.539	4626
869.669	4763
869.799	4729
869.929	4790
870.06	4748
870.19	4976
870.32	4934
870.45	4968
870.58	5083
870.71	5067
870.84	5143
870.97	4961
871.1	4961
871.23	5216
871.36	5105
871.489	5056
871.619	5098
871.749	5098
871.879	5121
872.008	5174
872.138	5143
872.267	5025
872.397	4927
872.526	4790
872.656	4729
872.785	4885
872.915	4965
873.044	5079
873.173	4957
873.303	4991
873.432	4957
873.561	4999
873.69	4873
873.819	4949
873.948	4919
874.077	4847
874.206	4729
874.335	4854
874.464	4961
874.593	5143
874.722	4957
874.851	5147
874.979	5132
875.108	5067
875.237	4915
875.365	4908
875.494	4938
875.623	5041
875.751	4839
875.88	4885
876.008	5022
876.136	5064
876.265	5258
876.393	5337
876.521	5284
876.65	5284
876.778	5147
876.906	5128
877.034	5041
877.162	5075
877.29	5018
877.418	5079
877.546	5060
877.674	5064
877.802	5083
877.93	5010
878.058	4991
878.185	4953
878.313	5014
878.441	5003
878.568	4835
878.696	4930
878.824	5018
878.951	5025
879.079	5185
879.206	5330
879.333	5181
879.461	5022
879.588	5025
879.715	5128
879.842	5280
879.97	5014
880.097	4831
880.224	4755
880.351	4835
880.478	4828
880.605	4820
880.732	4816
880.859	5056
880.986	4930
881.112	4949
881.239	4812
881.366	4717
881.493	4592
881.619	4637
881.746	4630
881.872	4668
881.999	4653
882.125	4714
882.252	4850
882.378	4866
882.505	4999
882.631	4809
882.757	4755
882.883	4790
883.01	4797
883.136	4702
883.262	4645
883.388	4664
883.514	4881
883.64	4881
883.766	4790
883.892	4710
884.018	4729
884.143	4942
884.269	5037
884.395	4645
884.52	4599
884.646	4721
884.772	4668
884.897	4588
885.023	4717
885.148	4816
885.274	4919
885.399	4809
885.524	4767
885.65	4725
885.775	4767
885.9	4717
886.025	4892
886.15	4839
886.275	4759
886.4	4679
886.525	4759
886.65	4752
886.775	4733
886.9	4942
887.025	5029
887.149	4862
887.274	4691
887.399	4622
887.523	4664
887.648	4615
887.773	4634
887.897	4782
888.021	4850
888.146	4748
888.27	4877
888.395	4908
888.519	4847
888.643	4752
888.767	4892
888.891	4706
889.015	4622
889.139	4675
889.263	4645
889.387	4763
889.511	4968
889.635	4866
889.759	4679
889.883	4672
890.006	4736
890.13	4896
890.254	4656
890.377	4736
890.501	4584
890.624	4535
890.748	4649
890.871	4531
890.995	4466
891.118	4390
891.241	4550
891.364	4542
891.488	4653
891.611	4508
891.734	4588
891.857	4603
891.98	4592
892.103	4729
892.226	4558
892.349	4561
892.471	4432
892.594	4577
892.717	4565
892.839	4637
892.962	4615
893.085	4653
893.207	4656
893.33	4516
893.452	4538
893.575	4675
893.697	4637
893.819	4835
893.941	4847
894.064	4774
894.186	4565
894.308	4630
894.43	4740
894.552	4885
894.674	4763
894.796	4538
894.918	4611
895.04	4618
895.161	4755
895.283	4637
895.405	4573
895.526	4653
895.648	4710
895.769	4679
895.891	4710
896.012	4721
896.134	4729
896.255	4668
896.376	4691
896.498	4694
896.619	4679
896.74	4634
896.861	4626
896.982	4980
897.103	5132
897.224	4835
897.345	4820
897.466	4683
897.587	4744
897.708	4892
897.828	4763
897.949	4706
898.07	4622
898.19	4683
898.311	4824
898.431	4714
898.552	4714
898.672	4870
898.792	4858
898.913	4782
899.033	4607
899.153	4497
899.273	4481
899.393	4519
899.513	4573
899.633	4573
899.753	4577
899.873	4489
899.993	4554
900.113	4531
900.232	4596
900.352	4554
900.472	4489
900.591	4409
900.711	4470
900.83	4478
900.95	4596
901.069	4683
901.189	4561
901.308	4421
901.427	4310
901.546	4470
901.665	4466
901.784	4527
901.904	4447
902.023	4318
902.141	4230
902.26	4173
902.379	4352
902.498	4265
902.617	4219
902.735	4375
902.854	4436
902.973	4367
903.091	4211
903.21	4272
903.328	4303
903.446	4310
903.565	4310
903.683	4417
903.801	4318
903.919	4428
904.038	4470
904.156	4318
904.274	4481
904.392	4417
904.51	4474
904.627	4497
904.745	4588
904.863	4672
904.981	4383
905.098	4344
905.216	4371
905.334	4466
905.451	4462
905.569	4500
905.686	4573
905.803	4546
905.921	4462
906.038	4546
906.155	4504
906.272	4409
906.389	4512
906.506	4390
906.623	4409
906.74	4421
906.857	4322
906.974	4398
907.091	4611
907.208	4706
907.324	4584
907.441	4500
907.557	4413
907.674	4390
907.79	4322
907.907	4417
908.023	4489
908.139	4497
908.256	4485
908.372	4493
908.488	4459
908.604	4394
908.72	4322
908.836	4421
908.952	4383
909.068	4443
909.184	4546
909.3	4455
909.415	4618
909.531	4558
909.647	4341
909.762	4409
909.878	4318
909.993	4455
910.108	4405
910.224	4424
910.339	4531
910.454	4421
910.57	4402
910.685	4287
910.8	4672
910.915	4664
911.03	4527
911.145	4352
911.259	4333
911.374	4390
911.489	4367
911.604	4318
911.718	4204
911.833	4257
911.947	4147
912.062	4051
912.176	4249
912.291	4249
912.405	4261
912.519	4459
912.633	4531
912.748	4398
912.862	4337
912.976	4268
913.09	4071
913.204	4196
913.318	4249
913.431	4424
913.545	4386
913.659	4440
913.772	4352
913.886	4280
914	4246
914.113	4386
914.226	4481
914.34	4341
914.453	4265
914.566	4394
914.68	4360
914.793	4367
914.906	4147
915.019	4150
915.132	4071
915.245	4204
915.358	4257
915.47	4280
915.583	4230
915.696	4348
915.809	4440
915.921	4428
916.034	4230
916.146	4242
916.259	4227
916.371	4405
916.483	4360
916.595	4287
916.708	4341
916.82	4348
916.932	4322
917.044	4318
917.156	4325
917.268	4238
917.38	4322
917.491	4318
917.603	4375
917.715	4398
917.826	4424
917.938	4360
918.049	4268
918.161	4390
918.272	4554
918.384	4527
918.495	4417
918.606	4284
918.717	4291
918.828	4333
918.939	4360
919.05	4265
919.161	4299
919.272	4139
919.383	4253
919.494	4481
919.604	4656
919.715	4402
919.826	4398
919.936	4417
920.047	4546
920.157	4504
920.267	4717
920.378	4535
920.488	4569
920.598	4809
920.708	4934
920.818	4786
920.928	4752
921.038	4946
921.148	4968
921.258	4664
921.368	4615
921.477	4500
921.587	4466
921.697	4413
921.806	4596
921.916	4466
922.025	4261
922.134	4306
922.244	4249
922.353	4363
922.462	4185
922.571	4173
922.68	4044
922.789	4010
922.898	4090
923.007	4017
923.116	4158
923.224	4093
923.333	4120
923.442	4010
923.55	4051
923.659	4082
923.767	4112
923.876	4040
923.984	4177
924.092	4006
924.201	4112
924.309	4147
924.417	4196
924.525	4135
924.633	4169
924.741	5109
924.849	3994
924.956	4147
925.064	3972
925.172	3960
925.279	4013
925.387	4082
925.494	4063
925.602	4223
925.709	4158
925.816	4147
925.924	4204
926.031	4284
926.138	4223
926.245	4268
926.352	4139
926.459	4337
926.566	4386
926.673	4215
926.779	4135
926.886	4131
926.993	4010
927.099	4017
927.206	3987
927.312	3998
927.419	4128
927.525	4082
927.631	4143
927.737	4059
927.843	3964
927.95	3873
928.056	3987
928.162	4063
928.267	4128
928.373	4683
928.479	4223
928.585	3945
928.69	4048
928.796	4086
928.901	4025
929.007	3922
929.112	4071
929.218	4017
929.323	3991
929.428	3998
929.533	4154
929.638	3960
929.743	4006
929.848	4059
929.953	4013
930.058	3956
930.163	3797
930.267	3873
930.372	4021
930.477	3899
930.581	4139
930.685	3991
930.79	3884
930.894	3903
930.998	3892
931.103	4074
931.207	3766
931.311	3751
931.415	3713
931.519	3553
931.623	3591
