Data from test_V78500241_2443.txt Node
Date: Fri Mar 25 17:05:59 CST 2022
User: usil
Spectrometer: V785-0024
Trigger mode: 0
Integration Time (sec): 4.000000E-1
Scans to average: 1
Nonlinearity correction enabled: false
Boxcar width: 0
Storing dark spectrum: false
XAxis mode: Wavelengths
Number of Pixels in Spectrum: 1024
>>>>>Begin Spectral Data<<<<<
801.071	8020
801.214	8001
801.356	7890
801.499	7803
801.641	7826
801.783	7849
801.926	7921
802.068	7906
802.211	7997
802.353	7997
802.496	7822
802.638	7856
802.78	7917
802.923	7928
803.065	7841
803.208	7871
803.35	7947
803.492	8081
803.635	8244
803.777	8016
803.919	8115
804.061	8461
804.204	8187
804.346	8065
804.488	7989
804.63	8065
804.773	8005
804.915	8145
805.057	8294
805.199	8126
805.341	8145
805.483	8237
805.626	8248
805.768	8202
805.91	8138
806.052	8225
806.194	8138
806.336	8263
806.478	8100
806.62	8142
806.762	8161
806.904	8267
807.046	8499
807.188	8381
807.33	8339
807.472	8358
807.614	8172
807.756	8240
807.898	8096
808.04	7917
808.182	7936
808.324	7917
808.465	7932
808.607	8172
808.749	8126
808.891	8240
809.033	8305
809.174	8225
809.316	8088
809.458	8134
809.6	8050
809.741	8096
809.883	8024
810.025	8126
810.166	8081
810.308	8012
810.45	8027
810.591	7879
810.733	7780
810.875	7715
811.016	7518
811.158	7491
811.299	7639
811.441	7746
811.582	7689
811.724	7636
811.865	7533
812.007	7613
812.148	7658
812.29	7685
812.431	7803
812.573	7932
812.714	8058
812.855	8191
812.997	8252
813.138	8389
813.279	8202
813.421	8168
813.562	7993
813.703	7856
813.845	7689
813.986	7483
814.127	7282
814.268	7270
814.41	7247
814.551	7236
814.692	7259
814.833	7198
814.974	7114
815.115	7137
815.256	6993
815.397	6973
815.539	6993
815.68	6848
815.821	6844
815.962	6894
816.103	6890
816.244	6749
816.385	6604
816.526	6654
816.666	6563
816.807	6407
816.948	6490
817.089	6532
817.23	6494
817.371	6445
817.512	6429
817.653	6445
817.793	6403
817.934	6422
818.075	6532
818.216	6448
818.356	6445
818.497	6289
818.638	6175
818.778	6232
818.919	6190
819.06	6175
819.2	6350
819.341	6350
819.481	6391
819.622	6525
819.762	6753
819.903	6730
820.043	6627
820.184	6642
820.324	6582
820.465	6776
820.605	6741
820.746	6612
820.886	6597
821.026	6677
821.167	6791
821.307	6753
821.447	6829
821.588	6688
821.728	6589
821.868	6506
822.008	6376
822.149	6369
822.289	6452
822.429	6239
822.569	6159
822.709	6121
822.849	5961
822.99	5977
823.13	5984
823.27	5980
823.41	5844
823.55	5794
823.69	5760
823.83	5840
823.97	5653
824.11	5566
824.25	5501
824.389	5543
824.529	5596
824.669	5581
824.809	5707
824.949	5699
825.089	5665
825.228	5638
825.368	5406
825.508	5357
825.648	5372
825.787	5379
825.927	5337
826.067	5376
826.206	5269
826.346	5440
826.485	5425
826.625	5440
826.765	5543
826.904	5486
827.044	5280
827.183	5250
827.323	5147
827.462	5265
827.601	5231
827.741	5242
827.88	5250
828.02	5113
828.159	5208
828.298	5303
828.437	5372
828.577	5334
828.716	5520
828.855	5414
828.994	5239
829.134	5170
829.273	5181
829.412	5143
829.551	5181
829.69	5159
829.829	5261
829.968	5421
830.107	5299
830.246	5296
830.385	5151
830.524	5166
830.663	5109
830.802	4976
830.941	4892
831.08	4908
831.219	5064
831.357	5018
831.496	5174
831.635	4968
831.774	4831
831.913	4908
832.051	4755
832.19	4778
832.329	4877
832.467	4759
832.606	4691
832.744	4748
832.883	4763
833.022	4748
833.16	4809
833.299	4816
833.437	4885
833.576	4870
833.714	4847
833.852	4881
833.991	4968
834.129	4987
834.267	4942
834.406	4923
834.544	4965
834.682	4976
834.821	4991
834.959	5159
835.097	5067
835.235	5166
835.373	5086
835.511	5105
835.65	5048
835.788	5014
835.926	4896
836.064	4927
836.202	4927
836.34	5193
836.478	5242
836.615	5136
836.753	5250
836.891	5265
837.029	5288
837.167	5201
837.305	5223
837.443	5197
837.58	5132
837.718	5231
837.856	5189
837.993	5162
838.131	5235
838.269	5162
838.406	5269
838.544	5197
838.681	5071
838.819	5064
838.956	4930
839.094	4911
839.231	5033
839.369	5094
839.506	5474
839.643	5364
839.781	5105
839.918	5041
840.055	5128
840.193	5117
840.33	5151
840.467	5162
840.604	5231
840.742	5444
840.879	5090
841.016	5086
841.153	5166
841.29	5417
841.427	5368
841.564	5303
841.701	5379
841.838	5235
841.975	5261
842.112	5315
842.249	5178
842.385	5162
842.522	5360
842.659	5166
842.796	5140
842.933	5242
843.069	5181
843.206	5132
843.343	5345
843.479	5242
843.616	5334
843.752	5041
843.889	5029
844.025	5258
844.162	5109
844.298	5223
844.435	5113
844.571	5075
844.708	5239
844.844	5318
844.98	5376
845.117	5345
845.253	5136
845.389	5094
845.525	5155
845.661	5147
845.798	5064
845.934	5162
846.07	5105
846.206	5231
846.342	5273
846.478	5155
846.614	5022
846.75	5010
846.886	4976
847.022	5132
847.158	5045
847.294	5109
847.429	5124
847.565	5124
847.701	5318
847.837	4866
847.972	4847
848.108	4980
848.244	5037
848.379	4839
848.515	4733
848.65	4706
848.786	4774
848.921	4790
849.057	4927
849.192	4919
849.328	4820
849.463	4805
849.598	4782
849.734	4748
849.869	4714
850.004	4675
850.14	4710
850.275	4622
850.41	4508
850.545	4584
850.68	4645
850.815	4630
850.95	4687
851.085	4870
851.22	4744
851.355	4668
851.49	4592
851.625	4733
851.76	4710
851.895	4569
852.03	4527
852.165	4672
852.299	4752
852.434	4767
852.569	4790
852.703	4805
852.838	4904
852.973	4934
853.107	4923
853.242	4752
853.376	4649
853.511	4558
853.645	4626
853.78	4782
853.914	4698
854.048	4679
854.183	4653
854.317	4717
854.451	4900
854.585	4691
854.72	4653
854.854	4786
854.988	4656
855.122	4698
855.256	4538
855.39	4679
855.524	4774
855.658	4744
855.792	4691
855.926	4755
856.06	4771
856.194	4805
856.327	4733
856.461	4580
856.595	4645
856.729	4599
856.862	4771
856.996	4691
857.13	4748
857.263	4759
857.397	4831
857.53	4691
857.664	4752
857.797	4736
857.931	4790
858.064	4683
858.197	4736
858.331	4672
858.464	4618
858.597	4493
858.731	4634
858.864	4615
858.997	4611
859.13	4672
859.263	4698
859.396	4683
859.529	4577
859.662	4611
859.795	4577
859.928	4702
860.061	4725
860.194	4774
860.327	4630
860.46	4561
860.592	4725
860.725	4721
860.858	4717
860.99	4615
861.123	4554
861.256	4516
861.388	4611
861.521	5307
861.653	4474
861.786	4455
861.918	4550
862.05	4523
862.183	4527
862.315	4649
862.447	4725
862.58	4542
862.712	4398
862.844	4360
862.976	4504
863.108	4497
863.24	4767
863.372	4333
863.504	4421
863.636	4413
863.768	4546
863.9	4440
864.032	4409
864.164	4447
864.296	4462
864.428	4546
864.559	4584
864.691	4588
864.823	4523
864.954	4497
865.086	4500
865.217	4459
865.349	4383
865.48	4462
865.612	4527
865.743	4626
865.875	4485
866.006	4470
866.137	4455
866.269	4478
866.4	4371
866.531	4459
866.662	4459
866.793	4443
866.924	4386
867.055	4519
867.186	4424
867.317	4443
867.448	4371
867.579	4421
867.71	4379
867.841	4367
867.972	4451
868.103	4516
868.233	4436
868.364	4451
868.495	4470
868.625	4653
868.756	4717
868.886	4580
869.017	4626
869.147	4805
869.278	4809
869.408	4634
869.539	4611
869.669	4759
869.799	4660
869.929	4778
870.06	4774
870.19	4968
870.32	4946
870.45	4949
870.58	5045
870.71	5075
870.84	5094
870.97	4991
871.1	4961
871.23	5155
871.36	5155
871.489	5014
871.619	5075
871.749	5147
871.879	5140
872.008	5155
872.138	5052
872.267	5006
872.397	4866
872.526	4805
872.656	4740
872.785	4824
872.915	4934
873.044	5025
873.173	4946
873.303	4923
873.432	4957
873.561	4968
873.69	4900
873.819	4850
873.948	4946
874.077	4881
874.206	4809
874.335	4786
874.464	4908
874.593	5045
874.722	4984
874.851	5174
874.979	5056
875.108	5025
875.237	4896
875.365	4904
875.494	4904
875.623	5006
875.751	4858
875.88	4870
876.008	4984
876.136	5010
876.265	5193
876.393	5318
876.521	5250
876.65	5242
876.778	5208
876.906	5064
877.034	5045
877.162	5132
877.29	5037
877.418	5090
877.546	5022
877.674	5067
877.802	5048
877.93	5052
878.058	4980
878.185	4911
878.313	4946
878.441	4976
878.568	4820
878.696	4835
878.824	4957
878.951	5041
879.079	5132
879.206	5315
879.333	5105
879.461	4991
879.588	5010
879.715	5140
879.842	5223
879.97	5037
880.097	4824
880.224	4733
880.351	4805
880.478	4843
880.605	4786
880.732	4831
880.859	5075
880.986	4873
881.112	4911
881.239	4805
881.366	4649
881.493	4641
881.619	4615
881.746	4649
881.872	4683
881.999	4660
882.125	4630
882.252	4771
882.378	4843
882.505	4942
882.631	4793
882.757	4641
882.883	4767
883.01	4740
883.136	4668
883.262	4641
883.388	4649
883.514	4816
883.64	4858
883.766	4862
883.892	4706
884.018	4744
884.143	4908
884.269	5064
884.395	4637
884.52	4668
884.646	4664
884.772	4588
884.897	4618
885.023	4664
885.148	4797
885.274	4873
885.399	4812
885.524	4744
885.65	4683
885.775	4717
885.9	4721
886.025	4850
886.15	4725
886.275	4714
886.4	4630
886.525	4744
886.65	4733
886.775	4664
886.9	4908
887.025	5045
887.149	4801
887.274	4668
887.399	4554
887.523	4637
887.648	4577
887.773	4615
887.897	4771
888.021	4763
888.146	4656
888.27	4839
888.395	4942
888.519	4820
888.643	4843
888.767	4778
888.891	4694
889.015	4641
889.139	4687
889.263	4592
889.387	4744
889.511	4877
889.635	4797
889.759	4630
889.883	4649
890.006	4710
890.13	4797
890.254	4596
890.377	4668
890.501	4504
890.624	4550
890.748	4649
890.871	4478
890.995	4466
891.118	4409
891.241	4497
891.364	4603
891.488	4622
891.611	4512
891.734	4550
891.857	4637
891.98	4558
892.103	4649
892.226	4615
892.349	4523
892.471	4413
892.594	4512
892.717	4615
892.839	4569
892.962	4618
893.085	4668
893.207	4634
893.33	4447
893.452	4554
893.575	4694
893.697	4603
893.819	4752
893.941	4828
894.064	4778
894.186	4588
894.308	4558
894.43	4733
894.552	4812
894.674	4740
894.796	4580
894.918	4588
895.04	4531
895.161	4714
895.283	4660
895.405	4577
895.526	4656
895.648	4687
895.769	4672
895.891	4672
896.012	4714
896.134	4717
896.255	4653
896.376	4649
896.498	4649
896.619	4656
896.74	4618
896.861	4626
896.982	4942
897.103	5029
897.224	4828
897.345	4755
897.466	4656
897.587	4698
897.708	4843
897.828	4778
897.949	4714
898.07	4546
898.19	4596
898.311	4847
898.431	4714
898.552	4702
898.672	4812
898.792	4774
898.913	4752
899.033	4641
899.153	4504
899.273	4409
899.393	4500
899.513	4596
899.633	4504
899.753	4599
899.873	4485
899.993	4577
900.113	4516
900.232	4599
900.352	4546
900.472	4523
900.591	4421
900.711	4474
900.83	4409
900.95	4641
901.069	4683
901.189	4481
901.308	4371
901.427	4318
901.546	4398
901.665	4474
901.784	4569
901.904	4375
902.023	4303
902.141	4169
902.26	4150
902.379	4287
902.498	4276
902.617	4238
902.735	4398
902.854	4402
902.973	4356
903.091	4219
903.21	4204
903.328	4314
903.446	4268
903.565	4230
903.683	4325
903.801	4291
903.919	4360
904.038	4428
904.156	4322
904.274	4462
904.392	4344
904.51	4440
904.627	4447
904.745	4580
904.863	4626
904.981	4421
905.098	4291
905.216	4325
905.334	4478
905.451	4447
905.569	4436
905.686	4523
905.803	4554
905.921	4386
906.038	4577
906.155	4474
906.272	4436
906.389	4436
906.506	4379
906.623	4405
906.74	4363
906.857	4299
906.974	4405
907.091	4565
907.208	4664
907.324	4603
907.441	4481
907.557	4322
907.674	4356
907.79	4341
907.907	4383
908.023	4493
908.139	4436
908.256	4481
908.372	4466
908.488	4485
908.604	4375
908.72	4295
908.836	4375
908.952	4360
909.068	4466
909.184	4565
909.3	4455
909.415	4603
909.531	4558
909.647	4386
909.762	4363
909.878	4360
909.993	4394
910.108	4390
910.224	4447
910.339	4508
910.454	4394
910.57	4421
910.685	4341
910.8	4672
910.915	4611
911.03	4546
911.145	4306
911.259	4314
911.374	4421
911.489	4310
911.604	4303
911.718	4162
911.833	4185
911.947	4135
912.062	4063
912.176	4173
912.291	4242
912.405	4223
912.519	4462
912.633	4455
912.748	4352
912.862	4329
912.976	4200
913.09	4093
913.204	4192
913.318	4257
913.431	4363
913.545	4367
913.659	4455
913.772	4348
913.886	4242
914	4238
914.113	4375
914.226	4459
914.34	4424
914.453	4223
914.566	4409
914.68	4284
914.793	4341
914.906	4150
915.019	4074
915.132	4074
915.245	4162
915.358	4196
915.47	4177
915.583	4272
915.696	4276
915.809	4447
915.921	4413
916.034	4299
916.146	4276
916.259	4207
916.371	4379
916.483	4325
916.595	4272
916.708	4348
916.82	4325
916.932	4318
917.044	4318
917.156	4356
917.268	4215
917.38	4295
917.491	4268
917.603	4344
917.715	4447
917.826	4428
917.938	4348
918.049	4253
918.161	4386
918.272	4615
918.384	4535
918.495	4451
918.606	4253
918.717	4268
918.828	4333
918.939	4379
919.05	4268
919.161	4348
919.272	4097
919.383	4253
919.494	4417
919.604	4626
919.715	4432
919.826	4363
919.936	4436
920.047	4508
920.157	4470
920.267	4668
920.378	4531
920.488	4504
920.598	4763
920.708	4839
920.818	4740
920.928	4759
921.038	4980
921.148	4873
921.258	4660
921.368	4584
921.477	4485
921.587	4417
921.697	4356
921.806	4554
921.916	4421
922.025	4276
922.134	4337
922.244	4185
922.353	4379
922.462	4162
922.571	4147
922.68	4063
922.789	3994
922.898	4090
923.007	4006
923.116	4086
923.224	4071
923.333	4055
923.442	3972
923.55	3972
923.659	4055
923.767	4105
923.876	4040
923.984	4101
924.092	4002
924.201	4055
924.309	4101
924.417	4128
924.525	4055
924.633	4128
924.741	5067
924.849	3911
924.956	4124
925.064	3964
925.172	3876
925.279	3941
925.387	4074
925.494	4120
925.602	4211
925.709	4215
925.816	4025
925.924	4120
926.031	4188
926.138	4185
926.245	4215
926.352	4139
926.459	4215
926.566	4329
926.673	4162
926.779	4074
926.886	4093
926.993	3983
927.099	3998
927.206	3979
927.312	3922
927.419	4063
927.525	4040
927.631	4086
927.737	3983
927.843	3937
927.95	3873
928.056	3972
928.162	3953
928.267	4021
928.373	4656
928.479	4097
928.585	3911
928.69	4067
928.796	4116
928.901	3983
929.007	3896
929.112	4029
929.218	3972
929.323	3964
929.428	3911
929.533	4124
929.638	3934
929.743	3964
929.848	4078
929.953	3991
930.058	3907
930.163	3778
930.267	3869
930.372	3972
930.477	3827
930.581	4067
930.685	3994
930.79	3827
930.894	3907
930.998	3850
931.103	4006
931.207	3709
931.311	3743
931.415	3667
931.519	3526
931.623	3584
