Data from test_V78500241_1568.txt Node
Date: Fri Mar 25 16:59:54 CST 2022
User: usil
Spectrometer: V785-0024
Trigger mode: 0
Integration Time (sec): 4.000000E-1
Scans to average: 1
Nonlinearity correction enabled: false
Boxcar width: 0
Storing dark spectrum: false
XAxis mode: Wavelengths
Number of Pixels in Spectrum: 1024
>>>>>Begin Spectral Data<<<<<
801.071	7936
801.214	7997
801.356	7849
801.499	7860
801.641	7803
801.783	7837
801.926	7955
802.068	7913
802.211	7986
802.353	8012
802.496	7856
802.638	7841
802.78	7932
802.923	7845
803.065	7860
803.208	7826
803.35	7906
803.492	8088
803.635	8153
803.777	8005
803.919	8069
804.061	8469
804.204	8031
804.346	8001
804.488	7932
804.63	8073
804.773	8069
804.915	8100
805.057	8317
805.199	8145
805.341	8221
805.483	8259
805.626	8142
805.768	8172
805.91	8130
806.052	8233
806.194	8050
806.336	8271
806.478	8081
806.62	8020
806.762	8214
806.904	8202
807.046	8503
807.188	8347
807.33	8263
807.472	8252
807.614	8123
807.756	8142
807.898	8046
808.04	7875
808.182	7890
808.324	7856
808.465	7936
808.607	8084
808.749	8081
808.891	8214
809.033	8309
809.174	8248
809.316	8020
809.458	8046
809.6	8005
809.741	8046
809.883	7989
810.025	8077
810.166	8027
810.308	8012
810.45	7986
810.591	7845
810.733	7628
810.875	7609
811.016	7514
811.158	7476
811.299	7586
811.441	7719
811.582	7700
811.724	7575
811.865	7556
812.007	7544
812.148	7563
812.29	7590
812.431	7708
812.573	7856
812.714	7917
812.855	8092
812.997	8176
813.138	8355
813.279	8183
813.421	8092
813.562	8020
813.703	7852
813.845	7750
813.986	7472
814.127	7244
814.268	7285
814.41	7175
814.551	7129
814.692	7255
814.833	7069
814.974	7061
815.115	7129
815.256	7000
815.397	6928
815.539	6973
815.68	6776
815.821	6764
815.962	6871
816.103	6791
816.244	6719
816.385	6635
816.526	6555
816.666	6525
816.807	6338
816.948	6399
817.089	6464
817.23	6350
817.371	6399
817.512	6399
817.653	6384
817.793	6346
817.934	6384
818.075	6448
818.216	6433
818.356	6433
818.497	6235
818.638	6175
818.778	6159
818.919	6144
819.06	6114
819.2	6304
819.341	6277
819.481	6407
819.622	6559
819.762	6700
819.903	6726
820.043	6566
820.184	6544
820.324	6612
820.465	6719
820.605	6692
820.746	6696
820.886	6521
821.026	6612
821.167	6711
821.307	6848
821.447	6726
821.588	6642
821.728	6639
821.868	6460
822.008	6254
822.149	6273
822.289	6353
822.429	6121
822.569	6045
822.709	6083
822.849	5874
822.99	5832
823.13	5965
823.27	5927
823.41	5805
823.55	5779
823.69	5752
823.83	5691
823.97	5661
824.11	5516
824.25	5471
824.389	5554
824.529	5543
824.669	5535
824.809	5657
824.949	5623
825.089	5592
825.228	5570
825.368	5353
825.508	5322
825.648	5345
825.787	5383
825.927	5360
826.067	5288
826.206	5307
826.346	5383
826.485	5406
826.625	5372
826.765	5509
826.904	5452
827.044	5261
827.183	5181
827.323	5181
827.462	5239
827.601	5159
827.741	5181
827.88	5159
828.02	5071
828.159	5204
828.298	5288
828.437	5383
828.577	5269
828.716	5471
828.855	5318
828.994	5193
829.134	5147
829.273	5212
829.412	5121
829.551	5109
829.69	5189
829.829	5227
829.968	5372
830.107	5254
830.246	5231
830.385	5155
830.524	5159
830.663	5067
830.802	4961
830.941	4900
831.08	4896
831.219	4904
831.357	4953
831.496	5181
831.635	4911
831.774	4816
831.913	4847
832.051	4736
832.19	4714
832.329	4824
832.467	4714
832.606	4603
832.744	4714
832.883	4733
833.022	4664
833.16	4774
833.299	4790
833.437	4820
833.576	4778
833.714	4805
833.852	4866
833.991	4835
834.129	4953
834.267	4942
834.406	4873
834.544	5010
834.682	4934
834.821	4949
834.959	5132
835.097	5037
835.235	5117
835.373	5045
835.511	5086
835.65	5033
835.788	5041
835.926	4930
836.064	4873
836.202	4915
836.34	5166
836.478	5189
836.615	5128
836.753	5174
836.891	5307
837.029	5216
837.167	5174
837.305	5094
837.443	5128
837.58	5052
837.718	5216
837.856	5151
837.993	5166
838.131	5185
838.269	5185
838.406	5181
838.544	5174
838.681	5025
838.819	4999
838.956	4850
839.094	4923
839.231	4930
839.369	5041
839.506	5383
839.643	5258
839.781	5083
839.918	4961
840.055	5109
840.193	5121
840.33	5105
840.467	5140
840.604	5170
840.742	5387
840.879	5086
841.016	5067
841.153	5178
841.29	5383
841.427	5353
841.564	5296
841.701	5288
841.838	5261
841.975	5242
842.112	5318
842.249	5090
842.385	5048
842.522	5341
842.659	5223
842.796	5109
842.933	5151
843.069	5124
843.206	5117
843.343	5299
843.479	5220
843.616	5258
843.752	5033
843.889	4999
844.025	5197
844.162	5014
844.298	5197
844.435	5128
844.571	5075
844.708	5201
844.844	5265
844.98	5322
845.117	5250
845.253	5132
845.389	5048
845.525	5174
845.661	5124
845.798	4991
845.934	5056
846.07	5052
846.206	5170
846.342	5292
846.478	5170
846.614	5003
846.75	4995
846.886	4961
847.022	5094
847.158	5010
847.294	5075
847.429	5109
847.565	5037
847.701	5334
847.837	4881
847.972	4767
848.108	4911
848.244	4885
848.379	4748
848.515	4729
848.65	4687
848.786	4774
848.921	4752
849.057	4839
849.192	4877
849.328	4847
849.463	4820
849.598	4771
849.734	4733
849.869	4687
850.004	4656
850.14	4622
850.275	4618
850.41	4478
850.545	4538
850.68	4523
850.815	4611
850.95	4637
851.085	4828
851.22	4744
851.355	4672
851.49	4611
851.625	4630
851.76	4596
851.895	4607
852.03	4459
852.165	4649
852.299	4714
852.434	4763
852.569	4733
852.703	4755
852.838	4816
852.973	4904
853.107	4877
853.242	4710
853.376	4588
853.511	4569
853.645	4611
853.78	4812
853.914	4694
854.048	4675
854.183	4618
854.317	4668
854.451	4843
854.585	4694
854.72	4592
854.854	4736
854.988	4618
855.122	4622
855.256	4504
855.39	4637
855.524	4805
855.658	4721
855.792	4645
855.926	4706
856.06	4744
856.194	4820
856.327	4702
856.461	4615
856.595	4584
856.729	4599
856.862	4752
856.996	4736
857.13	4725
857.263	4729
857.397	4748
857.53	4656
857.664	4691
857.797	4702
857.931	4755
858.064	4702
858.197	4714
858.331	4607
858.464	4573
858.597	4485
858.731	4649
858.864	4592
858.997	4561
859.13	4660
859.263	4626
859.396	4660
859.529	4580
859.662	4538
859.795	4512
859.928	4615
860.061	4771
860.194	4752
860.327	4596
860.46	4565
860.592	4641
860.725	4694
860.858	4683
860.99	4523
861.123	4512
861.256	4546
861.388	4592
861.521	5212
861.653	4485
861.786	4413
861.918	4386
862.05	4447
862.183	4504
862.315	4588
862.447	4645
862.58	4527
862.712	4409
862.844	4341
862.976	4443
863.108	4459
863.24	4740
863.372	4284
863.504	4409
863.636	4390
863.768	4440
863.9	4405
864.032	4367
864.164	4447
864.296	4508
864.428	4470
864.559	4535
864.691	4497
864.823	4561
864.954	4455
865.086	4489
865.217	4443
865.349	4413
865.48	4443
865.612	4447
865.743	4626
865.875	4462
866.006	4379
866.137	4459
866.269	4432
866.4	4386
866.531	4413
866.662	4383
866.793	4341
866.924	4383
867.055	4455
867.186	4432
867.317	4386
867.448	4363
867.579	4390
867.71	4356
867.841	4379
867.972	4443
868.103	4398
868.233	4424
868.364	4424
868.495	4474
868.625	4668
868.756	4702
868.886	4535
869.017	4577
869.147	4706
869.278	4736
869.408	4656
869.539	4603
869.669	4729
869.799	4603
869.929	4729
870.06	4687
870.19	4923
870.32	4904
870.45	4908
870.58	5025
870.71	5102
870.84	5132
870.97	4911
871.1	4908
871.23	5132
871.36	5113
871.489	5029
871.619	5071
871.749	5083
871.879	5102
872.008	5201
872.138	5086
872.267	4965
872.397	4873
872.526	4828
872.656	4767
872.785	4797
872.915	4949
873.044	5037
873.173	4980
873.303	4968
873.432	4923
873.561	4976
873.69	4908
873.819	4908
873.948	4953
874.077	4843
874.206	4801
874.335	4831
874.464	4976
874.593	5052
874.722	4987
874.851	5143
874.979	5102
875.108	5048
875.237	4942
875.365	4946
875.494	4892
875.623	5025
875.751	4850
875.88	4896
876.008	4980
876.136	5067
876.265	5235
876.393	5345
876.521	5265
876.65	5250
876.778	5212
876.906	5121
877.034	5048
877.162	5098
877.29	5029
877.418	5083
877.546	5064
877.674	5094
877.802	5060
877.93	5041
878.058	4965
878.185	4946
878.313	4984
878.441	4965
878.568	4809
878.696	4896
878.824	4995
878.951	5071
879.079	5166
879.206	5357
879.333	5159
879.461	5003
879.588	5056
879.715	5151
879.842	5235
879.97	5083
880.097	4877
880.224	4797
880.351	4839
880.478	4858
880.605	4854
880.732	4824
880.859	5117
880.986	4919
881.112	4946
881.239	4816
881.366	4656
881.493	4607
881.619	4645
881.746	4618
881.872	4679
881.999	4679
882.125	4721
882.252	4793
882.378	4820
882.505	4934
882.631	4843
882.757	4717
882.883	4702
883.01	4809
883.136	4694
883.262	4626
883.388	4618
883.514	4801
883.64	4847
883.766	4778
883.892	4656
884.018	4736
884.143	4934
884.269	5071
884.395	4714
884.52	4634
884.646	4694
884.772	4637
884.897	4573
885.023	4694
885.148	4835
885.274	4881
885.399	4847
885.524	4774
885.65	4736
885.775	4733
885.9	4733
886.025	4797
886.15	4816
886.275	4763
886.4	4717
886.525	4797
886.65	4725
886.775	4717
886.9	4927
887.025	5071
887.149	4862
887.274	4683
887.399	4592
887.523	4626
887.648	4622
887.773	4599
887.897	4812
888.021	4801
888.146	4714
888.27	4820
888.395	4904
888.519	4896
888.643	4858
888.767	4820
888.891	4683
889.015	4634
889.139	4664
889.263	4653
889.387	4733
889.511	4866
889.635	4782
889.759	4656
889.883	4683
890.006	4782
890.13	4873
890.254	4637
890.377	4698
890.501	4573
890.624	4546
890.748	4653
890.871	4516
890.995	4474
891.118	4390
891.241	4561
891.364	4550
891.488	4634
891.611	4523
891.734	4550
891.857	4698
891.98	4546
892.103	4664
892.226	4592
892.349	4565
892.471	4440
892.594	4618
892.717	4596
892.839	4596
892.962	4577
893.085	4683
893.207	4645
893.33	4493
893.452	4512
893.575	4725
893.697	4588
893.819	4797
893.941	4828
894.064	4820
894.186	4569
894.308	4588
894.43	4733
894.552	4835
894.674	4748
894.796	4542
894.918	4649
895.04	4596
895.161	4736
895.283	4687
895.405	4596
895.526	4660
895.648	4736
895.769	4759
895.891	4755
896.012	4759
896.134	4767
896.255	4698
896.376	4641
896.498	4637
896.619	4733
896.74	4653
896.861	4706
896.982	4942
897.103	5102
897.224	4850
897.345	4797
897.466	4687
897.587	4717
897.708	4900
897.828	4801
897.949	4698
898.07	4573
898.19	4656
898.311	4866
898.431	4675
898.552	4771
898.672	4847
898.792	4843
898.913	4759
899.033	4687
899.153	4493
899.273	4466
899.393	4546
899.513	4535
899.633	4538
899.753	4561
899.873	4478
899.993	4630
900.113	4573
900.232	4599
900.352	4550
900.472	4516
900.591	4383
900.711	4512
900.83	4493
900.95	4645
901.069	4752
901.189	4535
901.308	4432
901.427	4348
901.546	4424
901.665	4516
901.784	4508
901.904	4409
902.023	4367
902.141	4192
902.26	4211
902.379	4348
902.498	4261
902.617	4253
902.735	4402
902.854	4409
902.973	4352
903.091	4211
903.21	4272
903.328	4360
903.446	4291
903.565	4291
903.683	4386
903.801	4322
903.919	4379
904.038	4470
904.156	4356
904.274	4451
904.392	4459
904.51	4443
904.627	4485
904.745	4580
904.863	4668
904.981	4386
905.098	4337
905.216	4405
905.334	4443
905.451	4451
905.569	4451
905.686	4577
905.803	4569
905.921	4462
906.038	4542
906.155	4542
906.272	4443
906.389	4489
906.506	4398
906.623	4383
906.74	4405
906.857	4363
906.974	4390
907.091	4569
907.208	4683
907.324	4622
907.441	4523
907.557	4386
907.674	4383
907.79	4360
907.907	4360
908.023	4519
908.139	4573
908.256	4455
908.372	4493
908.488	4447
908.604	4405
908.72	4402
908.836	4436
908.952	4402
909.068	4443
909.184	4634
909.3	4497
909.415	4630
909.531	4573
909.647	4394
909.762	4386
909.878	4383
909.993	4390
910.108	4462
910.224	4421
910.339	4512
910.454	4466
910.57	4352
910.685	4314
910.8	4649
910.915	4611
911.03	4474
911.145	4333
911.259	4352
911.374	4383
911.489	4318
911.604	4333
911.718	4196
911.833	4242
911.947	4131
912.062	4074
912.176	4230
912.291	4230
912.405	4276
912.519	4485
912.633	4527
912.748	4398
912.862	4322
912.976	4234
913.09	4097
913.204	4204
913.318	4306
913.431	4386
913.545	4360
913.659	4428
913.772	4367
913.886	4242
914	4223
914.113	4398
914.226	4466
914.34	4383
914.453	4246
914.566	4432
914.68	4291
914.793	4352
914.906	4177
915.019	4101
915.132	4128
915.245	4192
915.358	4268
915.47	4261
915.583	4284
915.696	4337
915.809	4421
915.921	4459
916.034	4284
916.146	4268
916.259	4257
916.371	4386
916.483	4348
916.595	4272
916.708	4318
916.82	4348
916.932	4371
917.044	4337
917.156	4310
917.268	4242
917.38	4314
917.491	4303
917.603	4394
917.715	4432
917.826	4455
917.938	4356
918.049	4295
918.161	4462
918.272	4554
918.384	4531
918.495	4462
918.606	4325
918.717	4230
918.828	4325
918.939	4409
919.05	4322
919.161	4383
919.272	4135
919.383	4249
919.494	4390
919.604	4645
919.715	4409
919.826	4371
919.936	4405
920.047	4561
920.157	4451
920.267	4714
920.378	4588
920.488	4497
920.598	4736
920.708	4881
920.818	4774
920.928	4759
921.038	4968
921.148	4919
921.258	4656
921.368	4584
921.477	4493
921.587	4455
921.697	4402
921.806	4588
921.916	4390
922.025	4249
922.134	4287
922.244	4253
922.353	4329
922.462	4173
922.571	4101
922.68	4017
922.789	4013
922.898	4067
923.007	4048
923.116	4112
923.224	4101
923.333	4105
923.442	3983
923.55	4013
923.659	4055
923.767	4147
923.876	4013
923.984	4128
924.092	3964
924.201	4036
924.309	4120
924.417	4173
924.525	4059
924.633	4131
924.741	4980
924.849	3926
924.956	4124
925.064	3983
925.172	3972
925.279	3991
925.387	4078
925.494	4029
925.602	4249
925.709	4154
925.816	4044
925.924	4101
926.031	4265
926.138	4173
926.245	4242
926.352	4097
926.459	4276
926.566	4318
926.673	4143
926.779	4048
926.886	4101
926.993	3994
927.099	3975
927.206	3930
927.312	3956
927.419	4112
927.525	4025
927.631	4097
927.737	3991
927.843	3915
927.95	3857
928.056	3934
928.162	3979
928.267	4025
928.373	4580
928.479	4150
928.585	3850
928.69	4051
928.796	4048
928.901	4021
929.007	3846
929.112	4063
929.218	3964
929.323	3979
929.428	3922
929.533	4128
929.638	3896
929.743	3911
929.848	4044
929.953	3945
930.058	3956
930.163	3762
930.267	3835
930.372	3979
930.477	3823
930.581	4090
930.685	3972
930.79	3857
930.894	3876
930.998	3842
931.103	4071
931.207	3743
931.311	3644
931.415	3724
931.519	3511
931.623	3549
