Data from test_V78500241_26.txt Node
Date: Fri Mar 25 16:49:11 CST 2022
User: usil
Spectrometer: V785-0024
Trigger mode: 0
Integration Time (sec): 4.000000E-1
Scans to average: 1
Nonlinearity correction enabled: false
Boxcar width: 0
Storing dark spectrum: false
XAxis mode: Wavelengths
Number of Pixels in Spectrum: 1024
>>>>>Begin Spectral Data<<<<<
801.071	8153
801.214	8111
801.356	7997
801.499	8054
801.641	7894
801.783	7875
801.926	8081
802.068	8001
802.211	8054
802.353	8054
802.496	8020
802.638	7993
802.78	7997
802.923	7967
803.065	7940
803.208	7963
803.35	8050
803.492	8164
803.635	8218
803.777	8001
803.919	8168
804.061	8434
804.204	8271
804.346	8008
804.488	8077
804.63	8180
804.773	8111
804.915	8142
805.057	8298
805.199	8218
805.341	8290
805.483	8336
805.626	8286
805.768	8168
805.91	8229
806.052	8286
806.194	8100
806.336	8275
806.478	8077
806.62	8145
806.762	8233
806.904	8267
807.046	8450
807.188	8408
807.33	8313
807.472	8339
807.614	8153
807.756	8225
807.898	8050
808.04	7974
808.182	7928
808.324	7887
808.465	7970
808.607	8107
808.749	8172
808.891	8240
809.033	8290
809.174	8259
809.316	8096
809.458	8058
809.6	8001
809.741	8046
809.883	8073
810.025	8157
810.166	8134
810.308	8126
810.45	8054
810.591	7932
810.733	7776
810.875	7757
811.016	7605
811.158	7575
811.299	7681
811.441	7814
811.582	7765
811.724	7636
811.865	7677
812.007	7647
812.148	7594
812.29	7677
812.431	7772
812.573	7913
812.714	8081
812.855	8199
812.997	8210
813.138	8389
813.279	8164
813.421	8138
813.562	8119
813.703	7963
813.845	7753
813.986	7514
814.127	7346
814.268	7270
814.41	7301
814.551	7225
814.692	7285
814.833	7152
814.974	7122
815.115	7118
815.256	6970
815.397	6954
815.539	6977
815.68	6928
815.821	6878
815.962	6909
816.103	6840
816.244	6795
816.385	6623
816.526	6711
816.666	6494
816.807	6311
816.948	6528
817.089	6471
817.23	6460
817.371	6429
817.512	6467
817.653	6445
817.793	6422
817.934	6490
818.075	6528
818.216	6460
818.356	6502
818.497	6243
818.638	6182
818.778	6201
818.919	6251
819.06	6182
819.2	6403
819.341	6369
819.481	6467
819.622	6608
819.762	6829
819.903	6768
820.043	6707
820.184	6639
820.324	6662
820.465	6715
820.605	6772
820.746	6639
820.886	6589
821.026	6753
821.167	6753
821.307	6878
821.447	6844
821.588	6741
821.728	6665
821.868	6566
822.008	6384
822.149	6365
822.289	6407
822.429	6228
822.569	6133
822.709	6171
822.849	6007
822.99	5965
823.13	5942
823.27	5977
823.41	5832
823.55	5832
823.69	5851
823.83	5840
823.97	5786
824.11	5577
824.25	5585
824.389	5703
824.529	5707
824.669	5562
824.809	5748
824.949	5733
825.089	5691
825.228	5623
825.368	5463
825.508	5387
825.648	5337
825.787	5410
825.927	5429
826.067	5383
826.206	5315
826.346	5436
826.485	5425
826.625	5433
826.765	5611
826.904	5501
827.044	5288
827.183	5235
827.323	5216
827.462	5307
827.601	5231
827.741	5227
827.88	5265
828.02	5174
828.159	5280
828.298	5368
828.437	5444
828.577	5318
828.716	5535
828.855	5372
828.994	5239
829.134	5201
829.273	5220
829.412	5197
829.551	5166
829.69	5277
829.829	5296
829.968	5448
830.107	5330
830.246	5387
830.385	5197
830.524	5197
830.663	5098
830.802	4987
830.941	4877
831.08	4915
831.219	5052
831.357	5033
831.496	5223
831.635	4957
831.774	4930
831.913	4900
832.051	4752
832.19	4824
832.329	4885
832.467	4714
832.606	4653
832.744	4744
832.883	4812
833.022	4748
833.16	4831
833.299	4858
833.437	4881
833.576	4873
833.714	4904
833.852	4946
833.991	4930
834.129	5014
834.267	4987
834.406	4972
834.544	5041
834.682	5041
834.821	5056
834.959	5181
835.097	4991
835.235	5220
835.373	5124
835.511	5166
835.65	5162
835.788	5060
835.926	4927
836.064	4930
836.202	4965
836.34	5159
836.478	5315
836.615	5140
836.753	5303
836.891	5292
837.029	5284
837.167	5277
837.305	5242
837.443	5208
837.58	5147
837.718	5299
837.856	5235
837.993	5189
838.131	5345
838.269	5254
838.406	5307
838.544	5242
838.681	5090
838.819	5041
838.956	4968
839.094	4930
839.231	4999
839.369	5155
839.506	5429
839.643	5341
839.781	5128
839.918	5067
840.055	5147
840.193	5132
840.33	5204
840.467	5162
840.604	5220
840.742	5467
840.879	5105
841.016	5143
841.153	5181
841.29	5368
841.427	5353
841.564	5406
841.701	5364
841.838	5299
841.975	5315
842.112	5311
842.249	5189
842.385	5117
842.522	5360
842.659	5220
842.796	5216
842.933	5170
843.069	5216
843.206	5185
843.343	5318
843.479	5337
843.616	5292
843.752	5086
843.889	5045
844.025	5265
844.162	5006
844.298	5250
844.435	5136
844.571	5143
844.708	5246
844.844	5360
844.98	5368
845.117	5368
845.253	5181
845.389	5128
845.525	5208
845.661	5201
845.798	5128
845.934	5162
846.07	5124
846.206	5261
846.342	5337
846.478	5250
846.614	5067
846.75	5041
846.886	5029
847.022	5227
847.158	4991
847.294	5098
847.429	5151
847.565	5102
847.701	5349
847.837	4866
847.972	4862
848.108	4984
848.244	5014
848.379	4828
848.515	4801
848.65	4744
848.786	4793
848.921	4843
849.057	4889
849.192	4976
849.328	4809
849.463	4877
849.598	4877
849.734	4801
849.869	4691
850.004	4637
850.14	4782
850.275	4645
850.41	4611
850.545	4580
850.68	4675
850.815	4675
850.95	4675
851.085	4824
851.22	4812
851.355	4748
851.49	4630
851.625	4694
851.76	4660
851.895	4630
852.03	4481
852.165	4664
852.299	4748
852.434	4797
852.569	4801
852.703	4801
852.838	4870
852.973	4972
853.107	4953
853.242	4763
853.376	4714
853.511	4565
853.645	4649
853.78	4812
853.914	4752
854.048	4687
854.183	4725
854.317	4710
854.451	4889
854.585	4763
854.72	4748
854.854	4782
854.988	4611
855.122	4645
855.256	4580
855.39	4672
855.524	4816
855.658	4774
855.792	4698
855.926	4736
856.06	4824
856.194	4782
856.327	4714
856.461	4691
856.595	4626
856.729	4664
856.862	4778
856.996	4725
857.13	4805
857.263	4809
857.397	4850
857.53	4683
857.664	4763
857.797	4812
857.931	4847
858.064	4733
858.197	4805
858.331	4717
858.464	4675
858.597	4588
858.731	4679
858.864	4691
858.997	4637
859.13	4672
859.263	4714
859.396	4736
859.529	4637
859.662	4588
859.795	4611
859.928	4679
860.061	4778
860.194	4828
860.327	4675
860.46	4596
860.592	4771
860.725	4793
860.858	4755
860.99	4592
861.123	4611
861.256	4573
861.388	4687
861.521	5425
861.653	4497
861.786	4516
861.918	4527
862.05	4569
862.183	4596
862.315	4630
862.447	4736
862.58	4664
862.712	4451
862.844	4390
862.976	4516
863.108	4470
863.24	4946
863.372	4356
863.504	4485
863.636	4455
863.768	4516
863.9	4531
864.032	4409
864.164	4493
864.296	4546
864.428	4558
864.559	4637
864.691	4569
864.823	4603
864.954	4512
865.086	4569
865.217	4508
865.349	4436
865.48	4428
865.612	4580
865.743	4717
865.875	4512
866.006	4462
866.137	4516
866.269	4519
866.4	4485
866.531	4500
866.662	4459
866.793	4421
866.924	4440
867.055	4550
867.186	4451
867.317	4413
867.448	4428
867.579	4466
867.71	4417
867.841	4440
867.972	4493
868.103	4451
868.233	4478
868.364	4497
868.495	4516
868.625	4721
868.756	4771
868.886	4569
869.017	4687
869.147	4828
869.278	4801
869.408	4740
869.539	4706
869.669	4748
869.799	4702
869.929	4797
870.06	4763
870.19	5018
870.32	4987
870.45	4987
870.58	5025
870.71	5109
870.84	5181
870.97	4995
871.1	4927
871.23	5223
871.36	5155
871.489	5102
871.619	5124
871.749	5128
871.879	5181
872.008	5185
872.138	5140
872.267	5022
872.397	4889
872.526	4870
872.656	4752
872.785	4908
872.915	5014
873.044	5067
873.173	5006
873.303	4991
873.432	5025
873.561	5025
873.69	4946
873.819	4938
873.948	4961
874.077	4873
874.206	4774
874.335	4889
874.464	4976
874.593	5079
874.722	4991
874.851	5102
874.979	5124
875.108	5064
875.237	4965
875.365	4930
875.494	4908
875.623	4995
875.751	4904
875.88	4919
876.008	5022
876.136	5083
876.265	5189
876.393	5406
876.521	5280
876.65	5239
876.778	5223
876.906	5102
877.034	5098
877.162	5117
877.29	5067
877.418	5060
877.546	5132
877.674	5086
877.802	5083
877.93	5064
878.058	5006
878.185	4961
878.313	5048
878.441	5003
878.568	4843
878.696	4873
878.824	4965
878.951	5048
879.079	5193
879.206	5330
879.333	5143
879.461	5033
879.588	5056
879.715	5162
879.842	5277
879.97	5010
880.097	4889
880.224	4778
880.351	4835
880.478	4885
880.605	4820
880.732	4816
880.859	5109
880.986	4919
881.112	4949
881.239	4854
881.366	4702
881.493	4649
881.619	4603
881.746	4694
881.872	4664
881.999	4714
882.125	4755
882.252	4850
882.378	4801
882.505	4980
882.631	4824
882.757	4725
882.883	4820
883.01	4809
883.136	4733
883.262	4653
883.388	4653
883.514	4835
883.64	4896
883.766	4854
883.892	4733
884.018	4786
884.143	4949
884.269	5029
884.395	4668
884.52	4721
884.646	4694
884.772	4626
884.897	4622
885.023	4653
885.148	4786
885.274	4919
885.399	4847
885.524	4774
885.65	4778
885.775	4812
885.9	4721
886.025	4866
886.15	4820
886.275	4706
886.4	4691
886.525	4828
886.65	4649
886.775	4755
886.9	4953
887.025	5132
887.149	4885
887.274	4630
887.399	4630
887.523	4645
887.648	4622
887.773	4588
887.897	4782
888.021	4824
888.146	4748
888.27	4828
888.395	4961
888.519	4835
888.643	4854
888.767	4839
888.891	4744
889.015	4645
889.139	4675
889.263	4660
889.387	4797
889.511	4908
889.635	4850
889.759	4653
889.883	4687
890.006	4782
890.13	4847
890.254	4645
890.377	4736
890.501	4577
890.624	4588
890.748	4710
890.871	4542
890.995	4474
891.118	4455
891.241	4508
891.364	4607
891.488	4729
891.611	4569
891.734	4641
891.857	4599
891.98	4626
892.103	4733
892.226	4630
892.349	4611
892.471	4485
892.594	4573
892.717	4637
892.839	4668
892.962	4634
893.085	4740
893.207	4672
893.33	4512
893.452	4523
893.575	4634
893.697	4664
893.819	4862
893.941	4824
894.064	4797
894.186	4603
894.308	4653
894.43	4790
894.552	4873
894.674	4797
894.796	4622
894.918	4626
895.04	4618
895.161	4763
895.283	4694
895.405	4596
895.526	4664
895.648	4733
895.769	4721
895.891	4797
896.012	4759
896.134	4725
896.255	4710
896.376	4733
896.498	4637
896.619	4687
896.74	4649
896.861	4683
896.982	4995
897.103	5121
897.224	4870
897.345	4736
897.466	4683
897.587	4805
897.708	4911
897.828	4801
897.949	4710
898.07	4588
898.19	4660
898.311	4892
898.431	4698
898.552	4759
898.672	4873
898.792	4812
898.913	4725
899.033	4683
899.153	4599
899.273	4451
899.393	4512
899.513	4611
899.633	4577
899.753	4630
899.873	4630
899.993	4584
900.113	4607
900.232	4694
900.352	4599
900.472	4542
900.591	4375
900.711	4508
900.83	4493
900.95	4645
901.069	4748
901.189	4569
901.308	4344
901.427	4337
901.546	4443
901.665	4512
901.784	4584
901.904	4440
902.023	4318
902.141	4230
902.26	4215
902.379	4360
902.498	4291
902.617	4284
902.735	4413
902.854	4436
902.973	4371
903.091	4242
903.21	4242
903.328	4295
903.446	4265
903.565	4303
903.683	4409
903.801	4329
903.919	4474
904.038	4504
904.156	4371
904.274	4478
904.392	4421
904.51	4516
904.627	4474
904.745	4626
904.863	4668
904.981	4455
905.098	4344
905.216	4436
905.334	4493
905.451	4462
905.569	4462
905.686	4565
905.803	4645
905.921	4474
906.038	4584
906.155	4554
906.272	4474
906.389	4459
906.506	4379
906.623	4451
906.74	4451
906.857	4356
906.974	4428
907.091	4626
907.208	4710
907.324	4660
907.441	4527
907.557	4432
907.674	4352
907.79	4367
907.907	4462
908.023	4519
908.139	4542
908.256	4478
908.372	4535
908.488	4558
908.604	4337
908.72	4383
908.836	4470
908.952	4470
909.068	4459
909.184	4626
909.3	4512
909.415	4622
909.531	4611
909.647	4379
909.762	4455
909.878	4417
909.993	4519
910.108	4462
910.224	4459
910.339	4500
910.454	4424
910.57	4424
910.685	4344
910.8	4717
910.915	4683
911.03	4550
911.145	4424
911.259	4421
911.374	4356
911.489	4398
911.604	4333
911.718	4223
911.833	4242
911.947	4120
912.062	4078
912.176	4284
912.291	4295
912.405	4306
912.519	4478
912.633	4558
912.748	4421
912.862	4303
912.976	4234
913.09	4169
913.204	4238
913.318	4337
913.431	4421
913.545	4409
913.659	4504
913.772	4428
913.886	4280
914	4284
914.113	4432
914.226	4474
914.34	4394
914.453	4306
914.566	4478
914.68	4360
914.793	4379
914.906	4204
915.019	4177
915.132	4131
915.245	4242
915.358	4249
915.47	4276
915.583	4291
915.696	4341
915.809	4443
915.921	4436
916.034	4348
916.146	4322
916.259	4234
916.371	4459
916.483	4417
916.595	4341
916.708	4333
916.82	4344
916.932	4386
917.044	4409
917.156	4413
917.268	4253
917.38	4363
917.491	4337
917.603	4371
917.715	4466
917.826	4485
917.938	4436
918.049	4265
918.161	4436
918.272	4592
918.384	4573
918.495	4523
918.606	4413
918.717	4318
918.828	4405
918.939	4451
919.05	4325
919.161	4379
919.272	4207
919.383	4272
919.494	4478
919.604	4679
919.715	4481
919.826	4375
919.936	4409
920.047	4550
920.157	4531
920.267	4752
920.378	4592
920.488	4577
920.598	4740
920.708	4934
920.818	4828
920.928	4801
921.038	4995
921.148	4911
921.258	4675
921.368	4618
921.477	4538
921.587	4523
921.697	4394
921.806	4588
921.916	4470
922.025	4295
922.134	4306
922.244	4306
922.353	4295
922.462	4185
922.571	4173
922.68	4025
922.789	4029
922.898	4112
923.007	4074
923.116	4128
923.224	4120
923.333	4154
923.442	4032
923.55	4048
923.659	4071
923.767	4128
923.876	4067
923.984	4173
924.092	4032
924.201	4124
924.309	4124
924.417	4166
924.525	4109
924.633	4147
924.741	5105
924.849	3987
924.956	4147
925.064	3983
925.172	3956
925.279	4025
925.387	4097
925.494	4059
925.602	4295
925.709	4196
925.816	4059
925.924	4200
926.031	4287
926.138	4227
926.245	4253
926.352	4093
926.459	4295
926.566	4356
926.673	4173
926.779	4150
926.886	4078
926.993	4029
927.099	4032
927.206	3994
927.312	4021
927.419	4105
927.525	4032
927.631	4131
927.737	4017
927.843	3994
927.95	3880
928.056	3949
928.162	4013
928.267	4105
928.373	4706
928.479	4139
928.585	3949
928.69	4036
928.796	4166
928.901	4021
929.007	3918
929.112	4013
929.218	4006
929.323	4025
929.428	3941
929.533	4082
929.638	3983
929.743	4010
929.848	4120
929.953	4040
930.058	3972
930.163	3800
930.267	3907
930.372	4040
930.477	3808
930.581	4139
930.685	3998
930.79	3884
930.894	3915
930.998	3888
931.103	4101
931.207	3740
931.311	3705
931.415	3759
931.519	3526
931.623	3557
