Data from test_V78500241_658.txt Node
Date: Fri Mar 25 16:53:34 CST 2022
User: usil
Spectrometer: V785-0024
Trigger mode: 0
Integration Time (sec): 4.000000E-1
Scans to average: 1
Nonlinearity correction enabled: false
Boxcar width: 0
Storing dark spectrum: false
XAxis mode: Wavelengths
Number of Pixels in Spectrum: 1024
>>>>>Begin Spectral Data<<<<<
801.071	8031
801.214	8008
801.356	7830
801.499	7814
801.641	7746
801.783	7841
801.926	7963
802.068	7925
802.211	7982
802.353	7993
802.496	7917
802.638	7902
802.78	7928
802.923	7864
803.065	7906
803.208	7868
803.35	8027
803.492	8126
803.635	8161
803.777	8027
803.919	8107
804.061	8408
804.204	8107
804.346	7993
804.488	7909
804.63	8142
804.773	7989
804.915	8035
805.057	8313
805.199	8145
805.341	8199
805.483	8267
805.626	8195
805.768	8073
805.91	8164
806.052	8225
806.194	8092
806.336	8279
806.478	8100
806.62	8119
806.762	8149
806.904	8233
807.046	8404
807.188	8370
807.33	8355
807.472	8298
807.614	8218
807.756	8183
807.898	7921
808.04	7830
808.182	7921
808.324	7856
808.465	7837
808.607	8058
808.749	8092
808.891	8180
809.033	8256
809.174	8149
809.316	8050
809.458	8012
809.6	8020
809.741	7986
809.883	8043
810.025	8058
810.166	8119
810.308	8016
810.45	8039
810.591	7928
810.733	7814
810.875	7696
811.016	7472
811.158	7514
811.299	7544
811.441	7742
811.582	7639
811.724	7586
811.865	7476
812.007	7582
812.148	7552
812.29	7643
812.431	7670
812.573	7830
812.714	8008
812.855	8134
812.997	8199
813.138	8309
813.279	8206
813.421	8142
813.562	8069
813.703	7894
813.845	7814
813.986	7537
814.127	7365
814.268	7293
814.41	7236
814.551	7171
814.692	7076
814.833	7046
814.974	7110
815.115	7061
815.256	6981
815.397	6970
815.539	6920
815.68	6810
815.821	6787
815.962	6821
816.103	6867
816.244	6665
816.385	6620
816.526	6642
816.666	6517
816.807	6273
816.948	6403
817.089	6490
817.23	6448
817.371	6414
817.512	6395
817.653	6361
817.793	6350
817.934	6479
818.075	6513
818.216	6437
818.356	6361
818.497	6232
818.638	6114
818.778	6136
818.919	6136
819.06	6144
819.2	6338
819.341	6331
819.481	6338
819.622	6559
819.762	6703
819.903	6711
820.043	6559
820.184	6566
820.324	6547
820.465	6665
820.605	6604
820.746	6582
820.886	6494
821.026	6612
821.167	6673
821.307	6764
821.447	6760
821.588	6601
821.728	6566
821.868	6452
822.008	6308
822.149	6361
822.289	6433
822.429	6155
822.569	6068
822.709	6102
822.849	5942
822.99	5832
823.13	5893
823.27	5935
823.41	5775
823.55	5775
823.69	5741
823.83	5722
823.97	5653
824.11	5532
824.25	5509
824.389	5512
824.529	5524
824.669	5501
824.809	5665
824.949	5657
825.089	5627
825.228	5524
825.368	5353
825.508	5296
825.648	5360
825.787	5368
825.927	5376
826.067	5315
826.206	5280
826.346	5360
826.485	5433
826.625	5376
826.765	5562
826.904	5490
827.044	5280
827.183	5166
827.323	5079
827.462	5197
827.601	5181
827.741	5212
827.88	5155
828.02	5086
828.159	5269
828.298	5296
828.437	5417
828.577	5280
828.716	5452
828.855	5337
828.994	5132
829.134	5181
829.273	5201
829.412	5166
829.551	5094
829.69	5170
829.829	5235
829.968	5330
830.107	5231
830.246	5273
830.385	5117
830.524	5121
830.663	5102
830.802	4999
830.941	4927
831.08	4854
831.219	4976
831.357	4953
831.496	5151
831.635	4919
831.774	4904
831.913	4824
832.051	4694
832.19	4710
832.329	4816
832.467	4672
832.606	4592
832.744	4725
832.883	4698
833.022	4736
833.16	4786
833.299	4850
833.437	4812
833.576	4828
833.714	4847
833.852	4820
833.991	4892
834.129	4904
834.267	4930
834.406	4881
834.544	4915
834.682	4968
834.821	4972
834.959	5189
835.097	4930
835.235	5113
835.373	5083
835.511	5155
835.65	5041
835.788	5033
835.926	4881
836.064	4854
836.202	4877
836.34	5143
836.478	5193
836.615	5159
836.753	5239
836.891	5299
837.029	5258
837.167	5235
837.305	5174
837.443	5178
837.58	5025
837.718	5242
837.856	5151
837.993	5140
838.131	5223
838.269	5174
838.406	5212
838.544	5189
838.681	4991
838.819	5010
838.956	4889
839.094	4900
839.231	4927
839.369	5052
839.506	5448
839.643	5220
839.781	5041
839.918	5014
840.055	5124
840.193	5075
840.33	5075
840.467	5121
840.604	5212
840.742	5414
840.879	5064
841.016	5128
841.153	5117
841.29	5353
841.427	5258
841.564	5326
841.701	5395
841.838	5254
841.975	5227
842.112	5261
842.249	5128
842.385	5124
842.522	5326
842.659	5181
842.796	5162
842.933	5159
843.069	5128
843.206	5121
843.343	5315
843.479	5231
843.616	5273
843.752	4976
843.889	4957
844.025	5162
844.162	5041
844.298	5170
844.435	5098
844.571	5033
844.708	5155
844.844	5265
844.98	5330
845.117	5311
845.253	5113
845.389	5029
845.525	5197
845.661	5162
845.798	5022
845.934	5121
846.07	5010
846.206	5201
846.342	5261
846.478	5197
846.614	5018
846.75	5010
846.886	4934
847.022	5102
847.158	4995
847.294	5086
847.429	5086
847.565	4999
847.701	5318
847.837	4862
847.972	4820
848.108	4892
848.244	4961
848.379	4778
848.515	4714
848.65	4740
848.786	4725
848.921	4790
849.057	4847
849.192	4881
849.328	4736
849.463	4824
849.598	4755
849.734	4721
849.869	4691
850.004	4596
850.14	4649
850.275	4603
850.41	4462
850.545	4542
850.68	4569
850.815	4603
850.95	4637
851.085	4866
851.22	4729
851.355	4634
851.49	4577
851.625	4656
851.76	4588
851.895	4596
852.03	4504
852.165	4626
852.299	4721
852.434	4740
852.569	4740
852.703	4763
852.838	4835
852.973	4919
853.107	4892
853.242	4740
853.376	4675
853.511	4535
853.645	4584
853.78	4797
853.914	4672
854.048	4611
854.183	4649
854.317	4714
854.451	4892
854.585	4630
854.72	4626
854.854	4702
854.988	4554
855.122	4596
855.256	4523
855.39	4626
855.524	4786
855.658	4706
855.792	4687
855.926	4740
856.06	4672
856.194	4744
856.327	4683
856.461	4565
856.595	4596
856.729	4584
856.862	4771
856.996	4645
857.13	4691
857.263	4759
857.397	4782
857.53	4672
857.664	4691
857.797	4748
857.931	4744
858.064	4672
858.197	4744
858.331	4611
858.464	4554
858.597	4550
858.731	4622
858.864	4615
858.997	4603
859.13	4653
859.263	4645
859.396	4710
859.529	4656
859.662	4577
859.795	4531
859.928	4634
860.061	4706
860.194	4801
860.327	4584
860.46	4573
860.592	4714
860.725	4714
860.858	4675
860.99	4561
861.123	4489
861.256	4561
861.388	4618
861.521	5341
861.653	4455
861.786	4455
861.918	4451
862.05	4550
862.183	4550
862.315	4599
862.447	4645
862.58	4538
862.712	4379
862.844	4333
862.976	4436
863.108	4474
863.24	4881
863.372	4352
863.504	4383
863.636	4394
863.768	4489
863.9	4478
864.032	4367
864.164	4417
864.296	4489
864.428	4550
864.559	4504
864.691	4527
864.823	4527
864.954	4432
865.086	4527
865.217	4466
865.349	4390
865.48	4481
865.612	4489
865.743	4622
865.875	4455
866.006	4383
866.137	4440
866.269	4455
866.4	4447
866.531	4417
866.662	4360
866.793	4394
866.924	4413
867.055	4527
867.186	4451
867.317	4432
867.448	4409
867.579	4413
867.71	4394
867.841	4371
867.972	4447
868.103	4421
868.233	4447
868.364	4470
868.495	4462
868.625	4611
868.756	4736
868.886	4584
869.017	4622
869.147	4706
869.278	4774
869.408	4672
869.539	4618
869.669	4710
869.799	4615
869.929	4740
870.06	4778
870.19	4927
870.32	4885
870.45	4942
870.58	4965
870.71	5098
870.84	5113
870.97	4915
871.1	4900
871.23	5143
871.36	5094
871.489	5014
871.619	5079
871.749	5056
871.879	5094
872.008	5201
872.138	5083
872.267	4953
872.397	4858
872.526	4828
872.656	4744
872.785	4812
872.915	4889
873.044	5033
873.173	4957
873.303	4968
873.432	5003
873.561	4972
873.69	4828
873.819	4873
873.948	4938
874.077	4839
874.206	4744
874.335	4843
874.464	4968
874.593	5113
874.722	4999
874.851	5098
874.979	5079
875.108	5079
875.237	4976
875.365	4949
875.494	4892
875.623	5003
875.751	4816
875.88	4923
876.008	5025
876.136	5075
876.265	5242
876.393	5360
876.521	5269
876.65	5227
876.778	5170
876.906	5105
877.034	5064
877.162	5060
877.29	5033
877.418	5132
877.546	5045
877.674	5033
877.802	5045
877.93	5056
878.058	4972
878.185	4934
878.313	4972
878.441	5003
878.568	4896
878.696	4911
878.824	4980
878.951	4991
879.079	5174
879.206	5284
879.333	5159
879.461	5018
879.588	5025
879.715	5197
879.842	5326
879.97	5060
880.097	4828
880.224	4816
880.351	4816
880.478	4873
880.605	4919
880.732	4816
880.859	5166
880.986	4984
881.112	4919
881.239	4812
881.366	4679
881.493	4656
881.619	4615
881.746	4653
881.872	4714
881.999	4687
882.125	4717
882.252	4839
882.378	4923
882.505	5014
882.631	4839
882.757	4694
882.883	4786
883.01	4702
883.136	4740
883.262	4615
883.388	4634
883.514	4896
883.64	4908
883.766	4782
883.892	4668
884.018	4714
884.143	4946
884.269	5033
884.395	4759
884.52	4641
884.646	4714
884.772	4603
884.897	4641
885.023	4653
885.148	4790
885.274	4961
885.399	4816
885.524	4793
885.65	4748
885.775	4774
885.9	4767
886.025	4892
886.15	4824
886.275	4752
886.4	4702
886.525	4698
886.65	4706
886.775	4725
886.9	4957
887.025	5079
887.149	4767
887.274	4710
887.399	4573
887.523	4599
887.648	4584
887.773	4622
887.897	4805
888.021	4778
888.146	4729
888.27	4850
888.395	4896
888.519	4816
888.643	4831
888.767	4839
888.891	4717
889.015	4653
889.139	4664
889.263	4649
889.387	4767
889.511	4923
889.635	4847
889.759	4694
889.883	4694
890.006	4774
890.13	4900
890.254	4649
890.377	4778
890.501	4588
890.624	4565
890.748	4702
890.871	4554
890.995	4478
891.118	4405
891.241	4542
891.364	4569
891.488	4649
891.611	4504
891.734	4580
891.857	4569
891.98	4542
892.103	4653
892.226	4573
892.349	4596
892.471	4474
892.594	4569
892.717	4653
892.839	4580
892.962	4634
893.085	4714
893.207	4588
893.33	4493
893.452	4508
893.575	4687
893.697	4615
893.819	4816
893.941	4828
894.064	4831
894.186	4626
894.308	4615
894.43	4752
894.552	4866
894.674	4763
894.796	4641
894.918	4599
895.04	4615
895.161	4729
895.283	4664
895.405	4649
895.526	4679
895.648	4698
895.769	4683
895.891	4733
896.012	4755
896.134	4740
896.255	4733
896.376	4679
896.498	4637
896.619	4675
896.74	4679
896.861	4706
896.982	4965
897.103	5102
897.224	4873
897.345	4790
897.466	4721
897.587	4748
897.708	4839
897.828	4839
897.949	4687
898.07	4565
898.19	4683
898.311	4873
898.431	4683
898.552	4793
898.672	4835
898.792	4805
898.913	4782
899.033	4645
899.153	4489
899.273	4470
899.393	4542
899.513	4538
899.633	4611
899.753	4554
899.873	4550
899.993	4637
900.113	4561
900.232	4580
900.352	4596
900.472	4489
900.591	4432
900.711	4516
900.83	4500
900.95	4653
901.069	4774
901.189	4542
901.308	4348
901.427	4367
901.546	4436
901.665	4474
901.784	4588
901.904	4398
902.023	4329
902.141	4215
902.26	4162
902.379	4314
902.498	4230
902.617	4280
902.735	4424
902.854	4417
902.973	4386
903.091	4219
903.21	4261
903.328	4329
903.446	4329
903.565	4265
903.683	4348
903.801	4291
903.919	4417
904.038	4466
904.156	4341
904.274	4459
904.392	4428
904.51	4470
904.627	4519
904.745	4573
904.863	4641
904.981	4432
905.098	4371
905.216	4443
905.334	4459
905.451	4489
905.569	4455
905.686	4615
905.803	4630
905.921	4421
906.038	4535
906.155	4523
906.272	4436
906.389	4481
906.506	4371
906.623	4413
906.74	4383
906.857	4352
906.974	4432
907.091	4607
907.208	4691
907.324	4577
907.441	4550
907.557	4402
907.674	4371
907.79	4348
907.907	4390
908.023	4500
908.139	4478
908.256	4459
908.372	4504
908.488	4443
908.604	4417
908.72	4333
908.836	4360
908.952	4409
909.068	4481
909.184	4558
909.3	4489
909.415	4603
909.531	4554
909.647	4360
909.762	4390
909.878	4379
909.993	4459
910.108	4413
910.224	4470
910.339	4508
910.454	4451
910.57	4394
910.685	4322
910.8	4672
910.915	4599
911.03	4512
911.145	4371
911.259	4360
911.374	4367
911.489	4329
911.604	4276
911.718	4173
911.833	4219
911.947	4078
912.062	4086
912.176	4249
912.291	4280
912.405	4261
912.519	4531
912.633	4519
912.748	4421
912.862	4348
912.976	4249
913.09	4143
913.204	4192
913.318	4230
913.431	4383
913.545	4379
913.659	4466
913.772	4398
913.886	4291
914	4204
914.113	4436
914.226	4489
914.34	4424
914.453	4276
914.566	4390
914.68	4360
914.793	4383
914.906	4200
915.019	4185
915.132	4105
915.245	4215
915.358	4204
915.47	4234
915.583	4303
915.696	4322
915.809	4394
915.921	4428
916.034	4287
916.146	4265
916.259	4234
916.371	4383
916.483	4360
916.595	4280
916.708	4310
916.82	4348
916.932	4379
917.044	4314
917.156	4329
917.268	4265
917.38	4306
917.491	4295
917.603	4386
917.715	4424
917.826	4481
917.938	4363
918.049	4276
918.161	4443
918.272	4569
918.384	4527
918.495	4546
918.606	4299
918.717	4257
918.828	4383
918.939	4356
919.05	4272
919.161	4352
919.272	4185
919.383	4284
919.494	4432
919.604	4607
919.715	4481
919.826	4325
919.936	4421
920.047	4569
920.157	4470
920.267	4755
920.378	4519
920.488	4493
920.598	4729
920.708	4900
920.818	4767
920.928	4755
921.038	4984
921.148	4915
921.258	4618
921.368	4611
921.477	4497
921.587	4451
921.697	4375
921.806	4580
921.916	4424
922.025	4299
922.134	4276
922.244	4215
922.353	4371
922.462	4162
922.571	4158
922.68	4048
922.789	4017
922.898	4044
923.007	3979
923.116	4120
923.224	4074
923.333	4112
923.442	4021
923.55	4036
923.659	4059
923.767	4093
923.876	4055
923.984	4101
924.092	4010
924.201	4109
924.309	4158
924.417	4147
924.525	4048
924.633	4112
924.741	5075
924.849	3945
924.956	4169
925.064	3956
925.172	3907
925.279	4036
925.387	4082
925.494	4101
925.602	4227
925.709	4242
925.816	4029
925.924	4120
926.031	4238
926.138	4192
926.245	4234
926.352	4093
926.459	4265
926.566	4299
926.673	4169
926.779	4109
926.886	4120
926.993	3994
927.099	3949
927.206	3907
927.312	3960
927.419	4086
927.525	4025
927.631	4112
927.737	3998
927.843	3964
927.95	3812
928.056	3972
928.162	4029
928.267	4044
928.373	4664
928.479	4097
928.585	3869
928.69	4029
928.796	4090
928.901	3979
929.007	3854
929.112	4032
929.218	4010
929.323	3918
929.428	3922
929.533	4105
929.638	3937
929.743	3991
929.848	4051
929.953	3991
930.058	3964
930.163	3804
930.267	3846
930.372	3941
930.477	3831
930.581	4128
930.685	3998
930.79	3846
930.894	3899
930.998	3907
931.103	4044
931.207	3770
931.311	3686
931.415	3717
931.519	3538
931.623	3568
