Data from test_V78500241_2798.txt Node
Date: Fri Mar 25 17:08:27 CST 2022
User: usil
Spectrometer: V785-0024
Trigger mode: 0
Integration Time (sec): 4.000000E-1
Scans to average: 1
Nonlinearity correction enabled: false
Boxcar width: 0
Storing dark spectrum: false
XAxis mode: Wavelengths
Number of Pixels in Spectrum: 1024
>>>>>Begin Spectral Data<<<<<
801.071	7993
801.214	8012
801.356	7890
801.499	7849
801.641	7769
801.783	7822
801.926	7978
802.068	7906
802.211	7959
802.353	7967
802.496	7898
802.638	7917
802.78	7978
802.923	7928
803.065	7795
803.208	7830
803.35	7940
803.492	8046
803.635	8180
803.777	7982
803.919	8084
804.061	8537
804.204	8172
804.346	7974
804.488	7928
804.63	8134
804.773	7993
804.915	8115
805.057	8290
805.199	8115
805.341	8206
805.483	8339
805.626	8298
805.768	8138
805.91	8214
806.052	8183
806.194	8100
806.336	8313
806.478	8073
806.62	8046
806.762	8073
806.904	8252
807.046	8419
807.188	8423
807.33	8332
807.472	8305
807.614	8149
807.756	8096
807.898	8043
808.04	7868
808.182	7871
808.324	7826
808.465	7898
808.607	8142
808.749	8183
808.891	8214
809.033	8301
809.174	8218
809.316	8008
809.458	8058
809.6	7947
809.741	8062
809.883	8046
810.025	8180
810.166	8027
810.308	8012
810.45	8008
810.591	7913
810.733	7708
810.875	7674
811.016	7518
811.158	7525
811.299	7681
811.441	7719
811.582	7704
811.724	7609
811.865	7548
812.007	7567
812.148	7586
812.29	7616
812.431	7807
812.573	7890
812.714	8016
812.855	8164
812.997	8176
813.138	8301
813.279	8206
813.421	8119
813.562	7986
813.703	7890
813.845	7715
813.986	7499
814.127	7266
814.268	7225
814.41	7259
814.551	7149
814.692	7091
814.833	7050
814.974	7110
815.115	7061
815.256	6920
815.397	6962
815.539	6901
815.68	6837
815.821	6791
815.962	6825
816.103	6844
816.244	6757
816.385	6642
816.526	6589
816.666	6525
816.807	6346
816.948	6426
817.089	6475
817.23	6445
817.371	6407
817.512	6338
817.653	6422
817.793	6319
817.934	6410
818.075	6445
818.216	6407
818.356	6361
818.497	6334
818.638	6076
818.778	6159
818.919	6098
819.06	6110
819.2	6323
819.341	6346
819.481	6369
819.622	6509
819.762	6719
819.903	6726
820.043	6631
820.184	6540
820.324	6593
820.465	6738
820.605	6711
820.746	6608
820.886	6559
821.026	6665
821.167	6707
821.307	6795
821.447	6783
821.588	6673
821.728	6536
821.868	6494
822.008	6384
822.149	6346
822.289	6258
822.429	6167
822.569	6072
822.709	6144
822.849	5927
822.99	5939
823.13	5920
823.27	5901
823.41	5745
823.55	5798
823.69	5745
823.83	5779
823.97	5642
824.11	5520
824.25	5486
824.389	5551
824.529	5638
824.669	5547
824.809	5653
824.949	5684
825.089	5661
825.228	5562
825.368	5383
825.508	5414
825.648	5353
825.787	5357
825.927	5410
826.067	5284
826.206	5334
826.346	5421
826.485	5379
826.625	5410
826.765	5528
826.904	5417
827.044	5220
827.183	5197
827.323	5132
827.462	5212
827.601	5170
827.741	5193
827.88	5231
828.02	5159
828.159	5235
828.298	5299
828.437	5334
828.577	5284
828.716	5482
828.855	5318
828.994	5124
829.134	5140
829.273	5193
829.412	5132
829.551	5121
829.69	5151
829.829	5239
829.968	5330
830.107	5246
830.246	5288
830.385	5166
830.524	5121
830.663	5071
830.802	4957
830.941	4866
831.08	4873
831.219	4927
831.357	4919
831.496	5124
831.635	4889
831.774	4839
831.913	4820
832.051	4729
832.19	4687
832.329	4824
832.467	4714
832.606	4611
832.744	4698
832.883	4698
833.022	4721
833.16	4786
833.299	4778
833.437	4809
833.576	4847
833.714	4881
833.852	4900
833.991	4831
834.129	4976
834.267	4995
834.406	4870
834.544	4908
834.682	4968
834.821	4995
834.959	5162
835.097	5033
835.235	5147
835.373	5086
835.511	5155
835.65	5006
835.788	4968
835.926	4873
836.064	4862
836.202	4904
836.34	5117
836.478	5128
836.615	5094
836.753	5212
836.891	5288
837.029	5273
837.167	5189
837.305	5128
837.443	5113
837.58	5079
837.718	5227
837.856	5189
837.993	5094
838.131	5223
838.269	5185
838.406	5204
838.544	5181
838.681	5071
838.819	5025
838.956	4866
839.094	4908
839.231	4953
839.369	5083
839.506	5387
839.643	5246
839.781	5037
839.918	4984
840.055	5048
840.193	5155
840.33	5102
840.467	5128
840.604	5208
840.742	5414
840.879	5075
841.016	5071
841.153	5166
841.29	5353
841.427	5311
841.564	5318
841.701	5357
841.838	5258
841.975	5231
842.112	5269
842.249	5128
842.385	5132
842.522	5299
842.659	5151
842.796	5121
842.933	5178
843.069	5117
843.206	5113
843.343	5280
843.479	5189
843.616	5242
843.752	5029
843.889	5025
844.025	5124
844.162	5014
844.298	5193
844.435	5079
844.571	4991
844.708	5170
844.844	5269
844.98	5334
845.117	5307
845.253	5098
845.389	5083
845.525	5162
845.661	5071
845.798	5018
845.934	5083
846.07	5071
846.206	5128
846.342	5277
846.478	5227
846.614	5014
846.75	4961
846.886	4938
847.022	5109
847.158	5006
847.294	5045
847.429	5086
847.565	5056
847.701	5318
847.837	4870
847.972	4778
848.108	4965
848.244	4938
848.379	4801
848.515	4714
848.65	4733
848.786	4740
848.921	4782
849.057	4873
849.192	4896
849.328	4847
849.463	4828
849.598	4774
849.734	4744
849.869	4759
850.004	4592
850.14	4645
850.275	4596
850.41	4558
850.545	4584
850.68	4615
850.815	4660
850.95	4660
851.085	4866
851.22	4774
851.355	4721
851.49	4660
851.625	4622
851.76	4653
851.895	4596
852.03	4550
852.165	4641
852.299	4721
852.434	4820
852.569	4790
852.703	4797
852.838	4877
852.973	4934
853.107	4961
853.242	4771
853.376	4691
853.511	4611
853.645	4694
853.78	4824
853.914	4725
854.048	4698
854.183	4649
854.317	4729
854.451	4927
854.585	4748
854.72	4656
854.854	4778
854.988	4618
855.122	4702
855.256	4519
855.39	4740
855.524	4835
855.658	4786
855.792	4744
855.926	4717
856.06	4767
856.194	4828
856.327	4752
856.461	4660
856.595	4710
856.729	4679
856.862	4831
856.996	4744
857.13	4759
857.263	4820
857.397	4847
857.53	4675
857.664	4774
857.797	4820
857.931	4809
858.064	4717
858.197	4778
858.331	4694
858.464	4626
858.597	4535
858.731	4649
858.864	4694
858.997	4645
859.13	4698
859.263	4687
859.396	4714
859.529	4615
859.662	4599
859.795	4569
859.928	4672
860.061	4748
860.194	4778
860.327	4672
860.46	4630
860.592	4771
860.725	4721
860.858	4786
860.99	4596
861.123	4622
861.256	4523
861.388	4672
861.521	5341
861.653	4508
861.786	4489
861.918	4504
862.05	4584
862.183	4599
862.315	4611
862.447	4698
862.58	4588
862.712	4447
862.844	4367
862.976	4489
863.108	4455
863.24	4797
863.372	4375
863.504	4451
863.636	4455
863.768	4565
863.9	4485
864.032	4405
864.164	4451
864.296	4519
864.428	4588
864.559	4641
864.691	4558
864.823	4535
864.954	4573
865.086	4584
865.217	4542
865.349	4504
865.48	4489
865.612	4565
865.743	4637
865.875	4531
866.006	4481
866.137	4478
866.269	4466
866.4	4462
866.531	4478
866.662	4443
866.793	4440
866.924	4459
867.055	4531
867.186	4500
867.317	4470
867.448	4402
867.579	4440
867.71	4417
867.841	4360
867.972	4508
868.103	4489
868.233	4508
868.364	4489
868.495	4500
868.625	4675
868.756	4824
868.886	4603
869.017	4683
869.147	4812
869.278	4828
869.408	4706
869.539	4649
869.669	4725
869.799	4694
869.929	4767
870.06	4809
870.19	5003
870.32	4911
870.45	4965
870.58	5025
870.71	5147
870.84	5098
870.97	4961
871.1	4911
871.23	5181
871.36	5124
871.489	5048
871.619	5121
871.749	5094
871.879	5178
872.008	5208
872.138	5105
872.267	4987
872.397	4889
872.526	4900
872.656	4729
872.785	4877
872.915	4991
873.044	5105
873.173	4904
873.303	4976
873.432	5003
873.561	5029
873.69	4896
873.819	4908
873.948	5006
874.077	4850
874.206	4771
874.335	4877
874.464	4919
874.593	5086
874.722	4984
874.851	5094
874.979	5128
875.108	5045
875.237	4961
875.365	4889
875.494	4942
875.623	5064
875.751	4801
875.88	4900
876.008	5006
876.136	5071
876.265	5246
876.393	5391
876.521	5303
876.65	5231
876.778	5216
876.906	5086
877.034	5018
877.162	5060
877.29	5010
877.418	5117
877.546	5102
877.674	5064
877.802	5083
877.93	5037
878.058	4972
878.185	4885
878.313	5025
878.441	4995
878.568	4881
878.696	4934
878.824	4972
878.951	4972
879.079	5124
879.206	5318
879.333	5147
879.461	5018
879.588	5022
879.715	5181
879.842	5239
879.97	4999
880.097	4759
880.224	4759
880.351	4835
880.478	4843
880.605	4858
880.732	4820
880.859	5121
880.986	4972
881.112	4919
881.239	4793
881.366	4714
881.493	4607
881.619	4592
881.746	4656
881.872	4691
881.999	4683
882.125	4710
882.252	4782
882.378	4850
882.505	4991
882.631	4820
882.757	4683
882.883	4755
883.01	4744
883.136	4710
883.262	4588
883.388	4668
883.514	4809
883.64	4923
883.766	4862
883.892	4733
884.018	4790
884.143	4942
884.269	5006
884.395	4725
884.52	4577
884.646	4687
884.772	4637
884.897	4603
885.023	4702
885.148	4782
885.274	4885
885.399	4824
885.524	4748
885.65	4687
885.775	4740
885.9	4733
886.025	4908
886.15	4835
886.275	4702
886.4	4736
886.525	4725
886.65	4744
886.775	4687
886.9	4927
887.025	5045
887.149	4793
887.274	4702
887.399	4588
887.523	4626
887.648	4596
887.773	4618
887.897	4774
888.021	4797
888.146	4721
888.27	4797
888.395	4911
888.519	4847
888.643	4824
888.767	4805
888.891	4698
889.015	4637
889.139	4698
889.263	4626
889.387	4812
889.511	4927
889.635	4809
889.759	4672
889.883	4634
890.006	4744
890.13	4828
890.254	4683
890.377	4710
890.501	4550
890.624	4599
890.748	4611
890.871	4542
890.995	4436
891.118	4413
891.241	4512
891.364	4641
891.488	4683
891.611	4512
891.734	4573
891.857	4615
891.98	4607
892.103	4656
892.226	4603
892.349	4554
892.471	4428
892.594	4558
892.717	4584
892.839	4554
892.962	4580
893.085	4714
893.207	4626
893.33	4470
893.452	4523
893.575	4721
893.697	4603
893.819	4812
893.941	4858
894.064	4831
894.186	4611
894.308	4599
894.43	4774
894.552	4847
894.674	4767
894.796	4584
894.918	4626
895.04	4637
895.161	4725
895.283	4710
895.405	4592
895.526	4660
895.648	4691
895.769	4714
895.891	4736
896.012	4774
896.134	4710
896.255	4733
896.376	4668
896.498	4641
896.619	4664
896.74	4607
896.861	4694
896.982	4999
897.103	5102
897.224	4843
897.345	4759
897.466	4649
897.587	4763
897.708	4881
897.828	4767
897.949	4687
898.07	4596
898.19	4649
898.311	4824
898.431	4744
898.552	4755
898.672	4831
898.792	4801
898.913	4782
899.033	4710
899.153	4508
899.273	4432
899.393	4504
899.513	4558
899.633	4531
899.753	4538
899.873	4519
899.993	4630
900.113	4542
900.232	4641
900.352	4584
900.472	4497
900.591	4478
900.711	4535
900.83	4478
900.95	4626
901.069	4664
901.189	4531
901.308	4360
901.427	4325
901.546	4386
901.665	4497
901.784	4542
901.904	4386
902.023	4325
902.141	4223
902.26	4162
902.379	4348
902.498	4314
902.617	4238
902.735	4352
902.854	4383
902.973	4360
903.091	4204
903.21	4268
903.328	4303
903.446	4356
903.565	4242
903.683	4402
903.801	4314
903.919	4386
904.038	4405
904.156	4375
904.274	4500
904.392	4409
904.51	4436
904.627	4455
904.745	4645
904.863	4649
904.981	4409
905.098	4310
905.216	4379
905.334	4459
905.451	4474
905.569	4508
905.686	4577
905.803	4584
905.921	4409
906.038	4596
906.155	4489
906.272	4421
906.389	4428
906.506	4341
906.623	4409
906.74	4405
906.857	4375
906.974	4367
907.091	4592
907.208	4634
907.324	4599
907.441	4554
907.557	4356
907.674	4367
907.79	4352
907.907	4390
908.023	4474
908.139	4535
908.256	4462
908.372	4500
908.488	4493
908.604	4413
908.72	4386
908.836	4432
908.952	4379
909.068	4409
909.184	4603
909.3	4481
909.415	4573
909.531	4588
909.647	4352
909.762	4379
909.878	4367
909.993	4451
910.108	4436
910.224	4417
910.339	4459
910.454	4409
910.57	4394
910.685	4356
910.8	4668
910.915	4565
911.03	4546
911.145	4329
911.259	4291
911.374	4386
911.489	4310
911.604	4310
911.718	4169
911.833	4257
911.947	4097
912.062	4090
912.176	4200
912.291	4280
912.405	4253
912.519	4440
912.633	4523
912.748	4371
912.862	4299
912.976	4265
913.09	4139
913.204	4188
913.318	4223
913.431	4379
913.545	4375
913.659	4421
913.772	4383
913.886	4287
914	4265
914.113	4356
914.226	4424
914.34	4379
914.453	4238
914.566	4481
914.68	4337
914.793	4363
914.906	4147
915.019	4154
915.132	4086
915.245	4257
915.358	4200
915.47	4272
915.583	4291
915.696	4318
915.809	4440
915.921	4470
916.034	4265
916.146	4238
916.259	4253
916.371	4413
916.483	4443
916.595	4299
916.708	4348
916.82	4367
916.932	4356
917.044	4398
917.156	4367
917.268	4253
917.38	4367
917.491	4265
917.603	4417
917.715	4459
917.826	4466
917.938	4440
918.049	4291
918.161	4474
918.272	4546
918.384	4599
918.495	4504
918.606	4329
918.717	4306
918.828	4363
918.939	4417
919.05	4329
919.161	4402
919.272	4192
919.383	4306
919.494	4497
919.604	4653
919.715	4489
919.826	4413
919.936	4474
920.047	4588
920.157	4569
920.267	4782
920.378	4584
920.488	4558
920.598	4740
920.708	4946
920.818	4858
920.928	4839
921.038	5003
921.148	4999
921.258	4725
921.368	4622
921.477	4615
921.587	4497
921.697	4402
921.806	4558
921.916	4512
922.025	4341
922.134	4344
922.244	4318
922.353	4390
922.462	4211
922.571	4192
922.68	4093
922.789	4017
922.898	4150
923.007	4078
923.116	4188
923.224	4078
923.333	4139
923.442	4067
923.55	4029
923.659	4093
923.767	4131
923.876	4093
923.984	4173
924.092	4044
924.201	4124
924.309	4139
924.417	4181
924.525	4116
924.633	4147
924.741	4911
924.849	3972
924.956	4204
925.064	4013
925.172	3953
925.279	4051
925.387	4109
925.494	4112
925.602	4268
925.709	4234
925.816	4086
925.924	4196
926.031	4318
926.138	4211
926.245	4299
926.352	4131
926.459	4329
926.566	4424
926.673	4230
926.779	4150
926.886	4139
926.993	4032
927.099	4017
927.206	4002
927.312	3953
927.419	4086
927.525	4071
927.631	4116
927.737	4002
927.843	3987
927.95	3941
928.056	3972
928.162	4040
928.267	4078
928.373	4729
928.479	4143
928.585	3953
928.69	4055
928.796	4124
928.901	4021
929.007	3918
929.112	4067
929.218	4002
929.323	4044
929.428	4017
929.533	4162
929.638	3983
929.743	4002
929.848	4093
929.953	4032
930.058	3937
930.163	3797
930.267	3911
930.372	4029
930.477	3857
930.581	4166
930.685	3983
930.79	3819
930.894	3926
930.998	3945
931.103	4051
931.207	3747
931.311	3724
931.415	3743
931.519	3591
931.623	3603
