Data from test_V78500241_2172.txt Node
Date: Fri Mar 25 17:04:06 CST 2022
User: usil
Spectrometer: V785-0024
Trigger mode: 0
Integration Time (sec): 4.000000E-1
Scans to average: 1
Nonlinearity correction enabled: false
Boxcar width: 0
Storing dark spectrum: false
XAxis mode: Wavelengths
Number of Pixels in Spectrum: 1024
>>>>>Begin Spectral Data<<<<<
801.071	7947
801.214	7928
801.356	7837
801.499	7871
801.641	7826
801.783	7788
801.926	7993
802.068	7890
802.211	8005
802.353	8001
802.496	7883
802.638	7807
802.78	7906
802.923	7913
803.065	7875
803.208	7879
803.35	8027
803.492	8062
803.635	8145
803.777	8001
803.919	8115
804.061	8442
804.204	8214
804.346	8084
804.488	7974
804.63	8058
804.773	7936
804.915	8088
805.057	8298
805.199	8107
805.341	8240
805.483	8259
805.626	8168
805.768	8145
805.91	8225
806.052	8210
806.194	8043
806.336	8271
806.478	8180
806.62	8046
806.762	8119
806.904	8248
807.046	8476
807.188	8305
807.33	8275
807.472	8355
807.614	8153
807.756	8103
807.898	8027
808.04	7906
808.182	7894
808.324	7906
808.465	7928
808.607	8020
808.749	8103
808.891	8187
809.033	8240
809.174	8187
809.316	8103
809.458	8092
809.6	8008
809.741	8043
809.883	7963
810.025	8062
810.166	8024
810.308	8050
810.45	7959
810.591	7909
810.733	7708
810.875	7677
811.016	7472
811.158	7472
811.299	7563
811.441	7704
811.582	7719
811.724	7571
811.865	7495
812.007	7609
812.148	7632
812.29	7620
812.431	7780
812.573	7913
812.714	8005
812.855	8180
812.997	8218
813.138	8294
813.279	8145
813.421	8054
813.562	7947
813.703	7833
813.845	7734
813.986	7441
814.127	7221
814.268	7255
814.41	7149
814.551	7145
814.692	7289
814.833	6996
814.974	7065
815.115	7103
815.256	7031
815.397	6916
815.539	6966
815.68	6859
815.821	6753
815.962	6848
816.103	6783
816.244	6715
816.385	6589
816.526	6620
816.666	6517
816.807	6319
816.948	6395
817.089	6490
817.23	6437
817.371	6391
817.512	6391
817.653	6410
817.793	6350
817.934	6407
818.075	6456
818.216	6407
818.356	6365
818.497	6270
818.638	6083
818.778	6186
818.919	6098
819.06	6110
819.2	6346
819.341	6323
819.481	6319
819.622	6574
819.762	6738
819.903	6677
820.043	6631
820.184	6585
820.324	6566
820.465	6684
820.605	6623
820.746	6635
820.886	6460
821.026	6627
821.167	6707
821.307	6821
821.447	6776
821.588	6616
821.728	6623
821.868	6486
822.008	6285
822.149	6346
822.289	6334
822.429	6163
822.569	6117
822.709	6144
822.849	5885
822.99	5912
823.13	5897
823.27	5950
823.41	5764
823.55	5798
823.69	5764
823.83	5745
823.97	5695
824.11	5528
824.25	5493
824.389	5562
824.529	5608
824.669	5558
824.809	5634
824.949	5653
825.089	5585
825.228	5532
825.368	5436
825.508	5337
825.648	5349
825.787	5360
825.927	5353
826.067	5288
826.206	5322
826.346	5337
826.485	5448
826.625	5376
826.765	5532
826.904	5497
827.044	5223
827.183	5185
827.323	5113
827.462	5250
827.601	5155
827.741	5162
827.88	5197
828.02	5102
828.159	5227
828.298	5303
828.437	5391
828.577	5250
828.716	5535
828.855	5299
828.994	5143
829.134	5178
829.273	5212
829.412	5064
829.551	5155
829.69	5185
829.829	5235
829.968	5387
830.107	5201
830.246	5284
830.385	5121
830.524	5174
830.663	5075
830.802	4942
830.941	4858
831.08	4877
831.219	4946
831.357	5003
831.496	5136
831.635	4904
831.774	4801
831.913	4850
832.051	4702
832.19	4725
832.329	4812
832.467	4675
832.606	4626
832.744	4733
832.883	4683
833.022	4725
833.16	4843
833.299	4805
833.437	4790
833.576	4866
833.714	4839
833.852	4858
833.991	4896
834.129	5003
834.267	4938
834.406	4919
834.544	4957
834.682	5006
834.821	4949
834.959	5094
835.097	5022
835.235	5128
835.373	5052
835.511	5128
835.65	5018
835.788	5052
835.926	4885
836.064	4847
836.202	4923
836.34	5136
836.478	5250
836.615	5166
836.753	5216
836.891	5239
837.029	5292
837.167	5162
837.305	5159
837.443	5147
837.58	5041
837.718	5239
837.856	5178
837.993	5143
838.131	5239
838.269	5216
838.406	5201
838.544	5208
838.681	5006
838.819	5010
838.956	4854
839.094	4881
839.231	4961
839.369	5064
839.506	5440
839.643	5250
839.781	5037
839.918	4995
840.055	5071
840.193	5037
840.33	5143
840.467	5083
840.604	5204
840.742	5406
840.879	5094
841.016	5094
841.153	5113
841.29	5360
841.427	5337
841.564	5345
841.701	5318
841.838	5242
841.975	5208
842.112	5292
842.249	5132
842.385	5071
842.522	5353
842.659	5147
842.796	5094
842.933	5193
843.069	5132
843.206	5147
843.343	5280
843.479	5265
843.616	5212
843.752	4999
843.889	4999
844.025	5235
844.162	5018
844.298	5223
844.435	5117
844.571	5014
844.708	5189
844.844	5261
844.98	5292
845.117	5318
845.253	5113
845.389	5098
845.525	5159
845.661	5185
845.798	5033
845.934	5143
846.07	5056
846.206	5212
846.342	5250
846.478	5128
846.614	4976
846.75	4980
846.886	4946
847.022	5037
847.158	4995
847.294	5075
847.429	5071
847.565	5048
847.701	5337
847.837	4835
847.972	4797
848.108	4953
848.244	4934
848.379	4816
848.515	4694
848.65	4717
848.786	4721
848.921	4744
849.057	4877
849.192	4889
849.328	4866
849.463	4809
849.598	4782
849.734	4748
849.869	4687
850.004	4672
850.14	4649
850.275	4653
850.41	4527
850.545	4558
850.68	4603
850.815	4637
850.95	4592
851.085	4824
851.22	4771
851.355	4683
851.49	4607
851.625	4637
851.76	4618
851.895	4538
852.03	4512
852.165	4653
852.299	4714
852.434	4771
852.569	4774
852.703	4774
852.838	4824
852.973	4946
853.107	4900
853.242	4733
853.376	4683
853.511	4508
853.645	4588
853.78	4816
853.914	4668
854.048	4656
854.183	4622
854.317	4691
854.451	4824
854.585	4653
854.72	4664
854.854	4744
854.988	4611
855.122	4637
855.256	4527
855.39	4641
855.524	4771
855.658	4687
855.792	4675
855.926	4694
856.06	4710
856.194	4771
856.327	4664
856.461	4641
856.595	4618
856.729	4641
856.862	4736
856.996	4679
857.13	4740
857.263	4767
857.397	4793
857.53	4615
857.664	4675
857.797	4759
857.931	4755
858.064	4702
858.197	4790
858.331	4618
858.464	4580
858.597	4569
858.731	4588
858.864	4626
858.997	4596
859.13	4656
859.263	4698
859.396	4729
859.529	4603
859.662	4565
859.795	4523
859.928	4634
860.061	4782
860.194	4717
860.327	4599
860.46	4569
860.592	4691
860.725	4717
860.858	4725
860.99	4554
861.123	4569
861.256	4538
861.388	4607
861.521	5414
861.653	4481
861.786	4424
861.918	4443
862.05	4478
862.183	4599
862.315	4611
862.447	4656
862.58	4577
862.712	4371
862.844	4322
862.976	4466
863.108	4493
863.24	4774
863.372	4325
863.504	4383
863.636	4383
863.768	4474
863.9	4447
864.032	4352
864.164	4394
864.296	4417
864.428	4565
864.559	4500
864.691	4508
864.823	4523
864.954	4531
865.086	4512
865.217	4455
865.349	4424
865.48	4466
865.612	4462
865.743	4626
865.875	4447
866.006	4417
866.137	4489
866.269	4459
866.4	4383
866.531	4421
866.662	4409
866.793	4447
866.924	4386
867.055	4508
867.186	4409
867.317	4440
867.448	4402
867.579	4379
867.71	4394
867.841	4318
867.972	4474
868.103	4459
868.233	4413
868.364	4409
868.495	4478
868.625	4615
868.756	4744
868.886	4554
869.017	4634
869.147	4786
869.278	4736
869.408	4672
869.539	4634
869.669	4725
869.799	4683
869.929	4748
870.06	4755
870.19	4942
870.32	4923
870.45	4942
870.58	4968
870.71	5075
870.84	5048
870.97	4934
871.1	4831
871.23	5140
871.36	5143
871.489	5014
871.619	5033
871.749	5121
871.879	5109
872.008	5155
872.138	5029
872.267	4946
872.397	4870
872.526	4782
872.656	4717
872.785	4801
872.915	4930
873.044	5083
873.173	4915
873.303	4949
873.432	4991
873.561	4980
873.69	4828
873.819	4870
873.948	4885
874.077	4801
874.206	4729
874.335	4854
874.464	4946
874.593	5083
874.722	4942
874.851	5109
874.979	5056
875.108	5037
875.237	4889
875.365	4847
875.494	4873
875.623	4949
875.751	4831
875.88	4881
876.008	4961
876.136	5022
876.265	5166
876.393	5383
876.521	5197
876.65	5265
876.778	5162
876.906	5128
877.034	5014
877.162	5010
877.29	4976
877.418	5098
877.546	5048
877.674	5022
877.802	5067
877.93	5048
878.058	4904
878.185	4881
878.313	4991
878.441	4987
878.568	4820
878.696	4873
878.824	4976
878.951	5025
879.079	5140
879.206	5277
879.333	5090
879.461	4972
879.588	4961
879.715	5105
879.842	5216
879.97	4995
880.097	4771
880.224	4733
880.351	4805
880.478	4835
880.605	4774
880.732	4786
880.859	5083
880.986	4908
881.112	4938
881.239	4752
881.366	4706
881.493	4645
881.619	4573
881.746	4630
881.872	4630
881.999	4603
882.125	4698
882.252	4748
882.378	4793
882.505	4873
882.631	4828
882.757	4660
882.883	4759
883.01	4717
883.136	4656
883.262	4599
883.388	4603
883.514	4793
883.64	4843
883.766	4790
883.892	4668
884.018	4717
884.143	4896
884.269	4965
884.395	4710
884.52	4622
884.646	4656
884.772	4497
884.897	4554
885.023	4672
885.148	4755
885.274	4805
885.399	4809
885.524	4675
885.65	4706
885.775	4740
885.9	4717
886.025	4862
886.15	4797
886.275	4736
886.4	4653
886.525	4710
886.65	4702
886.775	4714
886.9	4831
887.025	5022
887.149	4835
887.274	4675
887.399	4626
887.523	4611
887.648	4512
887.773	4599
887.897	4748
888.021	4801
888.146	4706
888.27	4835
888.395	4877
888.519	4805
888.643	4828
888.767	4828
888.891	4687
889.015	4607
889.139	4641
889.263	4561
889.387	4740
889.511	4805
889.635	4786
889.759	4645
889.883	4637
890.006	4702
890.13	4824
890.254	4561
890.377	4687
890.501	4519
890.624	4573
890.748	4634
890.871	4497
890.995	4417
891.118	4379
891.241	4523
891.364	4588
891.488	4637
891.611	4508
891.734	4500
891.857	4615
891.98	4546
892.103	4683
892.226	4611
892.349	4535
892.471	4424
892.594	4538
892.717	4607
892.839	4622
892.962	4588
893.085	4653
893.207	4611
893.33	4383
893.452	4504
893.575	4672
893.697	4531
893.819	4778
893.941	4816
894.064	4774
894.186	4584
894.308	4561
894.43	4729
894.552	4812
894.674	4729
894.796	4596
894.918	4607
895.04	4561
895.161	4714
895.283	4656
895.405	4588
895.526	4660
895.648	4645
895.769	4660
895.891	4672
896.012	4778
896.134	4694
896.255	4653
896.376	4679
896.498	4611
896.619	4687
896.74	4603
896.861	4653
896.982	4938
897.103	5083
897.224	4816
897.345	4771
897.466	4603
897.587	4668
897.708	4919
897.828	4790
897.949	4656
898.07	4531
898.19	4584
898.311	4801
898.431	4645
898.552	4733
898.672	4771
898.792	4797
898.913	4736
899.033	4615
899.153	4538
899.273	4459
899.393	4455
899.513	4508
899.633	4493
899.753	4554
899.873	4489
899.993	4584
900.113	4538
900.232	4611
900.352	4592
900.472	4531
900.591	4375
900.711	4489
900.83	4478
900.95	4641
901.069	4691
901.189	4512
901.308	4367
901.427	4310
901.546	4375
901.665	4478
901.784	4508
901.904	4390
902.023	4318
902.141	4177
902.26	4128
902.379	4295
902.498	4261
902.617	4181
902.735	4360
902.854	4409
902.973	4383
903.091	4227
903.21	4249
903.328	4246
903.446	4306
903.565	4268
903.683	4352
903.801	4280
903.919	4402
904.038	4394
904.156	4333
904.274	4440
904.392	4352
904.51	4421
904.627	4474
904.745	4561
904.863	4660
904.981	4432
905.098	4276
905.216	4375
905.334	4436
905.451	4417
905.569	4455
905.686	4561
905.803	4577
905.921	4371
906.038	4535
906.155	4466
906.272	4394
906.389	4462
906.506	4352
906.623	4337
906.74	4447
906.857	4280
906.974	4379
907.091	4497
907.208	4672
907.324	4531
907.441	4500
907.557	4356
907.674	4344
907.79	4261
907.907	4424
908.023	4516
908.139	4459
908.256	4421
908.372	4470
908.488	4455
908.604	4356
908.72	4344
908.836	4371
908.952	4348
909.068	4447
909.184	4516
909.3	4462
909.415	4607
909.531	4535
909.647	4337
909.762	4348
909.878	4325
909.993	4413
910.108	4371
910.224	4443
910.339	4451
910.454	4363
910.57	4363
910.685	4341
910.8	4649
910.915	4626
911.03	4470
911.145	4344
911.259	4329
911.374	4352
911.489	4287
911.604	4272
911.718	4166
911.833	4185
911.947	4101
912.062	4051
912.176	4223
912.291	4253
912.405	4253
912.519	4523
912.633	4478
912.748	4356
912.862	4329
912.976	4234
913.09	4082
913.204	4169
913.318	4238
913.431	4398
913.545	4375
913.659	4424
913.772	4344
913.886	4246
914	4211
914.113	4390
914.226	4409
914.34	4348
914.453	4215
914.566	4432
914.68	4299
914.793	4344
914.906	4173
915.019	4112
915.132	4017
915.245	4188
915.358	4185
915.47	4215
915.583	4227
915.696	4318
915.809	4356
915.921	4432
916.034	4257
916.146	4227
916.259	4253
916.371	4421
916.483	4348
916.595	4219
916.708	4341
916.82	4360
916.932	4333
917.044	4333
917.156	4318
917.268	4246
917.38	4207
917.491	4295
917.603	4322
917.715	4428
917.826	4440
917.938	4367
918.049	4253
918.161	4375
918.272	4596
918.384	4558
918.495	4428
918.606	4291
918.717	4230
918.828	4352
918.939	4386
919.05	4276
919.161	4299
919.272	4166
919.383	4299
919.494	4436
919.604	4592
919.715	4462
919.826	4325
919.936	4390
920.047	4504
920.157	4489
920.267	4698
920.378	4523
920.488	4512
920.598	4691
920.708	4873
920.818	4744
920.928	4759
921.038	4953
921.148	4919
921.258	4656
921.368	4588
921.477	4519
921.587	4459
921.697	4398
921.806	4474
921.916	4413
922.025	4257
922.134	4242
922.244	4204
922.353	4341
922.462	4200
922.571	4158
922.68	4002
922.789	3983
922.898	4032
923.007	3934
923.116	4059
923.224	4059
923.333	4074
923.442	4002
923.55	3983
923.659	4010
923.767	4044
923.876	4010
923.984	4109
924.092	3979
924.201	4063
924.309	4112
924.417	4120
924.525	4032
924.633	4059
924.741	4968
924.849	3915
924.956	4090
925.064	3968
925.172	3884
925.279	3941
925.387	4097
925.494	4036
925.602	4219
925.709	4207
925.816	4074
925.924	4143
926.031	4238
926.138	4166
926.245	4200
926.352	4093
926.459	4204
926.566	4299
926.673	4150
926.779	4055
926.886	4067
926.993	3972
927.099	3968
927.206	3991
927.312	3968
927.419	4048
927.525	4055
927.631	4101
927.737	3991
927.843	3934
927.95	3850
928.056	3934
928.162	3979
928.267	4055
928.373	4672
928.479	4135
928.585	3888
928.69	3983
928.796	4063
928.901	3964
929.007	3831
929.112	4044
929.218	3979
929.323	3960
929.428	3949
929.533	4051
929.638	3907
929.743	3968
929.848	4032
929.953	3968
930.058	3926
930.163	3793
930.267	3816
930.372	3979
930.477	3819
930.581	4105
930.685	3964
930.79	3850
930.894	3873
930.998	3873
931.103	4067
931.207	3709
931.311	3679
931.415	3663
931.519	3507
931.623	3523
