Data from test_V78500241_238.txt Node
Date: Fri Mar 25 16:50:39 CST 2022
User: usil
Spectrometer: V785-0024
Trigger mode: 0
Integration Time (sec): 4.000000E-1
Scans to average: 1
Nonlinearity correction enabled: false
Boxcar width: 0
Storing dark spectrum: false
XAxis mode: Wavelengths
Number of Pixels in Spectrum: 1024
>>>>>Begin Spectral Data<<<<<
801.071	7997
801.214	8008
801.356	7852
801.499	7837
801.641	7799
801.783	7811
801.926	7993
802.068	8077
802.211	8008
802.353	8005
802.496	7852
802.638	7856
802.78	7951
802.923	7967
803.065	7826
803.208	7811
803.35	7955
803.492	7989
803.635	8126
803.777	8005
803.919	8142
804.061	8427
804.204	8111
804.346	8073
804.488	7906
804.63	8084
804.773	8027
804.915	8073
805.057	8183
805.199	8145
805.341	8187
805.483	8252
805.626	8240
805.768	8058
805.91	8164
806.052	8176
806.194	8153
806.336	8240
806.478	8134
806.62	8065
806.762	8081
806.904	8153
807.046	8446
807.188	8324
807.33	8324
807.472	8305
807.614	8077
807.756	8062
807.898	7963
808.04	7818
808.182	7860
808.324	7856
808.465	7883
808.607	8081
808.749	8107
808.891	8206
809.033	8305
809.174	8157
809.316	7989
809.458	8062
809.6	8039
809.741	7986
809.883	8031
810.025	8084
810.166	8107
810.308	8031
810.45	7925
810.591	7868
810.733	7723
810.875	7670
811.016	7502
811.158	7521
811.299	7548
811.441	7742
811.582	7594
811.724	7548
811.865	7552
812.007	7575
812.148	7571
812.29	7666
812.431	7769
812.573	7856
812.714	7978
812.855	8149
812.997	8225
813.138	8343
813.279	8240
813.421	8111
813.562	8012
813.703	7860
813.845	7689
813.986	7438
814.127	7221
814.268	7251
814.41	7179
814.551	7133
814.692	7164
814.833	7065
814.974	7099
815.115	7209
815.256	6905
815.397	6939
815.539	6924
815.68	6806
815.821	6840
815.962	6878
816.103	6768
816.244	6722
816.385	6620
816.526	6616
816.666	6494
816.807	6388
816.948	6380
817.089	6460
817.23	6445
817.371	6338
817.512	6372
817.653	6334
817.793	6342
817.934	6429
818.075	6460
818.216	6460
818.356	6429
818.497	6201
818.638	6076
818.778	6163
818.919	6117
819.06	6140
819.2	6270
819.341	6315
819.481	6353
819.622	6490
819.762	6665
819.903	6654
820.043	6597
820.184	6627
820.324	6551
820.465	6642
820.605	6673
820.746	6604
820.886	6448
821.026	6604
821.167	6658
821.307	6772
821.447	6738
821.588	6650
821.728	6544
821.868	6486
822.008	6281
822.149	6376
822.289	6346
822.429	6106
822.569	6064
822.709	6049
822.849	5958
822.99	5923
823.13	5916
823.27	5870
823.41	5802
823.55	5786
823.69	5756
823.83	5771
823.97	5634
824.11	5493
824.25	5493
824.389	5535
824.529	5623
824.669	5547
824.809	5623
824.949	5657
825.089	5596
825.228	5558
825.368	5436
825.508	5345
825.648	5337
825.787	5444
825.927	5406
826.067	5303
826.206	5288
826.346	5383
826.485	5417
826.625	5417
826.765	5509
826.904	5474
827.044	5208
827.183	5216
827.323	5136
827.462	5292
827.601	5181
827.741	5159
827.88	5250
828.02	5132
828.159	5261
828.298	5246
828.437	5368
828.577	5235
828.716	5436
828.855	5311
828.994	5189
829.134	5189
829.273	5128
829.412	5162
829.551	5151
829.69	5155
829.829	5261
829.968	5326
830.107	5269
830.246	5280
830.385	5166
830.524	5143
830.663	5041
830.802	4976
830.941	4896
831.08	4854
831.219	5006
831.357	4953
831.496	5193
831.635	4965
831.774	4801
831.913	4854
832.051	4717
832.19	4733
832.329	4831
832.467	4691
832.606	4637
832.744	4774
832.883	4702
833.022	4740
833.16	4797
833.299	4797
833.437	4809
833.576	4866
833.714	4904
833.852	4862
833.991	4904
834.129	4949
834.267	4946
834.406	4946
834.544	4995
834.682	4976
834.821	4942
834.959	5136
835.097	5056
835.235	5086
835.373	5098
835.511	5124
835.65	5029
835.788	5041
835.926	4892
836.064	4877
836.202	4934
836.34	5166
836.478	5273
836.615	5155
836.753	5227
836.891	5227
837.029	5242
837.167	5193
837.305	5128
837.443	5109
837.58	5113
837.718	5231
837.856	5261
837.993	5128
838.131	5269
838.269	5246
838.406	5193
838.544	5189
838.681	5025
838.819	5067
838.956	4930
839.094	4862
839.231	4968
839.369	5075
839.506	5406
839.643	5273
839.781	5071
839.918	5056
840.055	5102
840.193	5064
840.33	5105
840.467	5109
840.604	5254
840.742	5444
840.879	5094
841.016	5094
841.153	5174
841.29	5364
841.427	5315
841.564	5337
841.701	5318
841.838	5288
841.975	5254
842.112	5204
842.249	5117
842.385	5094
842.522	5288
842.659	5223
842.796	5109
842.933	5212
843.069	5181
843.206	5113
843.343	5296
843.479	5231
843.616	5242
843.752	5056
843.889	4995
844.025	5151
844.162	4987
844.298	5178
844.435	5086
844.571	5033
844.708	5189
844.844	5273
844.98	5364
845.117	5231
845.253	5147
845.389	5113
845.525	5181
845.661	5159
845.798	5056
845.934	5136
846.07	5094
846.206	5159
846.342	5292
846.478	5162
846.614	5022
846.75	4995
846.886	4923
847.022	5178
847.158	5010
847.294	5060
847.429	5060
847.565	5102
847.701	5307
847.837	4801
847.972	4797
848.108	4968
848.244	4923
848.379	4824
848.515	4759
848.65	4668
848.786	4748
848.921	4740
849.057	4892
849.192	4889
849.328	4824
849.463	4854
849.598	4835
849.734	4812
849.869	4691
850.004	4634
850.14	4668
850.275	4607
850.41	4481
850.545	4504
850.68	4637
850.815	4672
850.95	4664
851.085	4847
851.22	4778
851.355	4706
851.49	4599
851.625	4660
851.76	4660
851.895	4615
852.03	4500
852.165	4672
852.299	4786
852.434	4755
852.569	4759
852.703	4790
852.838	4877
852.973	4934
853.107	4915
853.242	4759
853.376	4698
853.511	4519
853.645	4599
853.78	4805
853.914	4729
854.048	4683
854.183	4687
854.317	4691
854.451	4877
854.585	4649
854.72	4622
854.854	4744
854.988	4519
855.122	4645
855.256	4554
855.39	4653
855.524	4744
855.658	4752
855.792	4710
855.926	4725
856.06	4767
856.194	4812
856.327	4675
856.461	4588
856.595	4603
856.729	4615
856.862	4790
856.996	4729
857.13	4710
857.263	4771
857.397	4839
857.53	4615
857.664	4767
857.797	4805
857.931	4759
858.064	4710
858.197	4755
858.331	4660
858.464	4592
858.597	4542
858.731	4668
858.864	4660
858.997	4592
859.13	4668
859.263	4717
859.396	4694
859.529	4611
859.662	4588
859.795	4538
859.928	4660
860.061	4786
860.194	4774
860.327	4596
860.46	4573
860.592	4698
860.725	4691
860.858	4752
860.99	4599
861.123	4577
861.256	4519
861.388	4561
861.521	5436
861.653	4493
861.786	4447
861.918	4436
862.05	4512
862.183	4542
862.315	4634
862.447	4691
862.58	4512
862.712	4386
862.844	4352
862.976	4489
863.108	4500
863.24	4927
863.372	4337
863.504	4402
863.636	4383
863.768	4466
863.9	4424
864.032	4398
864.164	4394
864.296	4527
864.428	4558
864.559	4535
864.691	4565
864.823	4478
864.954	4493
865.086	4523
865.217	4459
865.349	4455
865.48	4443
865.612	4481
865.743	4584
865.875	4500
866.006	4459
866.137	4459
866.269	4443
866.4	4451
866.531	4421
866.662	4375
866.793	4424
866.924	4413
867.055	4504
867.186	4443
867.317	4398
867.448	4360
867.579	4436
867.71	4405
867.841	4363
867.972	4405
868.103	4432
868.233	4432
868.364	4462
868.495	4497
868.625	4622
868.756	4771
868.886	4596
869.017	4607
869.147	4767
869.278	4759
869.408	4634
869.539	4626
869.669	4698
869.799	4634
869.929	4771
870.06	4759
870.19	5006
870.32	4881
870.45	4972
870.58	5014
870.71	5075
870.84	5109
870.97	4934
871.1	4915
871.23	5132
871.36	5151
871.489	5045
871.619	5067
871.749	5136
871.879	5102
872.008	5174
872.138	5067
872.267	4984
872.397	4866
872.526	4778
872.656	4771
872.785	4873
872.915	4976
873.044	5029
873.173	4942
873.303	4934
873.432	4942
873.561	4923
873.69	4877
873.819	4854
873.948	4896
874.077	4847
874.206	4790
874.335	4809
874.464	4904
874.593	5029
874.722	4919
874.851	5067
874.979	5037
875.108	5067
875.237	4877
875.365	4831
875.494	4934
875.623	4953
875.751	4847
875.88	4866
876.008	4980
876.136	5025
876.265	5143
876.393	5307
876.521	5288
876.65	5208
876.778	5143
876.906	5102
877.034	4984
877.162	5060
877.29	5025
877.418	5067
877.546	5014
877.674	5022
877.802	5094
877.93	5018
878.058	4923
878.185	4892
878.313	4976
878.441	4881
878.568	4790
878.696	4858
878.824	5006
878.951	5056
879.079	5105
879.206	5364
879.333	5094
879.461	4934
879.588	5018
879.715	5124
879.842	5185
879.97	5003
880.097	4809
880.224	4717
880.351	4835
880.478	4839
880.605	4778
880.732	4733
880.859	5041
880.986	4892
881.112	4915
881.239	4820
881.366	4694
881.493	4584
881.619	4622
881.746	4596
881.872	4687
881.999	4615
882.125	4694
882.252	4778
882.378	4809
882.505	4942
882.631	4816
882.757	4721
882.883	4736
883.01	4752
883.136	4694
883.262	4565
883.388	4611
883.514	4812
883.64	4828
883.766	4771
883.892	4660
884.018	4733
884.143	4892
884.269	5041
884.395	4683
884.52	4634
884.646	4656
884.772	4592
884.897	4565
885.023	4691
885.148	4793
885.274	4877
885.399	4736
885.524	4702
885.65	4710
885.775	4717
885.9	4710
886.025	4847
886.15	4763
886.275	4748
886.4	4668
886.525	4714
886.65	4714
886.775	4675
886.9	4889
887.025	5022
887.149	4812
887.274	4691
887.399	4603
887.523	4561
887.648	4607
887.773	4584
887.897	4824
888.021	4782
888.146	4717
888.27	4824
888.395	4923
888.519	4862
888.643	4843
888.767	4835
888.891	4736
889.015	4603
889.139	4668
889.263	4603
889.387	4755
889.511	4862
889.635	4812
889.759	4664
889.883	4637
890.006	4755
890.13	4843
890.254	4596
890.377	4691
890.501	4535
890.624	4535
890.748	4664
890.871	4500
890.995	4421
891.118	4375
891.241	4504
891.364	4558
891.488	4668
891.611	4550
891.734	4538
891.857	4622
891.98	4542
892.103	4637
892.226	4584
892.349	4580
892.471	4394
892.594	4531
892.717	4527
892.839	4577
892.962	4634
893.085	4641
893.207	4611
893.33	4459
893.452	4535
893.575	4687
893.697	4561
893.819	4820
893.941	4839
894.064	4721
894.186	4596
894.308	4554
894.43	4759
894.552	4889
894.674	4755
894.796	4611
894.918	4611
895.04	4618
895.161	4706
895.283	4637
895.405	4577
895.526	4622
895.648	4744
895.769	4691
895.891	4710
896.012	4744
896.134	4660
896.255	4706
896.376	4577
896.498	4626
896.619	4698
896.74	4599
896.861	4592
896.982	4908
897.103	5045
897.224	4835
897.345	4752
897.466	4698
897.587	4702
897.708	4835
897.828	4793
897.949	4641
898.07	4626
898.19	4706
898.311	4782
898.431	4626
898.552	4721
898.672	4843
898.792	4797
898.913	4736
899.033	4622
899.153	4497
899.273	4447
899.393	4462
899.513	4569
899.633	4508
899.753	4546
899.873	4516
899.993	4618
900.113	4599
900.232	4615
900.352	4592
900.472	4512
900.591	4424
900.711	4527
900.83	4409
900.95	4618
901.069	4694
901.189	4542
901.308	4390
901.427	4306
901.546	4451
901.665	4470
901.784	4500
901.904	4367
902.023	4363
902.141	4173
902.26	4154
902.379	4287
902.498	4268
902.617	4223
902.735	4360
902.854	4409
902.973	4390
903.091	4272
903.21	4287
903.328	4295
903.446	4249
903.565	4219
903.683	4367
903.801	4249
903.919	4390
904.038	4371
904.156	4299
904.274	4428
904.392	4329
904.51	4443
904.627	4474
904.745	4558
904.863	4637
904.981	4402
905.098	4325
905.216	4390
905.334	4436
905.451	4436
905.569	4443
905.686	4550
905.803	4554
905.921	4428
906.038	4580
906.155	4497
906.272	4329
906.389	4474
906.506	4333
906.623	4371
906.74	4432
906.857	4310
906.974	4394
907.091	4577
907.208	4672
907.324	4538
907.441	4516
907.557	4322
907.674	4375
907.79	4363
907.907	4398
908.023	4508
908.139	4531
908.256	4462
908.372	4485
908.488	4470
908.604	4348
908.72	4314
908.836	4341
908.952	4352
909.068	4440
909.184	4554
909.3	4470
909.415	4634
909.531	4561
909.647	4394
909.762	4360
909.878	4356
909.993	4447
910.108	4421
910.224	4443
910.339	4512
910.454	4352
910.57	4329
910.685	4322
910.8	4664
910.915	4615
911.03	4489
911.145	4371
911.259	4318
911.374	4356
911.489	4306
911.604	4303
911.718	4162
911.833	4219
911.947	4109
912.062	4082
912.176	4310
912.291	4253
912.405	4261
912.519	4466
912.633	4542
912.748	4405
912.862	4310
912.976	4204
913.09	4101
913.204	4185
913.318	4268
913.431	4436
913.545	4341
913.659	4413
913.772	4352
913.886	4246
914	4207
914.113	4386
914.226	4421
914.34	4398
914.453	4188
914.566	4481
914.68	4325
914.793	4325
914.906	4109
915.019	4177
915.132	4071
915.245	4211
915.358	4242
915.47	4227
915.583	4291
915.696	4325
915.809	4413
915.921	4432
916.034	4227
916.146	4280
916.259	4227
916.371	4356
916.483	4375
916.595	4242
916.708	4341
916.82	4333
916.932	4356
917.044	4379
917.156	4348
917.268	4238
917.38	4291
917.491	4261
917.603	4341
917.715	4405
917.826	4455
917.938	4348
918.049	4246
918.161	4436
918.272	4554
918.384	4527
918.495	4440
918.606	4276
918.717	4215
918.828	4363
918.939	4341
919.05	4303
919.161	4310
919.272	4181
919.383	4249
919.494	4451
919.604	4584
919.715	4428
919.826	4367
919.936	4379
920.047	4538
920.157	4508
920.267	4710
920.378	4573
920.488	4535
920.598	4679
920.708	4896
920.818	4793
920.928	4782
921.038	4980
921.148	4972
921.258	4645
921.368	4626
921.477	4508
921.587	4447
921.697	4409
921.806	4504
921.916	4428
922.025	4291
922.134	4253
922.244	4215
922.353	4352
922.462	4268
922.571	4139
922.68	4032
922.789	4029
922.898	4086
923.007	3926
923.116	4013
923.224	4071
923.333	4078
923.442	4002
923.55	3975
923.659	4063
923.767	4074
923.876	4021
923.984	4116
924.092	4025
924.201	4063
924.309	4135
924.417	4109
924.525	4105
924.633	4124
924.741	5136
924.849	3918
924.956	4105
925.064	3994
925.172	3899
925.279	3964
925.387	4082
925.494	4086
925.602	4204
925.709	4200
925.816	4044
925.924	4128
926.031	4268
926.138	4173
926.245	4215
926.352	4078
926.459	4272
926.566	4287
926.673	4211
926.779	4124
926.886	4090
926.993	3991
927.099	3979
927.206	3903
927.312	3953
927.419	4051
927.525	4010
927.631	4112
927.737	4006
927.843	3956
927.95	3861
928.056	3945
928.162	4013
928.267	4086
928.373	4607
928.479	4131
928.585	3880
928.69	4059
928.796	4078
928.901	4006
929.007	3930
929.112	4006
929.218	3968
929.323	3937
929.428	3934
929.533	4135
929.638	3884
929.743	3956
929.848	4032
929.953	3953
930.058	3949
930.163	3793
930.267	3819
930.372	3991
930.477	3816
930.581	4055
930.685	3911
930.79	3808
930.894	3873
930.998	3850
931.103	4082
931.207	3637
931.311	3747
931.415	3644
931.519	3538
931.623	3545
