Data from test_V78500241_1614.txt Node
Date: Fri Mar 25 17:00:13 CST 2022
User: usil
Spectrometer: V785-0024
Trigger mode: 0
Integration Time (sec): 4.000000E-1
Scans to average: 1
Nonlinearity correction enabled: false
Boxcar width: 0
Storing dark spectrum: false
XAxis mode: Wavelengths
Number of Pixels in Spectrum: 1024
>>>>>Begin Spectral Data<<<<<
801.071	8020
801.214	7993
801.356	7807
801.499	7799
801.641	7757
801.783	7803
801.926	7940
802.068	7902
802.211	8008
802.353	8005
802.496	7826
802.638	7841
802.78	7890
802.923	7894
803.065	7864
803.208	7860
803.35	8035
803.492	8088
803.635	8130
803.777	7986
803.919	8130
804.061	8427
804.204	8149
804.346	8054
804.488	7982
804.63	8073
804.773	8012
804.915	8123
805.057	8328
805.199	8176
805.341	8176
805.483	8290
805.626	8256
805.768	8027
805.91	8187
806.052	8248
806.194	8145
806.336	8290
806.478	8138
806.62	8039
806.762	8119
806.904	8324
807.046	8457
807.188	8358
807.33	8259
807.472	8286
807.614	8130
807.756	8138
807.898	7921
808.04	7925
808.182	7940
808.324	7860
808.465	7845
808.607	8039
808.749	8111
808.891	8123
809.033	8221
809.174	8202
809.316	8039
809.458	8012
809.6	7989
809.741	8001
809.883	7989
810.025	7993
810.166	8058
810.308	8016
810.45	7967
810.591	7814
810.733	7666
810.875	7655
811.016	7548
811.158	7464
811.299	7571
811.441	7658
811.582	7643
811.724	7578
811.865	7544
812.007	7559
812.148	7590
812.29	7636
812.431	7757
812.573	7864
812.714	7978
812.855	8145
812.997	8183
813.138	8324
813.279	8191
813.421	8073
813.562	7936
813.703	7830
813.845	7788
813.986	7365
814.127	7263
814.268	7244
814.41	7221
814.551	7198
814.692	7187
814.833	7065
814.974	7129
815.115	7160
815.256	7027
815.397	6894
815.539	6970
815.68	6886
815.821	6798
815.962	6863
816.103	6730
816.244	6715
816.385	6642
816.526	6566
816.666	6490
816.807	6380
816.948	6437
817.089	6441
817.23	6391
817.371	6342
817.512	6323
817.653	6395
817.793	6407
817.934	6376
818.075	6456
818.216	6395
818.356	6399
818.497	6228
818.638	6106
818.778	6095
818.919	6175
819.06	6121
819.2	6289
819.341	6315
819.481	6315
819.622	6540
819.762	6715
819.903	6650
820.043	6574
820.184	6574
820.324	6582
820.465	6662
820.605	6696
820.746	6665
820.886	6559
821.026	6540
821.167	6734
821.307	6802
821.447	6764
821.588	6722
821.728	6536
821.868	6506
822.008	6350
822.149	6350
822.289	6372
822.429	6148
822.569	6057
822.709	6106
822.849	5885
822.99	5885
823.13	5874
823.27	5866
823.41	5779
823.55	5775
823.69	5764
823.83	5729
823.97	5653
824.11	5520
824.25	5452
824.389	5512
824.529	5573
824.669	5532
824.809	5608
824.949	5627
825.089	5589
825.228	5512
825.368	5368
825.508	5269
825.648	5318
825.787	5402
825.927	5326
826.067	5239
826.206	5258
826.346	5357
826.485	5402
826.625	5429
826.765	5497
826.904	5421
827.044	5280
827.183	5178
827.323	5102
827.462	5231
827.601	5220
827.741	5193
827.88	5162
828.02	5075
828.159	5204
828.298	5296
828.437	5379
828.577	5296
828.716	5505
828.855	5273
828.994	5124
829.134	5132
829.273	5189
829.412	5121
829.551	5128
829.69	5155
829.829	5235
829.968	5391
830.107	5284
830.246	5296
830.385	5170
830.524	5151
830.663	5102
830.802	4949
830.941	4919
831.08	4877
831.219	4987
831.357	5003
831.496	5151
831.635	4965
831.774	4850
831.913	4812
832.051	4736
832.19	4744
832.329	4847
832.467	4672
832.606	4630
832.744	4714
832.883	4702
833.022	4694
833.16	4805
833.299	4801
833.437	4793
833.576	4828
833.714	4858
833.852	4889
833.991	4896
834.129	4900
834.267	4965
834.406	4919
834.544	4972
834.682	4976
834.821	4949
834.959	5162
835.097	4999
835.235	5132
835.373	5113
835.511	5117
835.65	5033
835.788	5090
835.926	4858
836.064	4820
836.202	4900
836.34	5105
836.478	5216
836.615	5083
836.753	5109
836.891	5280
837.029	5189
837.167	5216
837.305	5143
837.443	5132
837.58	5090
837.718	5227
837.856	5170
837.993	5143
838.131	5189
838.269	5223
838.406	5185
838.544	5197
838.681	5033
838.819	5014
838.956	4904
839.094	4923
839.231	4991
839.369	5067
839.506	5383
839.643	5246
839.781	5045
839.918	5025
840.055	5064
840.193	5060
840.33	5086
840.467	5128
840.604	5162
840.742	5421
840.879	5083
841.016	5132
841.153	5151
841.29	5391
841.427	5334
841.564	5349
841.701	5349
841.838	5220
841.975	5265
842.112	5246
842.249	5197
842.385	5071
842.522	5334
842.659	5181
842.796	5197
842.933	5143
843.069	5170
843.206	5102
843.343	5337
843.479	5216
843.616	5258
843.752	5014
843.889	5029
844.025	5204
844.162	5029
844.298	5235
844.435	5079
844.571	5025
844.708	5162
844.844	5288
844.98	5311
845.117	5296
845.253	5124
845.389	5064
845.525	5117
845.661	5079
845.798	4999
845.934	5064
846.07	5018
846.206	5197
846.342	5280
846.478	5121
846.614	4991
846.75	4930
846.886	4961
847.022	5105
847.158	5014
847.294	5018
847.429	5056
847.565	5018
847.701	5315
847.837	4854
847.972	4805
848.108	4946
848.244	4942
848.379	4790
848.515	4729
848.65	4691
848.786	4748
848.921	4744
849.057	4866
849.192	4911
849.328	4824
849.463	4812
849.598	4767
849.734	4755
849.869	4687
850.004	4584
850.14	4622
850.275	4611
850.41	4569
850.545	4565
850.68	4580
850.815	4618
850.95	4603
851.085	4847
851.22	4691
851.355	4649
851.49	4607
851.625	4573
851.76	4637
851.895	4538
852.03	4550
852.165	4675
852.299	4714
852.434	4809
852.569	4744
852.703	4725
852.838	4858
852.973	4881
853.107	4885
853.242	4740
853.376	4687
853.511	4565
853.645	4580
853.78	4805
853.914	4694
854.048	4641
854.183	4641
854.317	4714
854.451	4854
854.585	4679
854.72	4634
854.854	4733
854.988	4584
855.122	4577
855.256	4512
855.39	4637
855.524	4771
855.658	4694
855.792	4721
855.926	4725
856.06	4774
856.194	4767
856.327	4656
856.461	4561
856.595	4577
856.729	4580
856.862	4736
856.996	4691
857.13	4721
857.263	4755
857.397	4782
857.53	4634
857.664	4752
857.797	4782
857.931	4740
858.064	4694
858.197	4733
858.331	4634
858.464	4596
858.597	4546
858.731	4660
858.864	4615
858.997	4599
859.13	4626
859.263	4694
859.396	4637
859.529	4558
859.662	4588
859.795	4531
859.928	4611
860.061	4706
860.194	4790
860.327	4603
860.46	4592
860.592	4668
860.725	4683
860.858	4717
860.99	4516
861.123	4550
861.256	4512
861.388	4577
861.521	5155
861.653	4489
861.786	4390
861.918	4443
862.05	4538
862.183	4561
862.315	4603
862.447	4607
862.58	4500
862.712	4371
862.844	4318
862.976	4512
863.108	4462
863.24	4752
863.372	4268
863.504	4440
863.636	4455
863.768	4500
863.9	4394
864.032	4337
864.164	4402
864.296	4424
864.428	4550
864.559	4523
864.691	4535
864.823	4523
864.954	4497
865.086	4516
865.217	4455
865.349	4402
865.48	4417
865.612	4451
865.743	4599
865.875	4436
866.006	4371
866.137	4443
866.269	4424
866.4	4455
866.531	4394
866.662	4352
866.793	4413
866.924	4390
867.055	4462
867.186	4478
867.317	4405
867.448	4329
867.579	4386
867.71	4383
867.841	4398
867.972	4428
868.103	4402
868.233	4428
868.364	4443
868.495	4497
868.625	4641
868.756	4740
868.886	4569
869.017	4641
869.147	4748
869.278	4786
869.408	4664
869.539	4672
869.669	4729
869.799	4687
869.929	4698
870.06	4717
870.19	4995
870.32	4896
870.45	4949
870.58	4976
870.71	5022
870.84	5086
870.97	5006
871.1	4892
871.23	5147
871.36	5155
871.489	5033
871.619	4995
871.749	5098
871.879	5094
872.008	5128
872.138	5018
872.267	4976
872.397	4835
872.526	4801
872.656	4710
872.785	4763
872.915	4953
873.044	5045
873.173	4873
873.303	4949
873.432	4984
873.561	4915
873.69	4866
873.819	4847
873.948	4892
874.077	4809
874.206	4717
874.335	4831
874.464	4896
874.593	5060
874.722	4942
874.851	5098
874.979	5071
875.108	5018
875.237	4843
875.365	4835
875.494	4870
875.623	4968
875.751	4843
875.88	4896
876.008	5029
876.136	5029
876.265	5189
876.393	5322
876.521	5269
876.65	5212
876.778	5140
876.906	5064
877.034	5029
877.162	5045
877.29	4976
877.418	5006
877.546	5083
877.674	5022
877.802	5006
877.93	5014
878.058	4953
878.185	4835
878.313	4938
878.441	4957
878.568	4801
878.696	4831
878.824	4908
878.951	5003
879.079	5048
879.206	5258
879.333	5086
879.461	4934
879.588	5029
879.715	5121
879.842	5201
879.97	4968
880.097	4824
880.224	4733
880.351	4771
880.478	4885
880.605	4831
880.732	4778
880.859	5052
880.986	4892
881.112	4911
881.239	4812
881.366	4664
881.493	4634
881.619	4561
881.746	4618
881.872	4645
881.999	4622
882.125	4675
882.252	4767
882.378	4797
882.505	4923
882.631	4797
882.757	4622
882.883	4736
883.01	4702
883.136	4687
883.262	4630
883.388	4599
883.514	4786
883.64	4854
883.766	4790
883.892	4687
884.018	4687
884.143	4873
884.269	4938
884.395	4645
884.52	4618
884.646	4683
884.772	4599
884.897	4531
885.023	4698
885.148	4740
885.274	4850
885.399	4778
885.524	4664
885.65	4656
885.775	4687
885.9	4733
886.025	4835
886.15	4786
886.275	4698
886.4	4634
886.525	4786
886.65	4679
886.775	4729
886.9	4885
887.025	5018
887.149	4831
887.274	4683
887.399	4599
887.523	4584
887.648	4565
887.773	4538
887.897	4717
888.021	4733
888.146	4630
888.27	4797
888.395	4858
888.519	4828
888.643	4786
888.767	4782
888.891	4649
889.015	4596
889.139	4683
889.263	4607
889.387	4744
889.511	4858
889.635	4816
889.759	4649
889.883	4618
890.006	4698
890.13	4862
890.254	4634
890.377	4698
890.501	4527
890.624	4546
890.748	4641
890.871	4531
890.995	4405
891.118	4402
891.241	4470
891.364	4569
891.488	4637
891.611	4508
891.734	4577
891.857	4561
891.98	4561
892.103	4630
892.226	4565
892.349	4512
892.471	4398
892.594	4573
892.717	4596
892.839	4577
892.962	4603
893.085	4679
893.207	4599
893.33	4428
893.452	4497
893.575	4630
893.697	4569
893.819	4831
893.941	4839
894.064	4710
894.186	4565
894.308	4550
894.43	4744
894.552	4824
894.674	4786
894.796	4527
894.918	4615
895.04	4527
895.161	4698
895.283	4622
895.405	4561
895.526	4634
895.648	4675
895.769	4702
895.891	4675
896.012	4721
896.134	4733
896.255	4660
896.376	4622
896.498	4630
896.619	4660
896.74	4603
896.861	4599
896.982	4980
897.103	5060
897.224	4858
897.345	4755
897.466	4653
897.587	4755
897.708	4847
897.828	4771
897.949	4603
898.07	4554
898.19	4626
898.311	4793
898.431	4660
898.552	4774
898.672	4835
898.792	4843
898.913	4733
899.033	4660
899.153	4485
899.273	4462
899.393	4474
899.513	4538
899.633	4493
899.753	4516
899.873	4504
899.993	4603
900.113	4554
900.232	4577
900.352	4550
900.472	4519
900.591	4394
900.711	4481
900.83	4394
900.95	4580
901.069	4687
901.189	4527
901.308	4348
901.427	4295
901.546	4337
901.665	4470
901.784	4542
901.904	4398
902.023	4268
902.141	4196
902.26	4181
902.379	4291
902.498	4261
902.617	4207
902.735	4398
902.854	4398
902.973	4318
903.091	4204
903.21	4219
903.328	4329
903.446	4253
903.565	4291
903.683	4318
903.801	4276
903.919	4421
904.038	4421
904.156	4306
904.274	4443
904.392	4390
904.51	4493
904.627	4478
904.745	4580
904.863	4660
904.981	4424
905.098	4276
905.216	4360
905.334	4379
905.451	4428
905.569	4462
905.686	4519
905.803	4538
905.921	4386
906.038	4561
906.155	4470
906.272	4379
906.389	4424
906.506	4341
906.623	4379
906.74	4375
906.857	4303
906.974	4325
907.091	4538
907.208	4717
907.324	4580
907.441	4474
907.557	4310
907.674	4379
907.79	4310
907.907	4402
908.023	4474
908.139	4451
908.256	4363
908.372	4443
908.488	4428
908.604	4356
908.72	4303
908.836	4386
908.952	4348
909.068	4409
909.184	4577
909.3	4493
909.415	4588
909.531	4573
909.647	4363
909.762	4360
909.878	4337
909.993	4440
910.108	4409
910.224	4421
910.339	4497
910.454	4367
910.57	4386
910.685	4284
910.8	4645
910.915	4592
911.03	4466
911.145	4356
911.259	4329
911.374	4367
911.489	4276
911.604	4265
911.718	4173
911.833	4207
911.947	4051
912.062	4010
912.176	4192
912.291	4200
912.405	4227
912.519	4497
912.633	4546
912.748	4367
912.862	4299
912.976	4147
913.09	4086
913.204	4169
913.318	4204
913.431	4386
913.545	4375
913.659	4443
913.772	4367
913.886	4200
914	4223
914.113	4341
914.226	4455
914.34	4363
914.453	4211
914.566	4405
914.68	4310
914.793	4265
914.906	4139
915.019	4147
915.132	4051
915.245	4192
915.358	4219
915.47	4227
915.583	4287
915.696	4322
915.809	4379
915.921	4440
916.034	4246
916.146	4253
916.259	4272
916.371	4394
916.483	4348
916.595	4261
916.708	4306
916.82	4306
916.932	4306
917.044	4337
917.156	4325
917.268	4242
917.38	4265
917.491	4238
917.603	4341
917.715	4424
917.826	4394
917.938	4352
918.049	4234
918.161	4360
918.272	4538
918.384	4493
918.495	4428
918.606	4287
918.717	4166
918.828	4318
918.939	4322
919.05	4318
919.161	4337
919.272	4143
919.383	4253
919.494	4455
919.604	4622
919.715	4447
919.826	4363
919.936	4367
920.047	4474
920.157	4443
920.267	4672
920.378	4565
920.488	4481
920.598	4702
920.708	4885
920.818	4767
920.928	4733
921.038	4919
921.148	4900
921.258	4588
921.368	4558
921.477	4481
921.587	4424
921.697	4383
921.806	4561
921.916	4386
922.025	4272
922.134	4238
922.244	4230
922.353	4314
922.462	4166
922.571	4139
922.68	3994
922.789	3975
922.898	4010
923.007	3983
923.116	4071
923.224	4040
923.333	4074
923.442	4010
923.55	3979
923.659	4006
923.767	4120
923.876	3994
923.984	4116
924.092	3949
924.201	4067
924.309	4120
924.417	4078
924.525	4074
924.633	4074
924.741	4908
924.849	3949
924.956	4112
925.064	4021
925.172	3892
925.279	3994
925.387	4063
925.494	4048
925.602	4227
925.709	4188
925.816	4071
925.924	4143
926.031	4215
926.138	4181
926.245	4166
926.352	4112
926.459	4246
926.566	4291
926.673	4177
926.779	4044
926.886	4040
926.993	3953
927.099	3964
927.206	3953
927.312	3949
927.419	4082
927.525	4017
927.631	4090
927.737	3953
927.843	3934
927.95	3876
928.056	3937
928.162	3979
928.267	4063
928.373	4519
928.479	4093
928.585	3861
928.69	4006
928.796	4078
928.901	4002
929.007	3842
929.112	3998
929.218	3998
929.323	3956
929.428	3922
929.533	4086
929.638	3922
929.743	3937
929.848	4021
929.953	3968
930.058	3903
930.163	3743
930.267	3812
930.372	3968
930.477	3819
930.581	4071
930.685	3930
930.79	3800
930.894	3880
930.998	3869
931.103	4048
931.207	3736
931.311	3671
931.415	3690
931.519	3568
931.623	3564
