Data from test_V78500241_2498.txt Node
Date: Fri Mar 25 17:06:22 CST 2022
User: usil
Spectrometer: V785-0024
Trigger mode: 0
Integration Time (sec): 4.000000E-1
Scans to average: 1
Nonlinearity correction enabled: false
Boxcar width: 0
Storing dark spectrum: false
XAxis mode: Wavelengths
Number of Pixels in Spectrum: 1024
>>>>>Begin Spectral Data<<<<<
801.071	8039
801.214	8001
801.356	7780
801.499	7902
801.641	7772
801.783	7856
801.926	8001
802.068	7940
802.211	8024
802.353	7989
802.496	7837
802.638	7868
802.78	7925
802.923	7936
803.065	7913
803.208	7894
803.35	8031
803.492	8084
803.635	8180
803.777	8050
803.919	8107
804.061	8454
804.204	8062
804.346	8123
804.488	7928
804.63	8039
804.773	8005
804.915	8134
805.057	8240
805.199	8161
805.341	8172
805.483	8256
805.626	8218
805.768	8142
805.91	8206
806.052	8202
806.194	8130
806.336	8301
806.478	8123
806.62	8054
806.762	8096
806.904	8259
807.046	8415
807.188	8347
807.33	8313
807.472	8298
807.614	8134
807.756	8176
807.898	7986
808.04	7879
808.182	7799
808.324	7811
808.465	7913
808.607	7955
808.749	8130
808.891	8263
809.033	8355
809.174	8225
809.316	8062
809.458	8100
809.6	7925
809.741	8008
809.883	8035
810.025	8138
810.166	8077
810.308	8020
810.45	8039
810.591	7868
810.733	7765
810.875	7651
811.016	7548
811.158	7438
811.299	7655
811.441	7696
811.582	7689
811.724	7556
811.865	7636
812.007	7616
812.148	7502
812.29	7632
812.431	7761
812.573	7826
812.714	7967
812.855	8195
812.997	8176
813.138	8279
813.279	8183
813.421	8084
813.562	7982
813.703	7803
813.845	7788
813.986	7422
814.127	7274
814.268	7259
814.41	7232
814.551	7213
814.692	7217
814.833	7107
814.974	7103
815.115	7141
815.256	6954
815.397	6970
815.539	6913
815.68	6764
815.821	6783
815.962	6878
816.103	6859
816.244	6741
816.385	6627
816.526	6612
816.666	6456
816.807	6361
816.948	6437
817.089	6441
817.23	6475
817.371	6388
817.512	6285
817.653	6334
817.793	6350
817.934	6418
818.075	6452
818.216	6369
818.356	6395
818.497	6178
818.638	6155
818.778	6175
818.919	6167
819.06	6140
819.2	6353
819.341	6304
819.481	6331
819.622	6517
819.762	6688
819.903	6707
820.043	6559
820.184	6620
820.324	6631
820.465	6707
820.605	6719
820.746	6700
820.886	6521
821.026	6631
821.167	6722
821.307	6859
821.447	6833
821.588	6722
821.728	6650
821.868	6570
822.008	6334
822.149	6331
822.289	6361
822.429	6186
822.569	6117
822.709	6178
822.849	5912
822.99	5908
823.13	5988
823.27	5973
823.41	5805
823.55	5866
823.69	5798
823.83	5790
823.97	5684
824.11	5539
824.25	5547
824.389	5581
824.529	5657
824.669	5547
824.809	5661
824.949	5657
825.089	5623
825.228	5592
825.368	5471
825.508	5398
825.648	5383
825.787	5372
825.927	5417
826.067	5322
826.206	5318
826.346	5410
826.485	5425
826.625	5486
826.765	5535
826.904	5516
827.044	5376
827.183	5273
827.323	5143
827.462	5299
827.601	5204
827.741	5246
827.88	5345
828.02	5155
828.159	5284
828.298	5357
828.437	5406
828.577	5364
828.716	5547
828.855	5383
828.994	5181
829.134	5170
829.273	5239
829.412	5189
829.551	5189
829.69	5216
829.829	5277
829.968	5448
830.107	5292
830.246	5296
830.385	5254
830.524	5166
830.663	5117
830.802	5018
830.941	4953
831.08	4873
831.219	5037
831.357	5010
831.496	5231
831.635	4968
831.774	4949
831.913	4908
832.051	4805
832.19	4763
832.329	4938
832.467	4733
832.606	4710
832.744	4809
832.883	4812
833.022	4793
833.16	4843
833.299	4892
833.437	4877
833.576	4896
833.714	4854
833.852	4930
833.991	4919
834.129	5003
834.267	4953
834.406	4972
834.544	5022
834.682	4999
834.821	5014
834.959	5193
835.097	5045
835.235	5155
835.373	5147
835.511	5136
835.65	5098
835.788	5041
835.926	4896
836.064	4870
836.202	4927
836.34	5174
836.478	5223
836.615	5132
836.753	5242
836.891	5349
837.029	5284
837.167	5254
837.305	5185
837.443	5208
837.58	5132
837.718	5273
837.856	5208
837.993	5189
838.131	5235
838.269	5189
838.406	5216
838.544	5147
838.681	5102
838.819	5071
838.956	4854
839.094	4957
839.231	5071
839.369	5143
839.506	5455
839.643	5322
839.781	5105
839.918	5025
840.055	5094
840.193	5132
840.33	5113
840.467	5181
840.604	5185
840.742	5474
840.879	5147
841.016	5128
841.153	5181
841.29	5417
841.427	5406
841.564	5376
841.701	5360
841.838	5315
841.975	5273
842.112	5296
842.249	5197
842.385	5113
842.522	5353
842.659	5239
842.796	5178
842.933	5189
843.069	5170
843.206	5170
843.343	5322
843.479	5315
843.616	5303
843.752	5056
843.889	5014
844.025	5223
844.162	5086
844.298	5216
844.435	5109
844.571	5064
844.708	5223
844.844	5337
844.98	5349
845.117	5288
845.253	5181
845.389	5117
845.525	5162
845.661	5189
845.798	5083
845.934	5185
846.07	5083
846.206	5208
846.342	5273
846.478	5269
846.614	5071
846.75	5025
846.886	4938
847.022	5162
847.158	5029
847.294	5117
847.429	5159
847.565	5105
847.701	5341
847.837	4858
847.972	4900
848.108	4995
848.244	4957
848.379	4824
848.515	4752
848.65	4717
848.786	4763
848.921	4839
849.057	4911
849.192	4927
849.328	4835
849.463	4831
849.598	4847
849.734	4790
849.869	4698
850.004	4622
850.14	4679
850.275	4656
850.41	4569
850.545	4565
850.68	4637
850.815	4660
850.95	4611
851.085	4843
851.22	4771
851.355	4668
851.49	4656
851.625	4679
851.76	4668
851.895	4603
852.03	4542
852.165	4694
852.299	4763
852.434	4748
852.569	4748
852.703	4771
852.838	4870
852.973	4930
853.107	4911
853.242	4744
853.376	4687
853.511	4611
853.645	4637
853.78	4847
853.914	4725
854.048	4714
854.183	4691
854.317	4702
854.451	4862
854.585	4721
854.72	4611
854.854	4782
854.988	4596
855.122	4683
855.256	4554
855.39	4660
855.524	4771
855.658	4767
855.792	4733
855.926	4752
856.06	4755
856.194	4881
856.327	4752
856.461	4691
856.595	4637
856.729	4641
856.862	4843
856.996	4698
857.13	4744
857.263	4801
857.397	4820
857.53	4691
857.664	4740
857.797	4831
857.931	4835
858.064	4740
858.197	4774
858.331	4660
858.464	4618
858.597	4565
858.731	4653
858.864	4672
858.997	4599
859.13	4687
859.263	4694
859.396	4733
859.529	4561
859.662	4607
859.795	4527
859.928	4706
860.061	4824
860.194	4797
860.327	4645
860.46	4580
860.592	4748
860.725	4725
860.858	4748
860.99	4596
861.123	4527
861.256	4550
861.388	4637
861.521	5208
861.653	4523
861.786	4466
861.918	4478
862.05	4527
862.183	4618
862.315	4615
862.447	4656
862.58	4569
862.712	4405
862.844	4367
862.976	4546
863.108	4474
863.24	4908
863.372	4356
863.504	4432
863.636	4421
863.768	4531
863.9	4462
864.032	4421
864.164	4459
864.296	4489
864.428	4531
864.559	4584
864.691	4577
864.823	4512
864.954	4554
865.086	4527
865.217	4493
865.349	4440
865.48	4459
865.612	4500
865.743	4675
865.875	4478
866.006	4413
866.137	4516
866.269	4447
866.4	4462
866.531	4379
866.662	4421
866.793	4440
866.924	4424
867.055	4504
867.186	4485
867.317	4432
867.448	4390
867.579	4409
867.71	4440
867.841	4337
867.972	4489
868.103	4500
868.233	4470
868.364	4481
868.495	4493
868.625	4729
868.756	4790
868.886	4611
869.017	4634
869.147	4733
869.278	4782
869.408	4698
869.539	4702
869.669	4733
869.799	4653
869.929	4774
870.06	4729
870.19	4942
870.32	4892
870.45	4999
870.58	4976
870.71	5128
870.84	5117
870.97	4987
871.1	4896
871.23	5204
871.36	5143
871.489	5033
871.619	5079
871.749	5102
871.879	5098
872.008	5231
872.138	5029
872.267	4991
872.397	4877
872.526	4820
872.656	4740
872.785	4870
872.915	5018
873.044	5025
873.173	4984
873.303	5014
873.432	4965
873.561	4980
873.69	4892
873.819	4885
873.948	4908
874.077	4847
874.206	4759
874.335	4847
874.464	4961
874.593	5079
874.722	5029
874.851	5151
874.979	5105
875.108	5075
875.237	4946
875.365	4889
875.494	4889
875.623	5003
875.751	4896
875.88	4908
876.008	4999
876.136	5090
876.265	5235
876.393	5357
876.521	5250
876.65	5250
876.778	5174
876.906	5147
877.034	4991
877.162	5098
877.29	5067
877.418	5086
877.546	5033
877.674	4987
877.802	5025
877.93	5037
878.058	4930
878.185	4896
878.313	5041
878.441	4976
878.568	4870
878.696	4915
878.824	4991
878.951	5018
879.079	5140
879.206	5288
879.333	5162
879.461	4991
879.588	5033
879.715	5121
879.842	5258
879.97	5033
880.097	4820
880.224	4782
880.351	4797
880.478	4866
880.605	4797
880.732	4786
880.859	5090
880.986	4904
881.112	4854
881.239	4782
881.366	4691
881.493	4603
881.619	4577
881.746	4611
881.872	4637
881.999	4679
882.125	4691
882.252	4793
882.378	4877
882.505	4991
882.631	4854
882.757	4679
882.883	4752
883.01	4721
883.136	4687
883.262	4592
883.388	4630
883.514	4850
883.64	4873
883.766	4782
883.892	4710
884.018	4752
884.143	4904
884.269	5014
884.395	4767
884.52	4626
884.646	4679
884.772	4622
884.897	4599
885.023	4679
885.148	4790
885.274	4885
885.399	4828
885.524	4767
885.65	4702
885.775	4721
885.9	4736
886.025	4873
886.15	4824
886.275	4698
886.4	4698
886.525	4752
886.65	4721
886.775	4763
886.9	4900
887.025	5014
887.149	4820
887.274	4634
887.399	4626
887.523	4611
887.648	4588
887.773	4603
887.897	4752
888.021	4812
888.146	4725
888.27	4820
888.395	4927
888.519	4763
888.643	4805
888.767	4816
888.891	4691
889.015	4611
889.139	4675
889.263	4634
889.387	4767
889.511	4900
889.635	4786
889.759	4618
889.883	4649
890.006	4714
890.13	4835
890.254	4649
890.377	4679
890.501	4592
890.624	4531
890.748	4660
890.871	4538
890.995	4451
891.118	4375
891.241	4538
891.364	4561
891.488	4573
891.611	4497
891.734	4546
891.857	4611
891.98	4561
892.103	4675
892.226	4599
892.349	4588
892.471	4462
892.594	4615
892.717	4577
892.839	4596
892.962	4679
893.085	4683
893.207	4580
893.33	4478
893.452	4504
893.575	4656
893.697	4607
893.819	4786
893.941	4850
894.064	4774
894.186	4592
894.308	4550
894.43	4740
894.552	4790
894.674	4755
894.796	4577
894.918	4531
895.04	4577
895.161	4706
895.283	4698
895.405	4607
895.526	4615
895.648	4672
895.769	4736
895.891	4714
896.012	4687
896.134	4748
896.255	4645
896.376	4626
896.498	4660
896.619	4710
896.74	4630
896.861	4641
896.982	4889
897.103	5098
897.224	4820
897.345	4748
897.466	4694
897.587	4733
897.708	4858
897.828	4774
897.949	4698
898.07	4565
898.19	4660
898.311	4805
898.431	4691
898.552	4752
898.672	4854
898.792	4786
898.913	4702
899.033	4634
899.153	4523
899.273	4424
899.393	4497
899.513	4535
899.633	4558
899.753	4542
899.873	4516
899.993	4615
900.113	4523
900.232	4630
900.352	4519
900.472	4459
900.591	4413
900.711	4493
900.83	4455
900.95	4603
901.069	4698
901.189	4538
901.308	4379
901.427	4329
901.546	4367
901.665	4481
901.784	4508
901.904	4356
902.023	4352
902.141	4177
902.26	4204
902.379	4265
902.498	4257
902.617	4249
902.735	4386
902.854	4383
902.973	4356
903.091	4230
903.21	4234
903.328	4295
903.446	4284
903.565	4291
903.683	4398
903.801	4299
903.919	4386
904.038	4424
904.156	4318
904.274	4447
904.392	4386
904.51	4409
904.627	4519
904.745	4577
904.863	4675
904.981	4386
905.098	4348
905.216	4375
905.334	4451
905.451	4451
905.569	4443
905.686	4569
905.803	4584
905.921	4390
906.038	4611
906.155	4527
906.272	4417
906.389	4470
906.506	4363
906.623	4348
906.74	4405
906.857	4280
906.974	4333
907.091	4519
907.208	4603
907.324	4641
907.441	4535
907.557	4379
907.674	4337
907.79	4257
907.907	4394
908.023	4466
908.139	4500
908.256	4466
908.372	4489
908.488	4481
908.604	4344
908.72	4341
908.836	4390
908.952	4348
909.068	4421
909.184	4596
909.3	4470
909.415	4565
909.531	4588
909.647	4341
909.762	4383
909.878	4333
909.993	4455
910.108	4443
910.224	4421
910.339	4497
910.454	4371
910.57	4375
910.685	4314
910.8	4603
910.915	4596
911.03	4527
911.145	4310
911.259	4356
911.374	4398
911.489	4329
911.604	4253
911.718	4207
911.833	4173
911.947	4120
912.062	3994
912.176	4185
912.291	4238
912.405	4265
912.519	4443
912.633	4497
912.748	4352
912.862	4356
912.976	4230
913.09	4071
913.204	4215
913.318	4257
913.431	4383
913.545	4344
913.659	4394
913.772	4383
913.886	4185
914	4261
914.113	4356
914.226	4333
914.34	4417
914.453	4177
914.566	4409
914.68	4295
914.793	4352
914.906	4196
915.019	4166
915.132	4078
915.245	4207
915.358	4211
915.47	4253
915.583	4280
915.696	4303
915.809	4375
915.921	4424
916.034	4276
916.146	4227
916.259	4162
916.371	4409
916.483	4352
916.595	4295
916.708	4333
916.82	4337
916.932	4333
917.044	4325
917.156	4295
917.268	4257
917.38	4253
917.491	4265
917.603	4352
917.715	4440
917.826	4432
917.938	4325
918.049	4227
918.161	4367
918.272	4550
918.384	4538
918.495	4519
918.606	4322
918.717	4192
918.828	4322
918.939	4367
919.05	4242
919.161	4322
919.272	4135
919.383	4253
919.494	4432
919.604	4637
919.715	4398
919.826	4310
919.936	4405
920.047	4523
920.157	4485
920.267	4691
920.378	4535
920.488	4485
920.598	4717
920.708	4862
920.818	4725
920.928	4755
921.038	4980
921.148	4930
921.258	4660
921.368	4577
921.477	4538
921.587	4443
921.697	4413
921.806	4542
921.916	4394
922.025	4272
922.134	4246
922.244	4265
922.353	4360
922.462	4166
922.571	4169
922.68	4006
922.789	3968
922.898	4051
923.007	3987
923.116	4093
923.224	4059
923.333	4082
923.442	3972
923.55	3937
923.659	4040
923.767	4078
923.876	4032
923.984	4082
924.092	4002
924.201	4051
924.309	4078
924.417	4093
924.525	4051
924.633	4105
924.741	4866
924.849	3949
924.956	4105
925.064	3975
925.172	3892
925.279	3975
925.387	4086
925.494	4059
925.602	4200
925.709	4143
925.816	4029
925.924	4120
926.031	4185
926.138	4188
926.245	4207
926.352	4124
926.459	4253
926.566	4268
926.673	4105
926.779	4078
926.886	4093
926.993	3987
927.099	3934
927.206	3949
927.312	3975
927.419	4101
927.525	4029
927.631	4086
927.737	3930
927.843	3930
927.95	3846
928.056	3888
928.162	3975
928.267	4074
928.373	4580
928.479	4166
928.585	3873
928.69	4055
928.796	4082
928.901	3972
929.007	3850
929.112	3972
929.218	4006
929.323	3915
929.428	3964
929.533	4131
929.638	3918
929.743	3975
929.848	4021
929.953	4013
930.058	3968
930.163	3747
930.267	3835
930.372	3953
930.477	3819
930.581	4086
930.685	3926
930.79	3850
930.894	3899
930.998	3819
931.103	3983
931.207	3701
931.311	3667
931.415	3679
931.519	3557
931.623	3534
