Data from test_V78500241_2497.txt Node
Date: Fri Mar 25 17:06:21 CST 2022
User: usil
Spectrometer: V785-0024
Trigger mode: 0
Integration Time (sec): 4.000000E-1
Scans to average: 1
Nonlinearity correction enabled: false
Boxcar width: 0
Storing dark spectrum: false
XAxis mode: Wavelengths
Number of Pixels in Spectrum: 1024
>>>>>Begin Spectral Data<<<<<
801.071	8031
801.214	8012
801.356	7845
801.499	7826
801.641	7795
801.783	7818
801.926	7997
802.068	7944
802.211	7974
802.353	8024
802.496	7860
802.638	7894
802.78	7856
802.923	7917
803.065	7849
803.208	7871
803.35	7970
803.492	8103
803.635	8214
803.777	8012
803.919	8180
804.061	8469
804.204	8168
804.346	8046
804.488	8005
804.63	8111
804.773	7936
804.915	8107
805.057	8240
805.199	8244
805.341	8199
805.483	8324
805.626	8279
805.768	8168
805.91	8199
806.052	8195
806.194	8130
806.336	8195
806.478	8119
806.62	8065
806.762	8111
806.904	8279
807.046	8457
807.188	8358
807.33	8339
807.472	8339
807.614	8107
807.756	8157
807.898	7974
808.04	7887
808.182	7841
808.324	7944
808.465	7898
808.607	8069
808.749	8092
808.891	8206
809.033	8355
809.174	8176
809.316	7993
809.458	8073
809.6	8027
809.741	8062
809.883	8020
810.025	8134
810.166	8039
810.308	7936
810.45	8024
810.591	7879
810.733	7719
810.875	7613
811.016	7487
811.158	7472
811.299	7556
811.441	7696
811.582	7742
811.724	7590
811.865	7460
812.007	7575
812.148	7594
812.29	7639
812.431	7712
812.573	7909
812.714	7993
812.855	8096
812.997	8313
813.138	8298
813.279	8168
813.421	8069
813.562	8001
813.703	7852
813.845	7772
813.986	7426
814.127	7244
814.268	7194
814.41	7187
814.551	7198
814.692	7202
814.833	7103
814.974	7080
815.115	7091
815.256	7023
815.397	6909
815.539	6909
815.68	6798
815.821	6722
815.962	6909
816.103	6848
816.244	6738
816.385	6620
816.526	6612
816.666	6521
816.807	6331
816.948	6467
817.089	6494
817.23	6403
817.371	6395
817.512	6361
817.653	6380
817.793	6414
817.934	6391
818.075	6448
818.216	6407
818.356	6441
818.497	6304
818.638	6182
818.778	6148
818.919	6114
819.06	6209
819.2	6353
819.341	6300
819.481	6384
819.622	6566
819.762	6753
819.903	6673
820.043	6608
820.184	6585
820.324	6601
820.465	6719
820.605	6677
820.746	6703
820.886	6506
821.026	6722
821.167	6734
821.307	6787
821.447	6760
821.588	6726
821.728	6623
821.868	6528
822.008	6334
822.149	6418
822.289	6380
822.429	6163
822.569	6125
822.709	6175
822.849	5904
822.99	5942
823.13	5950
823.27	5988
823.41	5908
823.55	5802
823.69	5844
823.83	5794
823.97	5684
824.11	5524
824.25	5554
824.389	5611
824.529	5634
824.669	5551
824.809	5665
824.949	5691
825.089	5638
825.228	5592
825.368	5436
825.508	5379
825.648	5368
825.787	5425
825.927	5406
826.067	5307
826.206	5360
826.346	5406
826.485	5410
826.625	5440
826.765	5596
826.904	5611
827.044	5273
827.183	5223
827.323	5254
827.462	5277
827.601	5185
827.741	5254
827.88	5239
828.02	5174
828.159	5330
828.298	5303
828.437	5379
828.577	5330
828.716	5532
828.855	5303
828.994	5216
829.134	5181
829.273	5220
829.412	5162
829.551	5204
829.69	5220
829.829	5307
829.968	5417
830.107	5360
830.246	5318
830.385	5227
830.524	5178
830.663	5121
830.802	5067
830.941	4953
831.08	4923
831.219	5033
831.357	4999
831.496	5201
831.635	4976
831.774	4919
831.913	4934
832.051	4809
832.19	4793
832.329	4873
832.467	4740
832.606	4729
832.744	4755
832.883	4755
833.022	4763
833.16	4839
833.299	4824
833.437	4839
833.576	4850
833.714	4911
833.852	4961
833.991	4991
834.129	5010
834.267	5018
834.406	4934
834.544	5010
834.682	5022
834.821	4987
834.959	5212
835.097	5045
835.235	5162
835.373	5105
835.511	5162
835.65	5098
835.788	5014
835.926	4923
836.064	4934
836.202	4980
836.34	5216
836.478	5250
836.615	5197
836.753	5265
836.891	5334
837.029	5284
837.167	5231
837.305	5250
837.443	5197
837.58	5105
837.718	5334
837.856	5140
837.993	5220
838.131	5250
838.269	5212
838.406	5223
838.544	5166
838.681	5060
838.819	5075
838.956	4930
839.094	4923
839.231	4991
839.369	5193
839.506	5455
839.643	5337
839.781	5136
839.918	5033
840.055	5105
840.193	5124
840.33	5143
840.467	5151
840.604	5208
840.742	5425
840.879	5128
841.016	5140
841.153	5159
841.29	5387
841.427	5349
841.564	5341
841.701	5410
841.838	5326
841.975	5254
842.112	5296
842.249	5235
842.385	5128
842.522	5341
842.659	5239
842.796	5140
842.933	5235
843.069	5174
843.206	5178
843.343	5337
843.479	5322
843.616	5318
843.752	5094
843.889	4984
844.025	5185
844.162	5067
844.298	5220
844.435	5136
844.571	5090
844.708	5212
844.844	5296
844.98	5402
845.117	5330
845.253	5151
845.389	5113
845.525	5197
845.661	5185
845.798	5098
845.934	5178
846.07	5113
846.206	5288
846.342	5296
846.478	5178
846.614	5014
846.75	4957
846.886	4976
847.022	5189
847.158	5056
847.294	5067
847.429	5143
847.565	5090
847.701	5398
847.837	4847
847.972	4801
848.108	4999
848.244	4984
848.379	4824
848.515	4767
848.65	4736
848.786	4774
848.921	4862
849.057	4854
849.192	4976
849.328	4835
849.463	4816
849.598	4790
849.734	4767
849.869	4740
850.004	4649
850.14	4694
850.275	4668
850.41	4554
850.545	4611
850.68	4691
850.815	4596
850.95	4656
851.085	4873
851.22	4767
851.355	4698
851.49	4618
851.625	4645
851.76	4672
851.895	4615
852.03	4577
852.165	4691
852.299	4736
852.434	4820
852.569	4801
852.703	4854
852.838	4847
852.973	4976
853.107	4949
853.242	4790
853.376	4710
853.511	4615
853.645	4630
853.78	4870
853.914	4679
854.048	4706
854.183	4691
854.317	4752
854.451	4911
854.585	4702
854.72	4664
854.854	4778
854.988	4675
855.122	4668
855.256	4523
855.39	4733
855.524	4828
855.658	4782
855.792	4725
855.926	4725
856.06	4786
856.194	4790
856.327	4698
856.461	4607
856.595	4649
856.729	4668
856.862	4793
856.996	4797
857.13	4774
857.263	4828
857.397	4831
857.53	4687
857.664	4759
857.797	4736
857.931	4801
858.064	4729
858.197	4740
858.331	4653
858.464	4641
858.597	4550
858.731	4630
858.864	4664
858.997	4637
859.13	4717
859.263	4691
859.396	4733
859.529	4603
859.662	4558
859.795	4546
859.928	4622
860.061	4759
860.194	4763
860.327	4649
860.46	4573
860.592	4736
860.725	4778
860.858	4759
860.99	4615
861.123	4596
861.256	4538
861.388	4649
861.521	5216
861.653	4561
861.786	4447
861.918	4470
862.05	4588
862.183	4577
862.315	4679
862.447	4672
862.58	4573
862.712	4405
862.844	4352
862.976	4516
863.108	4451
863.24	4930
863.372	4402
863.504	4398
863.636	4421
863.768	4527
863.9	4474
864.032	4390
864.164	4390
864.296	4531
864.428	4523
864.559	4618
864.691	4561
864.823	4577
864.954	4512
865.086	4531
865.217	4478
865.349	4405
865.48	4481
865.612	4462
865.743	4622
865.875	4497
866.006	4436
866.137	4508
866.269	4451
866.4	4485
866.531	4447
866.662	4424
866.793	4409
866.924	4451
867.055	4493
867.186	4470
867.317	4478
867.448	4405
867.579	4413
867.71	4455
867.841	4386
867.972	4508
868.103	4440
868.233	4443
868.364	4466
868.495	4523
868.625	4630
868.756	4767
868.886	4584
869.017	4588
869.147	4759
869.278	4828
869.408	4702
869.539	4656
869.669	4752
869.799	4702
869.929	4786
870.06	4740
870.19	4984
870.32	4938
870.45	4953
870.58	4991
870.71	5105
870.84	5098
870.97	5003
871.1	4942
871.23	5212
871.36	5147
871.489	5067
871.619	5105
871.749	5113
871.879	5151
872.008	5155
872.138	5098
872.267	5014
872.397	4896
872.526	4839
872.656	4771
872.785	4839
872.915	5010
873.044	5025
873.173	4923
873.303	4976
873.432	5010
873.561	4919
873.69	4870
873.819	4892
873.948	4980
874.077	4828
874.206	4797
874.335	4797
874.464	4942
874.593	5109
874.722	5010
874.851	5170
874.979	5151
875.108	5079
875.237	4927
875.365	4885
875.494	4896
875.623	4957
875.751	4915
875.88	4911
876.008	5014
876.136	5041
876.265	5204
876.393	5387
876.521	5307
876.65	5197
876.778	5178
876.906	5102
877.034	5083
877.162	5060
877.29	4949
877.418	5140
877.546	5071
877.674	5064
877.802	4991
877.93	5033
878.058	4953
878.185	4877
878.313	4930
878.441	4961
878.568	4782
878.696	4885
878.824	4953
878.951	5014
879.079	5132
879.206	5269
879.333	5090
879.461	5006
879.588	4987
879.715	5159
879.842	5239
879.97	5025
880.097	4801
880.224	4771
880.351	4805
880.478	4820
880.605	4866
880.732	4790
880.859	5105
880.986	4889
881.112	4957
881.239	4797
881.366	4679
881.493	4615
881.619	4603
881.746	4637
881.872	4672
881.999	4675
882.125	4729
882.252	4824
882.378	4885
882.505	5014
882.631	4790
882.757	4649
882.883	4725
883.01	4740
883.136	4660
883.262	4645
883.388	4611
883.514	4809
883.64	4889
883.766	4816
883.892	4694
884.018	4729
884.143	4904
884.269	5022
884.395	4694
884.52	4660
884.646	4672
884.772	4592
884.897	4561
885.023	4679
885.148	4790
885.274	4839
885.399	4835
885.524	4672
885.65	4729
885.775	4755
885.9	4759
886.025	4858
886.15	4778
886.275	4725
886.4	4630
886.525	4752
886.65	4706
886.775	4687
886.9	4953
887.025	5037
887.149	4786
887.274	4694
887.399	4603
887.523	4615
887.648	4577
887.773	4603
887.897	4786
888.021	4774
888.146	4687
888.27	4797
888.395	4923
888.519	4824
888.643	4839
888.767	4839
888.891	4710
889.015	4637
889.139	4694
889.263	4607
889.387	4767
889.511	4843
889.635	4812
889.759	4653
889.883	4637
890.006	4721
890.13	4824
890.254	4691
890.377	4721
890.501	4558
890.624	4542
890.748	4706
890.871	4478
890.995	4455
891.118	4409
891.241	4500
891.364	4508
891.488	4641
891.611	4447
891.734	4580
891.857	4577
891.98	4550
892.103	4668
892.226	4596
892.349	4546
892.471	4440
892.594	4561
892.717	4573
892.839	4588
892.962	4561
893.085	4649
893.207	4588
893.33	4497
893.452	4527
893.575	4660
893.697	4611
893.819	4866
893.941	4854
894.064	4782
894.186	4531
894.308	4531
894.43	4729
894.552	4797
894.674	4694
894.796	4569
894.918	4584
895.04	4519
895.161	4687
895.283	4672
895.405	4611
895.526	4615
895.648	4691
895.769	4733
895.891	4691
896.012	4740
896.134	4714
896.255	4687
896.376	4596
896.498	4645
896.619	4714
896.74	4580
896.861	4637
896.982	4949
897.103	5079
897.224	4866
897.345	4714
897.466	4653
897.587	4714
897.708	4908
897.828	4797
897.949	4653
898.07	4569
898.19	4622
898.311	4812
898.431	4637
898.552	4774
898.672	4828
898.792	4828
898.913	4736
899.033	4622
899.153	4531
899.273	4436
899.393	4523
899.513	4584
899.633	4493
899.753	4546
899.873	4535
899.993	4584
900.113	4527
900.232	4592
900.352	4569
900.472	4508
900.591	4371
900.711	4527
900.83	4443
900.95	4611
901.069	4740
901.189	4558
901.308	4394
901.427	4337
901.546	4337
901.665	4417
901.784	4531
901.904	4402
902.023	4322
902.141	4219
902.26	4166
902.379	4337
902.498	4280
902.617	4280
902.735	4398
902.854	4390
902.973	4383
903.091	4234
903.21	4227
903.328	4272
903.446	4280
903.565	4268
903.683	4348
903.801	4322
903.919	4383
904.038	4428
904.156	4303
904.274	4417
904.392	4398
904.51	4398
904.627	4436
904.745	4519
904.863	4615
904.981	4390
905.098	4303
905.216	4371
905.334	4451
905.451	4443
905.569	4394
905.686	4577
905.803	4519
905.921	4451
906.038	4519
906.155	4485
906.272	4405
906.389	4485
906.506	4363
906.623	4375
906.74	4375
906.857	4303
906.974	4394
907.091	4542
907.208	4694
907.324	4630
907.441	4504
907.557	4352
907.674	4352
907.79	4325
907.907	4386
908.023	4470
908.139	4493
908.256	4443
908.372	4485
908.488	4504
908.604	4337
908.72	4299
908.836	4356
908.952	4329
909.068	4466
909.184	4565
909.3	4481
909.415	4615
909.531	4565
909.647	4386
909.762	4383
909.878	4310
909.993	4474
910.108	4440
910.224	4398
910.339	4459
910.454	4390
910.57	4383
910.685	4299
910.8	4683
910.915	4580
911.03	4478
911.145	4348
911.259	4348
911.374	4352
911.489	4299
911.604	4310
911.718	4158
911.833	4215
911.947	4082
912.062	4051
912.176	4223
912.291	4268
912.405	4253
912.519	4447
912.633	4504
912.748	4344
912.862	4325
912.976	4196
913.09	4086
913.204	4147
913.318	4284
913.431	4413
913.545	4367
913.659	4428
913.772	4356
913.886	4227
914	4215
914.113	4341
914.226	4462
914.34	4386
914.453	4223
914.566	4459
914.68	4310
914.793	4318
914.906	4116
915.019	4093
915.132	4109
915.245	4181
915.358	4181
915.47	4238
915.583	4284
915.696	4344
915.809	4386
915.921	4421
916.034	4268
916.146	4272
916.259	4158
916.371	4379
916.483	4394
916.595	4295
916.708	4329
916.82	4314
916.932	4280
917.044	4314
917.156	4318
917.268	4238
917.38	4261
917.491	4261
917.603	4310
917.715	4363
917.826	4440
917.938	4344
918.049	4219
918.161	4333
918.272	4538
918.384	4462
918.495	4466
918.606	4318
918.717	4223
918.828	4341
918.939	4383
919.05	4303
919.161	4280
919.272	4158
919.383	4257
919.494	4432
919.604	4630
919.715	4421
919.826	4306
919.936	4409
920.047	4485
920.157	4428
920.267	4672
920.378	4558
920.488	4478
920.598	4702
920.708	4847
920.818	4771
920.928	4752
921.038	4919
921.148	4908
921.258	4603
921.368	4573
921.477	4508
921.587	4447
921.697	4379
921.806	4561
921.916	4436
922.025	4265
922.134	4249
922.244	4242
922.353	4318
922.462	4185
922.571	4154
922.68	4029
922.789	4006
922.898	4029
923.007	4010
923.116	4116
923.224	4078
923.333	4055
923.442	4013
923.55	3998
923.659	4025
923.767	4128
923.876	4032
923.984	4143
924.092	3960
924.201	4059
924.309	4120
924.417	4109
924.525	4067
924.633	4078
924.741	4892
924.849	3937
924.956	4131
925.064	3937
925.172	3884
925.279	3960
925.387	4063
925.494	4044
925.602	4188
925.709	4188
925.816	4071
925.924	4162
926.031	4219
926.138	4188
926.245	4196
926.352	4090
926.459	4242
926.566	4272
926.673	4139
926.779	4097
926.886	4097
926.993	3994
927.099	3956
927.206	3953
927.312	3975
927.419	4071
927.525	4032
927.631	4090
927.737	3972
927.843	3953
927.95	3850
928.056	3968
928.162	3991
928.267	4078
928.373	4599
928.479	4128
928.585	3846
928.69	4010
928.796	4067
928.901	3983
929.007	3812
929.112	4013
929.218	3979
929.323	3949
929.428	3968
929.533	4139
929.638	3937
929.743	3960
929.848	4013
929.953	3983
930.058	3937
930.163	3812
930.267	3831
930.372	3991
930.477	3804
930.581	4128
930.685	3937
930.79	3800
930.894	3869
930.998	3903
931.103	4040
931.207	3682
931.311	3705
931.415	3644
931.519	3526
931.623	3530
