Data from test_V78500241_1631.txt Node
Date: Fri Mar 25 17:00:20 CST 2022
User: usil
Spectrometer: V785-0024
Trigger mode: 0
Integration Time (sec): 4.000000E-1
Scans to average: 1
Nonlinearity correction enabled: false
Boxcar width: 0
Storing dark spectrum: false
XAxis mode: Wavelengths
Number of Pixels in Spectrum: 1024
>>>>>Begin Spectral Data<<<<<
801.071	8012
801.214	7921
801.356	7849
801.499	7883
801.641	7811
801.783	7822
801.926	7894
802.068	7909
802.211	8001
802.353	7986
802.496	7830
802.638	7898
802.78	7864
802.923	7928
803.065	7852
803.208	7803
803.35	7917
803.492	8020
803.635	8145
803.777	8005
803.919	8035
804.061	8431
804.204	8180
804.346	8054
804.488	7974
804.63	8077
804.773	8020
804.915	8126
805.057	8320
805.199	8199
805.341	8172
805.483	8240
805.626	8233
805.768	8107
805.91	8229
806.052	8210
806.194	8111
806.336	8279
806.478	8046
806.62	8020
806.762	8187
806.904	8324
807.046	8518
807.188	8400
807.33	8301
807.472	8248
807.614	8191
807.756	8153
807.898	7970
808.04	7868
808.182	7860
808.324	7887
808.465	7913
808.607	8142
808.749	8107
808.891	8176
809.033	8305
809.174	8313
809.316	8081
809.458	8005
809.6	7997
809.741	8020
809.883	8020
810.025	8050
810.166	7993
810.308	8046
810.45	8012
810.591	7753
810.733	7636
810.875	7563
811.016	7586
811.158	7453
811.299	7605
811.441	7693
811.582	7651
811.724	7540
811.865	7559
812.007	7544
812.148	7632
812.29	7544
812.431	7731
812.573	7902
812.714	7997
812.855	8111
812.997	8172
813.138	8301
813.279	8221
813.421	8103
813.562	7967
813.703	7803
813.845	7624
813.986	7400
814.127	7244
814.268	7213
814.41	7179
814.551	7126
814.692	7236
814.833	7095
814.974	7072
815.115	7103
815.256	6958
815.397	6916
815.539	6928
815.68	6848
815.821	6779
815.962	6825
816.103	6825
816.244	6700
816.385	6547
816.526	6582
816.666	6521
816.807	6273
816.948	6467
817.089	6418
817.23	6437
817.371	6319
817.512	6334
817.653	6403
817.793	6353
817.934	6350
818.075	6445
818.216	6407
818.356	6388
818.497	6285
818.638	6136
818.778	6159
818.919	6102
819.06	6159
819.2	6308
819.341	6365
819.481	6342
819.622	6494
819.762	6730
819.903	6760
820.043	6620
820.184	6601
820.324	6551
820.465	6749
820.605	6669
820.746	6715
820.886	6471
821.026	6627
821.167	6650
821.307	6734
821.447	6810
821.588	6719
821.728	6578
821.868	6475
822.008	6277
822.149	6308
822.289	6388
822.429	6125
822.569	6091
822.709	6140
822.849	5889
822.99	5828
823.13	5851
823.27	5939
823.41	5813
823.55	5809
823.69	5733
823.83	5760
823.97	5649
824.11	5486
824.25	5448
824.389	5554
824.529	5596
824.669	5532
824.809	5592
824.949	5646
825.089	5577
825.228	5528
825.368	5349
825.508	5341
825.648	5341
825.787	5379
825.927	5334
826.067	5311
826.206	5303
826.346	5315
826.485	5398
826.625	5337
826.765	5547
826.904	5459
827.044	5235
827.183	5151
827.323	5121
827.462	5216
827.601	5117
827.741	5159
827.88	5201
828.02	5113
828.159	5208
828.298	5307
828.437	5318
828.577	5322
828.716	5467
828.855	5299
828.994	5174
829.134	5147
829.273	5185
829.412	5094
829.551	5098
829.69	5124
829.829	5201
829.968	5322
830.107	5231
830.246	5288
830.385	5208
830.524	5128
830.663	5086
830.802	4911
830.941	4900
831.08	4835
831.219	4972
831.357	4900
831.496	5151
831.635	4908
831.774	4835
831.913	4843
832.051	4721
832.19	4683
832.329	4828
832.467	4656
832.606	4634
832.744	4740
832.883	4714
833.022	4717
833.16	4771
833.299	4782
833.437	4824
833.576	4839
833.714	4858
833.852	4847
833.991	4839
834.129	4968
834.267	4923
834.406	4934
834.544	4946
834.682	4984
834.821	4908
834.959	5170
835.097	4987
835.235	5162
835.373	5048
835.511	5109
835.65	5018
835.788	4991
835.926	4835
836.064	4877
836.202	4858
836.34	5117
836.478	5151
836.615	5109
836.753	5197
836.891	5284
837.029	5273
837.167	5197
837.305	5136
837.443	5109
837.58	5052
837.718	5284
837.856	5151
837.993	5178
838.131	5208
838.269	5189
838.406	5159
838.544	5204
838.681	5041
838.819	5006
838.956	4911
839.094	4877
839.231	4942
839.369	5033
839.506	5398
839.643	5216
839.781	5060
839.918	4999
840.055	5109
840.193	5083
840.33	5064
840.467	5124
840.604	5162
840.742	5406
840.879	5094
841.016	5071
841.153	5113
841.29	5391
841.427	5299
841.564	5250
841.701	5345
841.838	5277
841.975	5299
842.112	5227
842.249	5105
842.385	5079
842.522	5337
842.659	5151
842.796	5155
842.933	5159
843.069	5155
843.206	5090
843.343	5269
843.479	5204
843.616	5258
843.752	5006
843.889	4980
844.025	5201
844.162	5014
844.298	5223
844.435	5071
844.571	5045
844.708	5185
844.844	5273
844.98	5258
845.117	5311
845.253	5121
845.389	5083
845.525	5117
845.661	5124
845.798	5037
845.934	5121
846.07	5071
846.206	5178
846.342	5307
846.478	5117
846.614	5025
846.75	4961
846.886	4911
847.022	5132
847.158	5029
847.294	5064
847.429	5052
847.565	5037
847.701	5322
847.837	4847
847.972	4809
848.108	4976
848.244	4881
848.379	4771
848.515	4729
848.65	4755
848.786	4721
848.921	4736
849.057	4858
849.192	4889
849.328	4812
849.463	4824
849.598	4748
849.734	4771
849.869	4679
850.004	4577
850.14	4664
850.275	4615
850.41	4516
850.545	4481
850.68	4603
850.815	4607
850.95	4679
851.085	4847
851.22	4740
851.355	4664
851.49	4599
851.625	4630
851.76	4573
851.895	4584
852.03	4489
852.165	4656
852.299	4717
852.434	4786
852.569	4729
852.703	4774
852.838	4824
852.973	4923
853.107	4892
853.242	4691
853.376	4683
853.511	4565
853.645	4626
853.78	4801
853.914	4664
854.048	4618
854.183	4634
854.317	4649
854.451	4873
854.585	4687
854.72	4603
854.854	4763
854.988	4599
855.122	4634
855.256	4481
855.39	4694
855.524	4778
855.658	4710
855.792	4694
855.926	4725
856.06	4714
856.194	4809
856.327	4660
856.461	4588
856.595	4611
856.729	4618
856.862	4706
856.996	4691
857.13	4729
857.263	4721
857.397	4763
857.53	4596
857.664	4721
857.797	4771
857.931	4759
858.064	4691
858.197	4702
858.331	4649
858.464	4615
858.597	4542
858.731	4611
858.864	4637
858.997	4580
859.13	4668
859.263	4687
859.396	4687
859.529	4634
859.662	4531
859.795	4508
859.928	4607
860.061	4717
860.194	4729
860.327	4630
860.46	4512
860.592	4694
860.725	4729
860.858	4698
860.99	4531
861.123	4535
861.256	4508
861.388	4565
861.521	5098
861.653	4474
861.786	4436
861.918	4394
862.05	4516
862.183	4561
862.315	4588
862.447	4679
862.58	4535
862.712	4409
862.844	4299
862.976	4493
863.108	4394
863.24	4782
863.372	4352
863.504	4421
863.636	4398
863.768	4470
863.9	4421
864.032	4352
864.164	4375
864.296	4462
864.428	4516
864.559	4565
864.691	4519
864.823	4558
864.954	4508
865.086	4478
865.217	4409
865.349	4417
865.48	4405
865.612	4474
865.743	4607
865.875	4470
866.006	4474
866.137	4527
866.269	4421
866.4	4451
866.531	4348
866.662	4421
866.793	4356
866.924	4379
867.055	4497
867.186	4455
867.317	4390
867.448	4383
867.579	4341
867.71	4402
867.841	4386
867.972	4466
868.103	4443
868.233	4466
868.364	4478
868.495	4500
868.625	4656
868.756	4725
868.886	4523
869.017	4584
869.147	4740
869.278	4721
869.408	4634
869.539	4630
869.669	4702
869.799	4626
869.929	4763
870.06	4759
870.19	4930
870.32	4942
870.45	4972
870.58	4987
870.71	5056
870.84	5113
870.97	4949
871.1	4866
871.23	5143
871.36	5117
871.489	4991
871.619	5048
871.749	5079
871.879	5064
872.008	5121
872.138	5018
872.267	4980
872.397	4752
872.526	4767
872.656	4729
872.785	4816
872.915	4927
873.044	5003
873.173	4946
873.303	4946
873.432	4965
873.561	4911
873.69	4862
873.819	4801
873.948	4877
874.077	4782
874.206	4744
874.335	4710
874.464	4881
874.593	5045
874.722	4946
874.851	5018
874.979	5071
875.108	5022
875.237	4900
875.365	4854
875.494	4881
875.623	4972
875.751	4828
875.88	4847
876.008	4987
876.136	5014
876.265	5201
876.393	5341
876.521	5250
876.65	5235
876.778	5197
876.906	5105
877.034	5045
877.162	5010
877.29	4987
877.418	5029
877.546	5071
877.674	5067
877.802	5105
877.93	5037
878.058	4889
878.185	4873
878.313	4987
878.441	4976
878.568	4816
878.696	4900
878.824	5003
878.951	5006
879.079	5109
879.206	5296
879.333	5121
879.461	4968
879.588	5075
879.715	5174
879.842	5242
879.97	5018
880.097	4831
880.224	4797
880.351	4835
880.478	4873
880.605	4854
880.732	4839
880.859	5162
880.986	4904
881.112	4927
881.239	4843
881.366	4691
881.493	4634
881.619	4637
881.746	4679
881.872	4702
881.999	4675
882.125	4729
882.252	4820
882.378	4858
882.505	5003
882.631	4801
882.757	4714
882.883	4797
883.01	4771
883.136	4710
883.262	4622
883.388	4683
883.514	4831
883.64	4900
883.766	4812
883.892	4656
884.018	4679
884.143	4919
884.269	5079
884.395	4687
884.52	4641
884.646	4637
884.772	4615
884.897	4641
885.023	4649
885.148	4881
885.274	4889
885.399	4858
885.524	4710
885.65	4714
885.775	4755
885.9	4729
886.025	4946
886.15	4812
886.275	4748
886.4	4725
886.525	4740
886.65	4782
886.775	4687
886.9	4930
887.025	5029
887.149	4881
887.274	4691
887.399	4622
887.523	4637
887.648	4561
887.773	4611
887.897	4786
888.021	4782
888.146	4755
888.27	4831
888.395	4961
888.519	4839
888.643	4850
888.767	4858
888.891	4733
889.015	4645
889.139	4675
889.263	4618
889.387	4786
889.511	4904
889.635	4786
889.759	4672
889.883	4717
890.006	4710
890.13	4820
890.254	4656
890.377	4733
890.501	4558
890.624	4554
890.748	4675
890.871	4542
890.995	4474
891.118	4409
891.241	4561
891.364	4561
891.488	4626
891.611	4523
891.734	4546
891.857	4580
891.98	4603
892.103	4691
892.226	4592
892.349	4546
892.471	4440
892.594	4596
892.717	4634
892.839	4637
892.962	4599
893.085	4683
893.207	4588
893.33	4500
893.452	4599
893.575	4691
893.697	4599
893.819	4847
893.941	4767
894.064	4797
894.186	4599
894.308	4592
894.43	4717
894.552	4866
894.674	4774
894.796	4565
894.918	4603
895.04	4603
895.161	4729
895.283	4679
895.405	4573
895.526	4626
895.648	4736
895.769	4702
895.891	4740
896.012	4755
896.134	4759
896.255	4687
896.376	4649
896.498	4717
896.619	4702
896.74	4645
896.861	4691
896.982	4976
897.103	5105
897.224	4870
897.345	4740
897.466	4675
897.587	4729
897.708	4858
897.828	4828
897.949	4687
898.07	4516
898.19	4687
898.311	4835
898.431	4698
898.552	4752
898.672	4877
898.792	4812
898.913	4736
899.033	4675
899.153	4538
899.273	4455
899.393	4561
899.513	4577
899.633	4565
899.753	4554
899.873	4588
899.993	4622
900.113	4615
900.232	4592
900.352	4565
900.472	4546
900.591	4455
900.711	4519
900.83	4459
900.95	4577
901.069	4721
901.189	4527
901.308	4405
901.427	4360
901.546	4398
901.665	4462
901.784	4493
901.904	4447
902.023	4348
902.141	4272
902.26	4158
902.379	4303
902.498	4272
902.617	4223
902.735	4348
902.854	4447
902.973	4375
903.091	4204
903.21	4238
903.328	4329
903.446	4314
903.565	4265
903.683	4348
903.801	4314
903.919	4436
904.038	4462
904.156	4333
904.274	4481
904.392	4447
904.51	4436
904.627	4493
904.745	4561
904.863	4653
904.981	4405
905.098	4314
905.216	4432
905.334	4443
905.451	4413
905.569	4451
905.686	4554
905.803	4580
905.921	4417
906.038	4519
906.155	4561
906.272	4402
906.389	4519
906.506	4348
906.623	4432
906.74	4447
906.857	4322
906.974	4402
907.091	4596
907.208	4721
907.324	4622
907.441	4508
907.557	4322
907.674	4367
907.79	4348
907.907	4394
908.023	4470
908.139	4500
908.256	4455
908.372	4508
908.488	4489
908.604	4383
908.72	4363
908.836	4443
908.952	4409
909.068	4428
909.184	4618
909.3	4519
909.415	4611
909.531	4546
909.647	4375
909.762	4390
909.878	4299
909.993	4474
910.108	4470
910.224	4447
910.339	4504
910.454	4421
910.57	4371
910.685	4367
910.8	4683
910.915	4611
911.03	4519
911.145	4394
911.259	4325
911.374	4398
911.489	4360
911.604	4299
911.718	4192
911.833	4196
911.947	4112
912.062	4029
912.176	4196
912.291	4246
912.405	4261
912.519	4440
912.633	4527
912.748	4371
912.862	4352
912.976	4268
913.09	4128
913.204	4223
913.318	4268
913.431	4398
913.545	4318
913.659	4451
913.772	4402
913.886	4238
914	4249
914.113	4363
914.226	4424
914.34	4428
914.453	4204
914.566	4424
914.68	4310
914.793	4337
914.906	4188
915.019	4166
915.132	4105
915.245	4185
915.358	4215
915.47	4230
915.583	4306
915.696	4299
915.809	4405
915.921	4402
916.034	4284
916.146	4272
916.259	4230
916.371	4409
916.483	4341
916.595	4337
916.708	4310
916.82	4379
916.932	4337
917.044	4268
917.156	4329
917.268	4207
917.38	4306
917.491	4276
917.603	4356
917.715	4424
917.826	4493
917.938	4375
918.049	4280
918.161	4375
918.272	4592
918.384	4603
918.495	4493
918.606	4310
918.717	4246
918.828	4348
918.939	4398
919.05	4291
919.161	4344
919.272	4177
919.383	4249
919.494	4462
919.604	4649
919.715	4428
919.826	4413
919.936	4405
920.047	4531
920.157	4481
920.267	4725
920.378	4527
920.488	4584
920.598	4752
920.708	4915
920.818	4744
920.928	4744
921.038	4999
921.148	4911
921.258	4641
921.368	4607
921.477	4474
921.587	4497
921.697	4383
921.806	4535
921.916	4443
922.025	4257
922.134	4291
922.244	4207
922.353	4341
922.462	4181
922.571	4120
922.68	4017
922.789	3994
922.898	4048
923.007	3979
923.116	4078
923.224	4101
923.333	4093
923.442	4010
923.55	4029
923.659	4010
923.767	4101
923.876	4013
923.984	4139
924.092	4055
924.201	4074
924.309	4097
924.417	4139
924.525	4082
924.633	4086
924.741	4915
924.849	3960
924.956	4109
925.064	4029
925.172	3884
925.279	3937
925.387	4086
925.494	4120
925.602	4230
925.709	4215
925.816	4017
925.924	4169
926.031	4204
926.138	4185
926.245	4192
926.352	4086
926.459	4291
926.566	4314
926.673	4158
926.779	4097
926.886	4051
926.993	4032
927.099	3964
927.206	3949
927.312	3956
927.419	4055
927.525	4086
927.631	4074
927.737	4010
927.843	3991
927.95	3876
928.056	3975
928.162	3998
928.267	4071
928.373	4603
928.479	4158
928.585	3907
928.69	4010
928.796	4059
928.901	3979
929.007	3861
929.112	4025
929.218	3998
929.323	3941
929.428	3941
929.533	4135
929.638	3949
929.743	4021
929.848	4074
929.953	4017
930.058	3892
930.163	3743
930.267	3892
930.372	4006
930.477	3835
930.581	4143
930.685	3964
930.79	3812
930.894	3922
930.998	3854
931.103	4032
931.207	3717
931.311	3686
931.415	3694
931.519	3515
931.623	3553
