Data from test_V78500241_854.txt Node
Date: Fri Mar 25 16:54:56 CST 2022
User: usil
Spectrometer: V785-0024
Trigger mode: 0
Integration Time (sec): 4.000000E-1
Scans to average: 1
Nonlinearity correction enabled: false
Boxcar width: 0
Storing dark spectrum: false
XAxis mode: Wavelengths
Number of Pixels in Spectrum: 1024
>>>>>Begin Spectral Data<<<<<
801.071	7974
801.214	7974
801.356	7849
801.499	7826
801.641	7772
801.783	7795
801.926	7967
802.068	7951
802.211	7860
802.353	8012
802.496	7837
802.638	7807
802.78	7818
802.923	7868
803.065	7814
803.208	7860
803.35	8050
803.492	8088
803.635	8126
803.777	8039
803.919	8088
804.061	8324
804.204	8054
804.346	8001
804.488	7955
804.63	8065
804.773	8020
804.915	8115
805.057	8294
805.199	8100
805.341	8187
805.483	8202
805.626	8187
805.768	8092
805.91	8107
806.052	8138
806.194	8077
806.336	8282
806.478	8138
806.62	8058
806.762	8054
806.904	8176
807.046	8499
807.188	8305
807.33	8294
807.472	8294
807.614	8103
807.756	8092
807.898	7970
808.04	7826
808.182	7890
808.324	7894
808.465	7883
808.607	8001
808.749	8077
808.891	8172
809.033	8309
809.174	8176
809.316	8039
809.458	8027
809.6	7967
809.741	7970
809.883	7970
810.025	8077
810.166	8005
810.308	8050
810.45	8039
810.591	7890
810.733	7727
810.875	7616
811.016	7559
811.158	7483
811.299	7525
811.441	7734
811.582	7670
811.724	7563
811.865	7483
812.007	7533
812.148	7571
812.29	7586
812.431	7624
812.573	7875
812.714	7970
812.855	8046
812.997	8142
813.138	8290
813.279	8123
813.421	8027
813.562	8012
813.703	7864
813.845	7784
813.986	7430
814.127	7225
814.268	7164
814.41	7137
814.551	7137
814.692	7110
814.833	6996
814.974	7141
815.115	7080
815.256	6932
815.397	6909
815.539	6943
815.68	6772
815.821	6798
815.962	6886
816.103	6825
816.244	6669
816.385	6612
816.526	6642
816.666	6475
816.807	6285
816.948	6365
817.089	6426
817.23	6441
817.371	6380
817.512	6380
817.653	6380
817.793	6391
817.934	6380
818.075	6407
818.216	6342
818.356	6433
818.497	6209
818.638	6114
818.778	6098
818.919	6133
819.06	6175
819.2	6232
819.341	6331
819.481	6323
819.622	6494
819.762	6696
819.903	6703
820.043	6620
820.184	6597
820.324	6528
820.465	6700
820.605	6612
820.746	6631
820.886	6426
821.026	6623
821.167	6650
821.307	6738
821.447	6719
821.588	6681
821.728	6559
821.868	6460
822.008	6311
822.149	6315
822.289	6323
822.429	6148
822.569	6098
822.709	6155
822.849	5897
822.99	5912
823.13	5950
823.27	5920
823.41	5764
823.55	5752
823.69	5684
823.83	5733
823.97	5608
824.11	5558
824.25	5463
824.389	5543
824.529	5524
824.669	5516
824.809	5585
824.949	5577
825.089	5585
825.228	5543
825.368	5360
825.508	5364
825.648	5334
825.787	5383
825.927	5379
826.067	5216
826.206	5353
826.346	5353
826.485	5379
826.625	5414
826.765	5509
826.904	5516
827.044	5341
827.183	5155
827.323	5083
827.462	5296
827.601	5143
827.741	5197
827.88	5189
828.02	5162
828.159	5201
828.298	5273
828.437	5330
828.577	5220
828.716	5493
828.855	5261
828.994	5162
829.134	5121
829.273	5159
829.412	5140
829.551	5121
829.69	5178
829.829	5242
829.968	5326
830.107	5216
830.246	5280
830.385	5151
830.524	5121
830.663	5083
830.802	4991
830.941	4930
831.08	4889
831.219	4980
831.357	4968
831.496	5193
831.635	4870
831.774	4828
831.913	4824
832.051	4740
832.19	4733
832.329	4805
832.467	4683
832.606	4641
832.744	4672
832.883	4702
833.022	4691
833.16	4763
833.299	4828
833.437	4774
833.576	4816
833.714	4862
833.852	4862
833.991	4854
834.129	4957
834.267	4911
834.406	4904
834.544	4976
834.682	4972
834.821	4957
834.959	5121
835.097	4980
835.235	5109
835.373	5067
835.511	5124
835.65	5014
835.788	4942
835.926	4896
836.064	4866
836.202	4934
836.34	5185
836.478	5227
836.615	5079
836.753	5155
836.891	5292
837.029	5239
837.167	5178
837.305	5166
837.443	5117
837.58	5067
837.718	5220
837.856	5181
837.993	5162
838.131	5254
838.269	5201
838.406	5239
838.544	5220
838.681	5022
838.819	5045
838.956	4919
839.094	4881
839.231	4999
839.369	5086
839.506	5398
839.643	5299
839.781	5079
839.918	5029
840.055	5102
840.193	5132
840.33	5140
840.467	5136
840.604	5151
840.742	5482
840.879	5143
841.016	5113
841.153	5151
841.29	5349
841.427	5376
841.564	5326
841.701	5349
841.838	5330
841.975	5254
842.112	5315
842.249	5166
842.385	5124
842.522	5360
842.659	5231
842.796	5170
842.933	5201
843.069	5193
843.206	5212
843.343	5357
843.479	5201
843.616	5337
843.752	5033
843.889	5052
844.025	5178
844.162	5052
844.298	5231
844.435	5121
844.571	5048
844.708	5223
844.844	5330
844.98	5379
845.117	5307
845.253	5174
845.389	5185
845.525	5212
845.661	5162
845.798	5064
845.934	5155
846.07	5064
846.206	5223
846.342	5231
846.478	5189
846.614	5041
846.75	5003
846.886	4965
847.022	5143
847.158	5071
847.294	5083
847.429	5136
847.565	5083
847.701	5349
847.837	4900
847.972	4892
848.108	5022
848.244	4965
848.379	4805
848.515	4759
848.65	4740
848.786	4771
848.921	4793
849.057	4850
849.192	4908
849.328	4862
849.463	4889
849.598	4797
849.734	4752
849.869	4672
850.004	4637
850.14	4706
850.275	4603
850.41	4611
850.545	4592
850.68	4645
850.815	4656
850.95	4672
851.085	4847
851.22	4744
851.355	4725
851.49	4626
851.625	4691
851.76	4653
851.895	4580
852.03	4550
852.165	4656
852.299	4733
852.434	4812
852.569	4748
852.703	4824
852.838	4881
852.973	4957
853.107	4930
853.242	4805
853.376	4729
853.511	4592
853.645	4565
853.78	4809
853.914	4694
854.048	4694
854.183	4626
854.317	4733
854.451	4904
854.585	4687
854.72	4694
854.854	4771
854.988	4580
855.122	4615
855.256	4577
855.39	4668
855.524	4755
855.658	4793
855.792	4744
855.926	4740
856.06	4771
856.194	4831
856.327	4717
856.461	4596
856.595	4630
856.729	4630
856.862	4748
856.996	4683
857.13	4767
857.263	4831
857.397	4820
857.53	4675
857.664	4721
857.797	4729
857.931	4771
858.064	4656
858.197	4710
858.331	4675
858.464	4637
858.597	4531
858.731	4672
858.864	4645
858.997	4660
859.13	4721
859.263	4710
859.396	4698
859.529	4660
859.662	4561
859.795	4516
859.928	4641
860.061	4771
860.194	4816
860.327	4675
860.46	4569
860.592	4710
860.725	4744
860.858	4752
860.99	4577
861.123	4558
861.256	4542
861.388	4630
861.521	5318
861.653	4493
861.786	4451
861.918	4436
862.05	4531
862.183	4626
862.315	4592
862.447	4660
862.58	4584
862.712	4413
862.844	4367
862.976	4493
863.108	4531
863.24	4790
863.372	4379
863.504	4447
863.636	4421
863.768	4512
863.9	4474
864.032	4394
864.164	4436
864.296	4474
864.428	4569
864.559	4596
864.691	4599
864.823	4523
864.954	4546
865.086	4538
865.217	4512
865.349	4436
865.48	4474
865.612	4516
865.743	4672
865.875	4470
866.006	4459
866.137	4455
866.269	4466
866.4	4459
866.531	4455
866.662	4421
866.793	4409
866.924	4462
867.055	4519
867.186	4535
867.317	4417
867.448	4379
867.579	4424
867.71	4462
867.841	4398
867.972	4459
868.103	4470
868.233	4500
868.364	4504
868.495	4500
868.625	4660
868.756	4759
868.886	4592
869.017	4637
869.147	4759
869.278	4782
869.408	4660
869.539	4607
869.669	4714
869.799	4656
869.929	4786
870.06	4736
870.19	4949
870.32	4949
870.45	4957
870.58	4976
870.71	5060
870.84	5124
870.97	4953
871.1	4942
871.23	5124
871.36	5132
871.489	5010
871.619	5041
871.749	5083
871.879	5155
872.008	5140
872.138	5083
872.267	5003
872.397	4850
872.526	4767
872.656	4710
872.785	4847
872.915	5029
873.044	5048
873.173	4942
873.303	5006
873.432	4980
873.561	4976
873.69	4824
873.819	4839
873.948	4949
874.077	4835
874.206	4763
874.335	4805
874.464	4972
874.593	5083
874.722	5006
874.851	5105
874.979	5121
875.108	5025
875.237	4946
875.365	4866
875.494	4934
875.623	4987
875.751	4816
875.88	4877
876.008	4995
876.136	5033
876.265	5185
876.393	5311
876.521	5242
876.65	5254
876.778	5143
876.906	5083
877.034	4999
877.162	5086
877.29	4972
877.418	5090
877.546	5037
877.674	5006
877.802	5010
877.93	5006
878.058	4934
878.185	4858
878.313	4991
878.441	4984
878.568	4793
878.696	4896
878.824	4919
878.951	4976
879.079	5170
879.206	5322
879.333	5128
879.461	4965
879.588	5018
879.715	5208
879.842	5242
879.97	5045
880.097	4812
880.224	4778
880.351	4862
880.478	4835
880.605	4862
880.732	4797
880.859	5098
880.986	4892
881.112	4930
881.239	4759
881.366	4653
881.493	4573
881.619	4649
881.746	4622
881.872	4622
881.999	4656
882.125	4675
882.252	4790
882.378	4790
882.505	4980
882.631	4809
882.757	4675
882.883	4786
883.01	4702
883.136	4710
883.262	4622
883.388	4618
883.514	4854
883.64	4870
883.766	4790
883.892	4675
884.018	4721
884.143	4892
884.269	5014
884.395	4649
884.52	4664
884.646	4618
884.772	4649
884.897	4588
885.023	4675
885.148	4782
885.274	4927
885.399	4801
885.524	4786
885.65	4733
885.775	4748
885.9	4717
886.025	4862
886.15	4774
886.275	4752
886.4	4664
886.525	4714
886.65	4694
886.775	4744
886.9	4934
887.025	5022
887.149	4797
887.274	4683
887.399	4679
887.523	4592
887.648	4588
887.773	4607
887.897	4752
888.021	4774
888.146	4736
888.27	4828
888.395	4870
888.519	4805
888.643	4801
888.767	4850
888.891	4698
889.015	4615
889.139	4637
889.263	4569
889.387	4740
889.511	4831
889.635	4740
889.759	4634
889.883	4656
890.006	4793
890.13	4824
890.254	4656
890.377	4702
890.501	4577
890.624	4538
890.748	4660
890.871	4466
890.995	4398
891.118	4379
891.241	4569
891.364	4565
891.488	4645
891.611	4493
891.734	4535
891.857	4656
891.98	4558
892.103	4653
892.226	4599
892.349	4573
892.471	4421
892.594	4580
892.717	4637
892.839	4546
892.962	4584
893.085	4668
893.207	4558
893.33	4470
893.452	4531
893.575	4664
893.697	4630
893.819	4843
893.941	4828
894.064	4755
894.186	4588
894.308	4634
894.43	4744
894.552	4885
894.674	4752
894.796	4554
894.918	4558
895.04	4622
895.161	4702
895.283	4668
895.405	4569
895.526	4637
895.648	4702
895.769	4736
895.891	4672
896.012	4725
896.134	4702
896.255	4675
896.376	4618
896.498	4641
896.619	4691
896.74	4565
896.861	4653
896.982	4953
897.103	5045
897.224	4831
897.345	4740
897.466	4698
897.587	4740
897.708	4889
897.828	4793
897.949	4668
898.07	4630
898.19	4645
898.311	4831
898.431	4714
898.552	4774
898.672	4839
898.792	4805
898.913	4744
899.033	4672
899.153	4519
899.273	4424
899.393	4478
899.513	4550
899.633	4558
899.753	4550
899.873	4478
899.993	4603
900.113	4561
900.232	4580
900.352	4577
900.472	4493
900.591	4413
900.711	4538
900.83	4466
900.95	4573
901.069	4656
901.189	4550
901.308	4360
901.427	4337
901.546	4413
901.665	4497
901.784	4485
901.904	4348
902.023	4314
902.141	4204
902.26	4169
902.379	4299
902.498	4249
902.617	4207
902.735	4352
902.854	4398
902.973	4383
903.091	4215
903.21	4246
903.328	4291
903.446	4280
903.565	4291
903.683	4322
903.801	4322
903.919	4413
904.038	4409
904.156	4318
904.274	4440
904.392	4424
904.51	4443
904.627	4489
904.745	4573
904.863	4702
904.981	4413
905.098	4291
905.216	4329
905.334	4424
905.451	4443
905.569	4485
905.686	4542
905.803	4558
905.921	4432
906.038	4523
906.155	4497
906.272	4421
906.389	4440
906.506	4367
906.623	4344
906.74	4398
906.857	4325
906.974	4440
907.091	4634
907.208	4626
907.324	4607
907.441	4497
907.557	4356
907.674	4356
907.79	4306
907.907	4386
908.023	4493
908.139	4421
908.256	4436
908.372	4459
908.488	4500
908.604	4390
908.72	4341
908.836	4383
908.952	4360
909.068	4402
909.184	4592
909.3	4508
909.415	4565
909.531	4573
909.647	4398
909.762	4394
909.878	4344
909.993	4455
910.108	4421
910.224	4390
910.339	4508
910.454	4417
910.57	4386
910.685	4318
910.8	4630
910.915	4618
911.03	4421
911.145	4379
911.259	4375
911.374	4383
911.489	4287
911.604	4291
911.718	4166
911.833	4173
911.947	4044
912.062	4051
912.176	4249
912.291	4265
912.405	4284
912.519	4462
912.633	4527
912.748	4356
912.862	4295
912.976	4234
913.09	4078
913.204	4173
913.318	4268
913.431	4360
913.545	4375
913.659	4466
913.772	4337
913.886	4268
914	4242
914.113	4398
914.226	4428
914.34	4390
914.453	4268
914.566	4409
914.68	4295
914.793	4325
914.906	4135
915.019	4116
915.132	4086
915.245	4139
915.358	4181
915.47	4227
915.583	4287
915.696	4291
915.809	4432
915.921	4462
916.034	4257
916.146	4265
916.259	4196
916.371	4363
916.483	4352
916.595	4230
916.708	4337
916.82	4276
916.932	4352
917.044	4299
917.156	4371
917.268	4234
917.38	4295
917.491	4265
917.603	4318
917.715	4417
917.826	4428
917.938	4363
918.049	4249
918.161	4436
918.272	4573
918.384	4569
918.495	4493
918.606	4291
918.717	4249
918.828	4295
918.939	4314
919.05	4242
919.161	4303
919.272	4135
919.383	4227
919.494	4455
919.604	4645
919.715	4383
919.826	4325
919.936	4398
920.047	4538
920.157	4516
920.267	4698
920.378	4485
920.488	4512
920.598	4744
920.708	4877
920.818	4725
920.928	4763
921.038	4930
921.148	4892
921.258	4630
921.368	4512
921.477	4519
921.587	4481
921.697	4363
921.806	4558
921.916	4489
922.025	4287
922.134	4227
922.244	4162
922.353	4344
922.462	4181
922.571	4139
922.68	4025
922.789	3975
922.898	4017
923.007	3956
923.116	4128
923.224	4040
923.333	4082
923.442	3979
923.55	3983
923.659	4029
923.767	4101
923.876	4044
923.984	4116
924.092	3949
924.201	4086
924.309	4128
924.417	4147
924.525	4051
924.633	4078
924.741	4847
924.849	3926
924.956	4120
925.064	3975
925.172	3884
925.279	3953
925.387	4067
925.494	4040
925.602	4181
925.709	4223
925.816	4036
925.924	4139
926.031	4188
926.138	4154
926.245	4166
926.352	4109
926.459	4272
926.566	4242
926.673	4177
926.779	4097
926.886	4071
926.993	3991
927.099	3979
927.206	3911
927.312	3930
927.419	4082
927.525	4032
927.631	4120
927.737	3979
927.843	3960
927.95	3838
928.056	3964
928.162	3972
928.267	4063
928.373	4634
928.479	4177
928.585	3896
928.69	4055
928.796	4090
928.901	3975
929.007	3876
929.112	3998
929.218	3991
929.323	4002
929.428	3949
929.533	4090
929.638	3926
929.743	3975
929.848	4078
929.953	4036
930.058	3934
930.163	3762
930.267	3816
930.372	4010
930.477	3770
930.581	4086
930.685	3941
930.79	3793
930.894	3892
930.998	3842
931.103	4040
931.207	3720
931.311	3667
931.415	3629
931.519	3511
931.623	3538
