Data from test_V78500241_2405.txt Node
Date: Fri Mar 25 17:05:43 CST 2022
User: usil
Spectrometer: V785-0024
Trigger mode: 0
Integration Time (sec): 4.000000E-1
Scans to average: 1
Nonlinearity correction enabled: false
Boxcar width: 0
Storing dark spectrum: false
XAxis mode: Wavelengths
Number of Pixels in Spectrum: 1024
>>>>>Begin Spectral Data<<<<<
801.071	8077
801.214	7944
801.356	7849
801.499	7936
801.641	7841
801.783	7856
801.926	7936
802.068	7928
802.211	8050
802.353	8001
802.496	7864
802.638	7898
802.78	7879
802.923	7928
803.065	7879
803.208	7845
803.35	8016
803.492	8096
803.635	8202
803.777	8005
803.919	8176
804.061	8423
804.204	8252
804.346	8024
804.488	7928
804.63	8195
804.773	8016
804.915	8161
805.057	8351
805.199	8237
805.341	8210
805.483	8305
805.626	8282
805.768	8100
805.91	8218
806.052	8221
806.194	8115
806.336	8252
806.478	8084
806.62	8054
806.762	8138
806.904	8225
807.046	8419
807.188	8385
807.33	8374
807.472	8343
807.614	8130
807.756	8206
807.898	7970
808.04	7913
808.182	7928
808.324	7864
808.465	7894
808.607	8084
808.749	8149
808.891	8180
809.033	8351
809.174	8183
809.316	8043
809.458	8092
809.6	8054
809.741	8031
809.883	8058
810.025	8020
810.166	8073
810.308	8065
810.45	7986
810.591	7906
810.733	7757
810.875	7750
811.016	7632
811.158	7483
811.299	7639
811.441	7715
811.582	7696
811.724	7586
811.865	7495
812.007	7514
812.148	7605
812.29	7681
812.431	7776
812.573	7875
812.714	7982
812.855	8149
812.997	8233
813.138	8237
813.279	8164
813.421	8035
813.562	8024
813.703	7879
813.845	7715
813.986	7468
814.127	7263
814.268	7251
814.41	7145
814.551	7126
814.692	7160
814.833	7050
814.974	7042
815.115	7118
815.256	6981
815.397	6894
815.539	6916
815.68	6821
815.821	6814
815.962	6791
816.103	6764
816.244	6722
816.385	6620
816.526	6566
816.666	6540
816.807	6380
816.948	6437
817.089	6467
817.23	6418
817.371	6380
817.512	6429
817.653	6376
817.793	6388
817.934	6418
818.075	6452
818.216	6426
818.356	6479
818.497	6292
818.638	6144
818.778	6220
818.919	6102
819.06	6155
819.2	6331
819.341	6327
819.481	6346
819.622	6589
819.762	6753
819.903	6738
820.043	6593
820.184	6544
820.324	6601
820.465	6703
820.605	6681
820.746	6578
820.886	6525
821.026	6688
821.167	6726
821.307	6802
821.447	6798
821.588	6734
821.728	6559
821.868	6574
822.008	6323
822.149	6372
822.289	6365
822.429	6133
822.569	6125
822.709	6197
822.849	5927
822.99	5996
823.13	5920
823.27	5916
823.41	5813
823.55	5855
823.69	5729
823.83	5813
823.97	5661
824.11	5585
824.25	5535
824.389	5604
824.529	5570
824.669	5558
824.809	5646
824.949	5653
825.089	5638
825.228	5581
825.368	5387
825.508	5353
825.648	5383
825.787	5414
825.927	5433
826.067	5318
826.206	5330
826.346	5406
826.485	5429
826.625	5414
826.765	5551
826.904	5539
827.044	5315
827.183	5250
827.323	5197
827.462	5223
827.601	5227
827.741	5242
827.88	5254
828.02	5159
828.159	5280
828.298	5364
828.437	5414
828.577	5296
828.716	5535
828.855	5387
828.994	5216
829.134	5170
829.273	5284
829.412	5212
829.551	5147
829.69	5280
829.829	5246
829.968	5421
830.107	5322
830.246	5307
830.385	5220
830.524	5174
830.663	5064
830.802	5003
830.941	4930
831.08	4953
831.219	5045
831.357	5041
831.496	5174
831.635	4972
831.774	4930
831.913	4908
832.051	4793
832.19	4801
832.329	4873
832.467	4748
832.606	4630
832.744	4740
832.883	4752
833.022	4763
833.16	4862
833.299	4870
833.437	4850
833.576	4892
833.714	4854
833.852	4923
833.991	4923
834.129	5014
834.267	4968
834.406	4915
834.544	5018
834.682	4984
834.821	4991
834.959	5212
835.097	5022
835.235	5140
835.373	5151
835.511	5181
835.65	5010
835.788	5113
835.926	4953
836.064	4896
836.202	4942
836.34	5208
836.478	5273
836.615	5189
836.753	5220
836.891	5322
837.029	5315
837.167	5197
837.305	5189
837.443	5136
837.58	5143
837.718	5292
837.856	5261
837.993	5201
838.131	5296
838.269	5231
838.406	5261
838.544	5261
838.681	5094
838.819	5052
838.956	4923
839.094	4961
839.231	5048
839.369	5170
839.506	5471
839.643	5334
839.781	5136
839.918	5056
840.055	5140
840.193	5105
840.33	5147
840.467	5166
840.604	5216
840.742	5448
840.879	5128
841.016	5159
841.153	5185
841.29	5414
841.427	5395
841.564	5364
841.701	5372
841.838	5357
841.975	5277
842.112	5330
842.249	5178
842.385	5143
842.522	5364
842.659	5261
842.796	5212
842.933	5201
843.069	5193
843.206	5189
843.343	5322
843.479	5315
843.616	5250
843.752	5033
843.889	4999
844.025	5227
844.162	5045
844.298	5299
844.435	5113
844.571	5098
844.708	5242
844.844	5364
844.98	5391
845.117	5311
845.253	5193
845.389	5113
845.525	5170
845.661	5227
845.798	5060
845.934	5170
846.07	5071
846.206	5227
846.342	5345
846.478	5216
846.614	5010
846.75	4995
846.886	4961
847.022	5185
847.158	5037
847.294	5113
847.429	5151
847.565	5086
847.701	5284
847.837	4900
847.972	4866
848.108	4991
848.244	4984
848.379	4831
848.515	4812
848.65	4767
848.786	4797
848.921	4805
849.057	4949
849.192	4972
849.328	4816
849.463	4881
849.598	4786
849.734	4820
849.869	4698
850.004	4675
850.14	4694
850.275	4596
850.41	4527
850.545	4626
850.68	4596
850.815	4641
850.95	4683
851.085	4854
851.22	4831
851.355	4664
851.49	4649
851.625	4668
851.76	4656
851.895	4596
852.03	4558
852.165	4691
852.299	4733
852.434	4835
852.569	4771
852.703	4805
852.838	4904
852.973	4968
853.107	4949
853.242	4790
853.376	4694
853.511	4603
853.645	4630
853.78	4809
853.914	4717
854.048	4721
854.183	4641
854.317	4717
854.451	4858
854.585	4702
854.72	4706
854.854	4782
854.988	4615
855.122	4645
855.256	4531
855.39	4694
855.524	4828
855.658	4740
855.792	4759
855.926	4744
856.06	4778
856.194	4812
856.327	4721
856.461	4641
856.595	4622
856.729	4683
856.862	4809
856.996	4744
857.13	4767
857.263	4797
857.397	4828
857.53	4675
857.664	4755
857.797	4824
857.931	4843
858.064	4717
858.197	4786
858.331	4664
858.464	4641
858.597	4588
858.731	4622
858.864	4660
858.997	4645
859.13	4691
859.263	4759
859.396	4759
859.529	4615
859.662	4535
859.795	4573
859.928	4637
860.061	4790
860.194	4797
860.327	4622
860.46	4603
860.592	4736
860.725	4679
860.858	4744
860.99	4577
861.123	4478
861.256	4607
861.388	4675
861.521	5315
861.653	4512
861.786	4474
861.918	4478
862.05	4588
862.183	4558
862.315	4599
862.447	4698
862.58	4603
862.712	4417
862.844	4394
862.976	4516
863.108	4455
863.24	4786
863.372	4402
863.504	4462
863.636	4421
863.768	4508
863.9	4481
864.032	4352
864.164	4383
864.296	4504
864.428	4580
864.559	4580
864.691	4561
864.823	4504
864.954	4554
865.086	4519
865.217	4497
865.349	4451
865.48	4443
865.612	4550
865.743	4653
865.875	4531
866.006	4516
866.137	4497
866.269	4455
866.4	4485
866.531	4485
866.662	4394
866.793	4424
866.924	4455
867.055	4531
867.186	4478
867.317	4421
867.448	4447
867.579	4390
867.71	4402
867.841	4405
867.972	4504
868.103	4440
868.233	4432
868.364	4466
868.495	4485
868.625	4710
868.756	4782
868.886	4592
869.017	4656
869.147	4767
869.278	4828
869.408	4725
869.539	4649
869.669	4687
869.799	4698
869.929	4824
870.06	4763
870.19	4938
870.32	4919
870.45	4984
870.58	5022
870.71	5113
870.84	5159
870.97	4987
871.1	4942
871.23	5174
871.36	5147
871.489	5075
871.619	5075
871.749	5075
871.879	5151
872.008	5181
872.138	5140
872.267	5018
872.397	4862
872.526	4850
872.656	4767
872.785	4873
872.915	4953
873.044	5079
873.173	4949
873.303	4995
873.432	4968
873.561	4980
873.69	4957
873.819	4900
873.948	4911
874.077	4896
874.206	4790
874.335	4786
874.464	4957
874.593	5102
874.722	4965
874.851	5151
874.979	5033
875.108	5075
875.237	4976
875.365	4877
875.494	4892
875.623	5010
875.751	4824
875.88	4908
876.008	4987
876.136	5067
876.265	5174
876.393	5429
876.521	5277
876.65	5254
876.778	5181
876.906	5083
877.034	5067
877.162	5071
877.29	5003
877.418	5041
877.546	5083
877.674	5025
877.802	5075
877.93	5060
878.058	4946
878.185	4923
878.313	4976
878.441	4953
878.568	4881
878.696	4938
878.824	5010
878.951	5033
879.079	5166
879.206	5345
879.333	5094
879.461	4995
879.588	5041
879.715	5147
879.842	5216
879.97	5025
880.097	4790
880.224	4755
880.351	4828
880.478	4843
880.605	4774
880.732	4797
880.859	5060
880.986	4896
881.112	4965
881.239	4816
881.366	4698
881.493	4630
881.619	4630
881.746	4653
881.872	4645
881.999	4698
882.125	4683
882.252	4812
882.378	4877
882.505	4976
882.631	4866
882.757	4641
882.883	4767
883.01	4759
883.136	4675
883.262	4622
883.388	4558
883.514	4812
883.64	4843
883.766	4782
883.892	4683
884.018	4786
884.143	4938
884.269	4980
884.395	4755
884.52	4626
884.646	4698
884.772	4584
884.897	4573
885.023	4672
885.148	4858
885.274	4892
885.399	4889
885.524	4729
885.65	4698
885.775	4717
885.9	4687
886.025	4938
886.15	4858
886.275	4725
886.4	4641
886.525	4729
886.65	4675
886.775	4691
886.9	4946
887.025	5048
887.149	4850
887.274	4698
887.399	4596
887.523	4596
887.648	4592
887.773	4588
887.897	4782
888.021	4793
888.146	4740
888.27	4828
888.395	4908
888.519	4854
888.643	4790
888.767	4873
888.891	4706
889.015	4603
889.139	4691
889.263	4622
889.387	4763
889.511	4896
889.635	4824
889.759	4656
889.883	4679
890.006	4744
890.13	4850
890.254	4645
890.377	4691
890.501	4527
890.624	4508
890.748	4645
890.871	4542
890.995	4516
891.118	4432
891.241	4542
891.364	4565
891.488	4649
891.611	4550
891.734	4596
891.857	4588
891.98	4550
892.103	4675
892.226	4645
892.349	4550
892.471	4421
892.594	4561
892.717	4565
892.839	4542
892.962	4599
893.085	4698
893.207	4626
893.33	4474
893.452	4561
893.575	4710
893.697	4615
893.819	4752
893.941	4843
894.064	4748
894.186	4584
894.308	4569
894.43	4782
894.552	4816
894.674	4793
894.796	4558
894.918	4626
895.04	4558
895.161	4725
895.283	4687
895.405	4580
895.526	4637
895.648	4752
895.769	4717
895.891	4721
896.012	4736
896.134	4706
896.255	4660
896.376	4653
896.498	4588
896.619	4660
896.74	4592
896.861	4634
896.982	4927
897.103	5113
897.224	4858
897.345	4771
897.466	4710
897.587	4694
897.708	4892
897.828	4828
897.949	4698
898.07	4565
898.19	4656
898.311	4877
898.431	4714
898.552	4729
898.672	4805
898.792	4828
898.913	4755
899.033	4611
899.153	4497
899.273	4459
899.393	4500
899.513	4561
899.633	4493
899.753	4538
899.873	4500
899.993	4573
900.113	4523
900.232	4596
900.352	4538
900.472	4535
900.591	4375
900.711	4493
900.83	4478
900.95	4603
901.069	4694
901.189	4558
901.308	4398
901.427	4379
901.546	4390
901.665	4470
901.784	4485
901.904	4371
902.023	4291
902.141	4207
902.26	4169
902.379	4299
902.498	4257
902.617	4257
902.735	4398
902.854	4428
902.973	4348
903.091	4265
903.21	4268
903.328	4299
903.446	4272
903.565	4265
903.683	4367
903.801	4295
903.919	4424
904.038	4462
904.156	4344
904.274	4432
904.392	4424
904.51	4443
904.627	4474
904.745	4622
904.863	4656
904.981	4333
905.098	4337
905.216	4386
905.334	4413
905.451	4481
905.569	4462
905.686	4542
905.803	4645
905.921	4432
906.038	4573
906.155	4474
906.272	4424
906.389	4481
906.506	4333
906.623	4348
906.74	4402
906.857	4265
906.974	4363
907.091	4538
907.208	4698
907.324	4592
907.441	4493
907.557	4318
907.674	4333
907.79	4303
907.907	4390
908.023	4497
908.139	4519
908.256	4436
908.372	4497
908.488	4436
908.604	4360
908.72	4363
908.836	4386
908.952	4383
909.068	4428
909.184	4618
909.3	4481
909.415	4618
909.531	4535
909.647	4371
909.762	4360
909.878	4348
909.993	4409
910.108	4390
910.224	4432
910.339	4481
910.454	4421
910.57	4341
910.685	4314
910.8	4603
910.915	4588
911.03	4462
911.145	4352
911.259	4325
911.374	4360
911.489	4318
911.604	4265
911.718	4177
911.833	4234
911.947	4101
912.062	4029
912.176	4166
912.291	4268
912.405	4253
912.519	4470
912.633	4512
912.748	4363
912.862	4333
912.976	4223
913.09	4071
913.204	4200
913.318	4265
913.431	4383
913.545	4356
913.659	4405
913.772	4398
913.886	4238
914	4276
914.113	4421
914.226	4459
914.34	4402
914.453	4257
914.566	4424
914.68	4341
914.793	4356
914.906	4162
915.019	4139
915.132	4097
915.245	4200
915.358	4177
915.47	4200
915.583	4227
915.696	4333
915.809	4421
915.921	4443
916.034	4272
916.146	4291
916.259	4219
916.371	4348
916.483	4348
916.595	4238
916.708	4333
916.82	4303
916.932	4379
917.044	4337
917.156	4329
917.268	4219
917.38	4280
917.491	4246
917.603	4348
917.715	4394
917.826	4500
917.938	4352
918.049	4268
918.161	4413
918.272	4542
918.384	4523
918.495	4440
918.606	4287
918.717	4253
918.828	4375
918.939	4375
919.05	4246
919.161	4318
919.272	4143
919.383	4207
919.494	4432
919.604	4653
919.715	4421
919.826	4371
919.936	4405
920.047	4527
920.157	4424
920.267	4706
920.378	4550
920.488	4462
920.598	4729
920.708	4877
920.818	4748
920.928	4744
921.038	4953
921.148	4946
921.258	4649
921.368	4531
921.477	4535
921.587	4417
921.697	4348
921.806	4519
921.916	4409
922.025	4257
922.134	4299
922.244	4196
922.353	4383
922.462	4188
922.571	4082
922.68	4067
922.789	3998
922.898	4013
923.007	3998
923.116	4109
923.224	4101
923.333	4063
923.442	3983
923.55	3991
923.659	4032
923.767	4105
923.876	4044
923.984	4109
924.092	3979
924.201	4082
924.309	4097
924.417	4093
924.525	4059
924.633	4101
924.741	5064
924.849	3934
924.956	4116
925.064	3979
925.172	3934
925.279	3968
925.387	4071
925.494	4025
925.602	4227
925.709	4147
925.816	4010
925.924	4139
926.031	4227
926.138	4177
926.245	4215
926.352	4093
926.459	4249
926.566	4272
926.673	4116
926.779	4112
926.886	4086
926.993	3983
927.099	3937
927.206	3930
927.312	3956
927.419	4040
927.525	4048
927.631	4093
927.737	3983
927.843	3956
927.95	3865
928.056	3941
928.162	3991
928.267	4044
928.373	4679
928.479	4116
928.585	3880
928.69	4021
928.796	4105
928.901	3975
929.007	3819
929.112	4006
929.218	3998
929.323	3911
929.428	3926
929.533	4124
929.638	3945
929.743	3941
929.848	4021
929.953	4021
930.058	3941
930.163	3835
930.267	3850
930.372	3979
930.477	3778
930.581	4097
930.685	3953
930.79	3827
930.894	3880
930.998	3857
931.103	3994
931.207	3705
931.311	3705
931.415	3660
931.519	3530
931.623	3507
