Data from test_V78500241_1315.txt Node
Date: Fri Mar 25 16:58:08 CST 2022
User: usil
Spectrometer: V785-0024
Trigger mode: 0
Integration Time (sec): 4.000000E-1
Scans to average: 1
Nonlinearity correction enabled: false
Boxcar width: 0
Storing dark spectrum: false
XAxis mode: Wavelengths
Number of Pixels in Spectrum: 1024
>>>>>Begin Spectral Data<<<<<
801.071	7951
801.214	7947
801.356	7875
801.499	7860
801.641	7776
801.783	7856
801.926	7959
802.068	7940
802.211	7967
802.353	7928
802.496	7795
802.638	7890
802.78	7894
802.923	7947
803.065	7997
803.208	7921
803.35	8016
803.492	8092
803.635	8149
803.777	8062
803.919	8191
804.061	8450
804.204	8199
804.346	8027
804.488	7944
804.63	8054
804.773	8103
804.915	8096
805.057	8305
805.199	8164
805.341	8210
805.483	8240
805.626	8225
805.768	8092
805.91	8206
806.052	8221
806.194	8161
806.336	8275
806.478	8130
806.62	8035
806.762	8092
806.904	8237
807.046	8503
807.188	8301
807.33	8343
807.472	8347
807.614	8130
807.756	8103
807.898	8005
808.04	7944
808.182	7917
808.324	7906
808.465	7894
808.607	8092
808.749	8157
808.891	8176
809.033	8259
809.174	8161
809.316	8062
809.458	8012
809.6	7936
809.741	8016
809.883	8005
810.025	8092
810.166	8031
810.308	7974
810.45	7993
810.591	7936
810.733	7769
810.875	7636
811.016	7540
811.158	7510
811.299	7578
811.441	7757
811.582	7700
811.724	7594
811.865	7540
812.007	7537
812.148	7601
812.29	7632
812.431	7723
812.573	7890
812.714	8020
812.855	8126
812.997	8172
813.138	8377
813.279	8126
813.421	8119
813.562	7974
813.703	7849
813.845	7742
813.986	7449
814.127	7266
814.268	7175
814.41	7232
814.551	7187
814.692	7225
814.833	7103
814.974	7084
815.115	7091
815.256	6970
815.397	6939
815.539	6966
815.68	6814
815.821	6772
815.962	6859
816.103	6810
816.244	6711
816.385	6642
816.526	6585
816.666	6490
816.807	6292
816.948	6433
817.089	6445
817.23	6376
817.371	6395
817.512	6369
817.653	6414
817.793	6365
817.934	6350
818.075	6486
818.216	6418
818.356	6399
818.497	6319
818.638	6155
818.778	6110
818.919	6121
819.06	6148
819.2	6308
819.341	6353
819.481	6369
819.622	6517
819.762	6715
819.903	6639
820.043	6669
820.184	6551
820.324	6566
820.465	6715
820.605	6715
820.746	6715
820.886	6532
821.026	6642
821.167	6662
821.307	6783
821.447	6795
821.588	6658
821.728	6566
821.868	6441
822.008	6285
822.149	6357
822.289	6346
822.429	6106
822.569	6041
822.709	6136
822.849	5904
822.99	5851
823.13	5916
823.27	5954
823.41	5805
823.55	5767
823.69	5771
823.83	5756
823.97	5684
824.11	5524
824.25	5520
824.389	5486
824.529	5566
824.669	5497
824.809	5596
824.949	5653
825.089	5630
825.228	5600
825.368	5410
825.508	5353
825.648	5357
825.787	5357
825.927	5417
826.067	5273
826.206	5303
826.346	5383
826.485	5395
826.625	5387
826.765	5497
826.904	5444
827.044	5193
827.183	5159
827.323	5105
827.462	5216
827.601	5128
827.741	5178
827.88	5174
828.02	5064
828.159	5212
828.298	5277
828.437	5349
828.577	5307
828.716	5516
828.855	5307
828.994	5143
829.134	5109
829.273	5174
829.412	5083
829.551	5086
829.69	5159
829.829	5220
829.968	5383
830.107	5242
830.246	5227
830.385	5178
830.524	5105
830.663	5041
830.802	4980
830.941	4904
831.08	4854
831.219	5010
831.357	4968
831.496	5151
831.635	4911
831.774	4820
831.913	4797
832.051	4698
832.19	4767
832.329	4843
832.467	4645
832.606	4611
832.744	4717
832.883	4641
833.022	4702
833.16	4812
833.299	4824
833.437	4847
833.576	4870
833.714	4839
833.852	4858
833.991	4870
834.129	4892
834.267	4908
834.406	4877
834.544	4976
834.682	4976
834.821	4923
834.959	5124
835.097	4980
835.235	5083
835.373	5067
835.511	5056
835.65	5010
835.788	4946
835.926	4870
836.064	4889
836.202	4885
836.34	5124
836.478	5254
836.615	5136
836.753	5204
836.891	5330
837.029	5197
837.167	5178
837.305	5136
837.443	5136
837.58	5041
837.718	5239
837.856	5151
837.993	5162
838.131	5250
838.269	5216
838.406	5181
838.544	5178
838.681	5033
838.819	5029
838.956	4908
839.094	4866
839.231	5014
839.369	5098
839.506	5387
839.643	5292
839.781	5029
839.918	4987
840.055	5143
840.193	5071
840.33	5090
840.467	5132
840.604	5193
840.742	5429
840.879	5102
841.016	5048
841.153	5124
841.29	5360
841.427	5322
841.564	5261
841.701	5387
841.838	5235
841.975	5170
842.112	5269
842.249	5143
842.385	5071
842.522	5349
842.659	5136
842.796	5121
842.933	5136
843.069	5071
843.206	5113
843.343	5258
843.479	5239
843.616	5231
843.752	5010
843.889	5010
844.025	5242
844.162	5003
844.298	5189
844.435	5045
844.571	5067
844.708	5201
844.844	5349
844.98	5284
845.117	5220
845.253	5166
845.389	5132
845.525	5140
845.661	5117
845.798	5033
845.934	5132
846.07	5010
846.206	5155
846.342	5261
846.478	5105
846.614	5029
846.75	4942
846.886	4900
847.022	5113
847.158	5003
847.294	5003
847.429	5128
847.565	5102
847.701	5326
847.837	4858
847.972	4816
848.108	4896
848.244	4915
848.379	4790
848.515	4744
848.65	4721
848.786	4714
848.921	4740
849.057	4847
849.192	4892
849.328	4843
849.463	4843
849.598	4778
849.734	4786
849.869	4702
850.004	4618
850.14	4672
850.275	4641
850.41	4550
850.545	4580
850.68	4519
850.815	4580
850.95	4592
851.085	4824
851.22	4717
851.355	4668
851.49	4596
851.625	4637
851.76	4630
851.895	4565
852.03	4546
852.165	4615
852.299	4717
852.434	4748
852.569	4736
852.703	4733
852.838	4831
852.973	4908
853.107	4919
853.242	4759
853.376	4668
853.511	4569
853.645	4615
853.78	4774
853.914	4675
854.048	4634
854.183	4615
854.317	4702
854.451	4828
854.585	4706
854.72	4596
854.854	4778
854.988	4634
855.122	4645
855.256	4497
855.39	4653
855.524	4706
855.658	4736
855.792	4694
855.926	4729
856.06	4774
856.194	4790
856.327	4645
856.461	4596
856.595	4618
856.729	4645
856.862	4725
856.996	4668
857.13	4679
857.263	4752
857.397	4748
857.53	4569
857.664	4691
857.797	4763
857.931	4786
858.064	4691
858.197	4710
858.331	4649
858.464	4565
858.597	4527
858.731	4626
858.864	4607
858.997	4611
859.13	4618
859.263	4649
859.396	4672
859.529	4558
859.662	4573
859.795	4527
859.928	4645
860.061	4778
860.194	4767
860.327	4546
860.46	4565
860.592	4706
860.725	4702
860.858	4744
860.99	4573
861.123	4497
861.256	4523
861.388	4558
861.521	5162
861.653	4474
861.786	4455
861.918	4466
862.05	4550
862.183	4584
862.315	4584
862.447	4641
862.58	4508
862.712	4375
862.844	4318
862.976	4489
863.108	4432
863.24	4892
863.372	4371
863.504	4421
863.636	4394
863.768	4497
863.9	4470
864.032	4363
864.164	4371
864.296	4470
864.428	4527
864.559	4546
864.691	4500
864.823	4550
864.954	4493
865.086	4500
865.217	4474
865.349	4421
865.48	4436
865.612	4462
865.743	4641
865.875	4485
866.006	4436
866.137	4421
866.269	4421
866.4	4413
866.531	4409
866.662	4360
866.793	4394
866.924	4398
867.055	4504
867.186	4459
867.317	4402
867.448	4329
867.579	4352
867.71	4417
867.841	4348
867.972	4478
868.103	4485
868.233	4462
868.364	4436
868.495	4470
868.625	4675
868.756	4767
868.886	4592
869.017	4580
869.147	4744
869.278	4771
869.408	4679
869.539	4611
869.669	4706
869.799	4641
869.929	4706
870.06	4744
870.19	4919
870.32	4930
870.45	4911
870.58	5022
870.71	5075
870.84	5094
870.97	4965
871.1	4873
871.23	5113
871.36	5132
871.489	5037
871.619	5102
871.749	5067
871.879	5102
872.008	5117
872.138	5067
872.267	4923
872.397	4850
872.526	4774
872.656	4729
872.785	4782
872.915	4896
873.044	5033
873.173	4911
873.303	4953
873.432	4911
873.561	4938
873.69	4870
873.819	4805
873.948	4889
874.077	4824
874.206	4752
874.335	4835
874.464	4908
874.593	5033
874.722	4923
874.851	5083
874.979	5067
875.108	5018
875.237	4923
875.365	4858
875.494	4881
875.623	4953
875.751	4809
875.88	4873
876.008	4904
876.136	4999
876.265	5193
876.393	5280
876.521	5220
876.65	5216
876.778	5155
876.906	5083
877.034	5006
877.162	5029
877.29	4999
877.418	4999
877.546	5003
877.674	5037
877.802	4980
877.93	5006
878.058	4915
878.185	4881
878.313	4938
878.441	5010
878.568	4782
878.696	4858
878.824	4927
878.951	5029
879.079	5151
879.206	5277
879.333	5086
879.461	4961
879.588	5006
879.715	5109
879.842	5261
879.97	4942
880.097	4771
880.224	4721
880.351	4759
880.478	4812
880.605	4774
880.732	4797
880.859	5014
880.986	4881
881.112	4889
881.239	4744
881.366	4653
881.493	4641
881.619	4580
881.746	4687
881.872	4668
881.999	4656
882.125	4641
882.252	4797
882.378	4835
882.505	4904
882.631	4809
882.757	4656
882.883	4733
883.01	4729
883.136	4637
883.262	4577
883.388	4611
883.514	4831
883.64	4854
883.766	4774
883.892	4675
884.018	4660
884.143	4892
884.269	4968
884.395	4691
884.52	4580
884.646	4611
884.772	4546
884.897	4542
885.023	4637
885.148	4759
885.274	4816
885.399	4812
885.524	4691
885.65	4710
885.775	4710
885.9	4729
886.025	4805
886.15	4733
886.275	4691
886.4	4649
886.525	4763
886.65	4702
886.775	4710
886.9	4896
887.025	5056
887.149	4774
887.274	4637
887.399	4565
887.523	4580
887.648	4596
887.773	4546
887.897	4763
888.021	4786
888.146	4714
888.27	4805
888.395	4885
888.519	4816
888.643	4763
888.767	4790
888.891	4664
889.015	4607
889.139	4637
889.263	4630
889.387	4759
889.511	4866
889.635	4805
889.759	4626
889.883	4660
890.006	4721
890.13	4866
890.254	4584
890.377	4675
890.501	4512
890.624	4508
890.748	4626
890.871	4440
890.995	4405
891.118	4417
891.241	4527
891.364	4577
891.488	4622
891.611	4512
891.734	4569
891.857	4584
891.98	4615
892.103	4607
892.226	4569
892.349	4489
892.471	4470
892.594	4558
892.717	4565
892.839	4573
892.962	4546
893.085	4618
893.207	4588
893.33	4470
893.452	4535
893.575	4645
893.697	4569
893.819	4786
893.941	4854
894.064	4767
894.186	4592
894.308	4531
894.43	4710
894.552	4782
894.674	4736
894.796	4493
894.918	4550
895.04	4588
895.161	4656
895.283	4660
895.405	4615
895.526	4637
895.648	4694
895.769	4687
895.891	4660
896.012	4717
896.134	4694
896.255	4660
896.376	4630
896.498	4615
896.619	4649
896.74	4573
896.861	4615
896.982	4957
897.103	5113
897.224	4801
897.345	4736
897.466	4687
897.587	4672
897.708	4889
897.828	4778
897.949	4607
898.07	4554
898.19	4630
898.311	4809
898.431	4618
898.552	4694
898.672	4755
898.792	4725
898.913	4729
899.033	4611
899.153	4531
899.273	4341
899.393	4504
899.513	4542
899.633	4527
899.753	4569
899.873	4519
899.993	4554
900.113	4497
900.232	4588
900.352	4554
900.472	4485
900.591	4394
900.711	4447
900.83	4413
900.95	4596
901.069	4691
901.189	4588
901.308	4383
901.427	4291
901.546	4337
901.665	4428
901.784	4474
901.904	4375
902.023	4280
902.141	4173
902.26	4173
902.379	4318
902.498	4230
902.617	4253
902.735	4325
902.854	4367
902.973	4341
903.091	4207
903.21	4242
903.328	4329
903.446	4230
903.565	4261
903.683	4367
903.801	4246
903.919	4398
904.038	4489
904.156	4325
904.274	4466
904.392	4417
904.51	4394
904.627	4516
904.745	4550
904.863	4649
904.981	4432
905.098	4299
905.216	4383
905.334	4417
905.451	4432
905.569	4394
905.686	4607
905.803	4554
905.921	4360
906.038	4523
906.155	4523
906.272	4413
906.389	4428
906.506	4303
906.623	4390
906.74	4394
906.857	4276
906.974	4375
907.091	4615
907.208	4645
907.324	4607
907.441	4462
907.557	4325
907.674	4360
907.79	4295
907.907	4322
908.023	4462
908.139	4459
908.256	4428
908.372	4470
908.488	4440
908.604	4325
908.72	4352
908.836	4379
908.952	4405
909.068	4447
909.184	4565
909.3	4485
909.415	4592
909.531	4516
909.647	4390
909.762	4360
909.878	4306
909.993	4421
910.108	4409
910.224	4436
910.339	4436
910.454	4405
910.57	4386
910.685	4287
910.8	4626
910.915	4588
911.03	4470
911.145	4291
911.259	4337
911.374	4390
911.489	4291
911.604	4265
911.718	4173
911.833	4207
911.947	4078
912.062	4021
912.176	4204
912.291	4280
912.405	4219
912.519	4459
912.633	4504
912.748	4363
912.862	4291
912.976	4169
913.09	4097
913.204	4131
913.318	4177
913.431	4348
913.545	4402
913.659	4478
913.772	4405
913.886	4238
914	4249
914.113	4371
914.226	4421
914.34	4398
914.453	4238
914.566	4386
914.68	4268
914.793	4367
914.906	4131
915.019	4143
915.132	4082
915.245	4169
915.358	4200
915.47	4181
915.583	4249
915.696	4299
915.809	4424
915.921	4386
916.034	4249
916.146	4253
916.259	4234
916.371	4341
916.483	4398
916.595	4230
916.708	4337
916.82	4306
916.932	4341
917.044	4299
917.156	4329
917.268	4230
917.38	4268
917.491	4291
917.603	4306
917.715	4363
917.826	4424
917.938	4322
918.049	4223
918.161	4405
918.272	4531
918.384	4512
918.495	4417
918.606	4303
918.717	4219
918.828	4303
918.939	4352
919.05	4238
919.161	4325
919.272	4124
919.383	4242
919.494	4432
919.604	4622
919.715	4413
919.826	4306
919.936	4352
920.047	4500
920.157	4516
920.267	4649
920.378	4542
920.488	4512
920.598	4702
920.708	4862
920.818	4694
920.928	4740
921.038	4908
921.148	4889
921.258	4630
921.368	4565
921.477	4485
921.587	4478
921.697	4344
921.806	4497
921.916	4421
922.025	4230
922.134	4230
922.244	4246
922.353	4314
922.462	4158
922.571	4135
922.68	4002
922.789	3983
922.898	4025
923.007	3991
923.116	4086
923.224	4040
923.333	4055
923.442	3949
923.55	3994
923.659	3987
923.767	4055
923.876	3960
923.984	4090
924.092	3964
924.201	4067
924.309	4128
924.417	4074
924.525	4002
924.633	4097
924.741	4881
924.849	3930
924.956	4143
925.064	4002
925.172	3903
925.279	3953
925.387	4029
925.494	4082
925.602	4253
925.709	4147
925.816	4021
925.924	4109
926.031	4196
926.138	4135
926.245	4238
926.352	4093
926.459	4219
926.566	4303
926.673	4154
926.779	4086
926.886	4078
926.993	4002
927.099	3941
927.206	3953
927.312	3918
927.419	4025
927.525	3964
927.631	4131
927.737	3979
927.843	3956
927.95	3785
928.056	3953
928.162	3972
928.267	4048
928.373	4702
928.479	4116
928.585	3869
928.69	4036
928.796	4036
928.901	3949
929.007	3823
929.112	3975
929.218	3979
929.323	3945
929.428	3968
929.533	4093
929.638	3922
929.743	3975
929.848	4051
929.953	4032
930.058	3918
930.163	3736
930.267	3838
930.372	3953
930.477	3842
930.581	4093
930.685	3918
930.79	3823
930.894	3861
930.998	3865
931.103	4025
931.207	3724
931.311	3675
931.415	3717
931.519	3523
931.623	3568
