Data from test_V78500241_2603.txt Node
Date: Fri Mar 25 17:07:06 CST 2022
User: usil
Spectrometer: V785-0024
Trigger mode: 0
Integration Time (sec): 4.000000E-1
Scans to average: 1
Nonlinearity correction enabled: false
Boxcar width: 0
Storing dark spectrum: false
XAxis mode: Wavelengths
Number of Pixels in Spectrum: 1024
>>>>>Begin Spectral Data<<<<<
801.071	7989
801.214	8001
801.356	7875
801.499	7845
801.641	7734
801.783	7799
801.926	7967
802.068	7978
802.211	7970
802.353	7970
802.496	7833
802.638	7879
802.78	7940
802.923	7967
803.065	7849
803.208	7879
803.35	8008
803.492	8069
803.635	8233
803.777	8020
803.919	8092
804.061	8450
804.204	8153
804.346	8012
804.488	7913
804.63	8012
804.773	7936
804.915	8096
805.057	8305
805.199	8073
805.341	8161
805.483	8275
805.626	8256
805.768	8153
805.91	8176
806.052	8229
806.194	8123
806.336	8305
806.478	8081
806.62	7959
806.762	8103
806.904	8233
807.046	8400
807.188	8328
807.33	8286
807.472	8275
807.614	8187
807.756	8176
807.898	8005
808.04	7906
808.182	7875
808.324	7898
808.465	7887
808.607	8062
808.749	8153
808.891	8172
809.033	8343
809.174	8290
809.316	8035
809.458	8073
809.6	7986
809.741	8096
809.883	7970
810.025	8081
810.166	8145
810.308	8062
810.45	7982
810.591	7792
810.733	7753
810.875	7704
811.016	7563
811.158	7540
811.299	7563
811.441	7746
811.582	7704
811.724	7544
811.865	7559
812.007	7670
812.148	7662
812.29	7639
812.431	7769
812.573	7875
812.714	8020
812.855	8164
812.997	8210
813.138	8374
813.279	8259
813.421	8134
813.562	7963
813.703	7932
813.845	7753
813.986	7487
814.127	7373
814.268	7259
814.41	7240
814.551	7225
814.692	7190
814.833	7194
814.974	7137
815.115	7118
815.256	7031
815.397	7004
815.539	6977
815.68	6859
815.821	6753
815.962	6909
816.103	6935
816.244	6745
816.385	6692
816.526	6642
816.666	6521
816.807	6353
816.948	6433
817.089	6517
817.23	6513
817.371	6429
817.512	6407
817.653	6456
817.793	6361
817.934	6448
818.075	6471
818.216	6498
818.356	6410
818.497	6281
818.638	6140
818.778	6205
818.919	6129
819.06	6155
819.2	6350
819.341	6407
819.481	6437
819.622	6593
819.762	6825
819.903	6730
820.043	6612
820.184	6654
820.324	6601
820.465	6711
820.605	6753
820.746	6734
820.886	6589
821.026	6665
821.167	6734
821.307	6913
821.447	6829
821.588	6764
821.728	6642
821.868	6585
822.008	6403
822.149	6407
822.289	6376
822.429	6235
822.569	6155
822.709	6197
822.849	5942
822.99	5992
823.13	5954
823.27	5927
823.41	5844
823.55	5824
823.69	5786
823.83	5798
823.97	5680
824.11	5528
824.25	5551
824.389	5520
824.529	5608
824.669	5547
824.809	5653
824.949	5707
825.089	5638
825.228	5627
825.368	5406
825.508	5429
825.648	5368
825.787	5410
825.927	5410
826.067	5360
826.206	5330
826.346	5425
826.485	5379
826.625	5501
826.765	5585
826.904	5467
827.044	5334
827.183	5223
827.323	5170
827.462	5231
827.601	5212
827.741	5227
827.88	5284
828.02	5147
828.159	5269
828.298	5292
828.437	5391
828.577	5280
828.716	5512
828.855	5391
828.994	5204
829.134	5185
829.273	5223
829.412	5143
829.551	5147
829.69	5223
829.829	5227
829.968	5436
830.107	5307
830.246	5353
830.385	5201
830.524	5162
830.663	5147
830.802	4995
830.941	4957
831.08	4881
831.219	5003
831.357	4957
831.496	5193
831.635	4942
831.774	4835
831.913	4847
832.051	4736
832.19	4740
832.329	4850
832.467	4714
832.606	4645
832.744	4763
832.883	4755
833.022	4733
833.16	4831
833.299	4831
833.437	4892
833.576	4820
833.714	4881
833.852	4919
833.991	4904
834.129	4984
834.267	4946
834.406	4919
834.544	4968
834.682	4976
834.821	4976
834.959	5193
835.097	4991
835.235	5136
835.373	5128
835.511	5109
835.65	5048
835.788	5052
835.926	4904
836.064	4828
836.202	4930
836.34	5220
836.478	5254
836.615	5147
836.753	5265
836.891	5284
837.029	5269
837.167	5242
837.305	5208
837.443	5193
837.58	5083
837.718	5254
837.856	5212
837.993	5147
838.131	5322
838.269	5258
838.406	5204
838.544	5174
838.681	5071
838.819	5010
838.956	4908
839.094	4873
839.231	4946
839.369	5090
839.506	5395
839.643	5311
839.781	5071
839.918	5010
840.055	5079
840.193	5102
840.33	5086
840.467	5128
840.604	5227
840.742	5474
840.879	5132
841.016	5181
841.153	5208
841.29	5436
841.427	5357
841.564	5254
841.701	5383
841.838	5277
841.975	5227
842.112	5261
842.249	5132
842.385	5117
842.522	5368
842.659	5212
842.796	5117
842.933	5227
843.069	5166
843.206	5124
843.343	5337
843.479	5235
843.616	5299
843.752	5086
843.889	5033
844.025	5269
844.162	5003
844.298	5185
844.435	5128
844.571	5098
844.708	5178
844.844	5322
844.98	5337
845.117	5307
845.253	5124
845.389	5132
845.525	5166
845.661	5189
845.798	5064
845.934	5143
846.07	5086
846.206	5258
846.342	5292
846.478	5197
846.614	4999
846.75	5029
846.886	4991
847.022	5109
847.158	5052
847.294	5060
847.429	5117
847.565	5083
847.701	5326
847.837	4885
847.972	4812
848.108	4999
848.244	4946
848.379	4820
848.515	4740
848.65	4721
848.786	4740
848.921	4820
849.057	4892
849.192	4889
849.328	4816
849.463	4881
849.598	4797
849.734	4828
849.869	4691
850.004	4687
850.14	4698
850.275	4649
850.41	4519
850.545	4660
850.68	4630
850.815	4660
850.95	4687
851.085	4843
851.22	4744
851.355	4706
851.49	4653
851.625	4691
851.76	4641
851.895	4580
852.03	4607
852.165	4710
852.299	4725
852.434	4885
852.569	4778
852.703	4812
852.838	4885
852.973	4995
853.107	4980
853.242	4725
853.376	4653
853.511	4588
853.645	4599
853.78	4839
853.914	4736
854.048	4778
854.183	4664
854.317	4698
854.451	4820
854.585	4706
854.72	4687
854.854	4759
854.988	4630
855.122	4653
855.256	4538
855.39	4702
855.524	4831
855.658	4725
855.792	4744
855.926	4744
856.06	4755
856.194	4820
856.327	4717
856.461	4653
856.595	4622
856.729	4649
856.862	4774
856.996	4687
857.13	4725
857.263	4771
857.397	4824
857.53	4691
857.664	4740
857.797	4744
857.931	4801
858.064	4752
858.197	4759
858.331	4626
858.464	4630
858.597	4504
858.731	4668
858.864	4687
858.997	4596
859.13	4691
859.263	4698
859.396	4698
859.529	4641
859.662	4569
859.795	4561
859.928	4649
860.061	4782
860.194	4763
860.327	4630
860.46	4634
860.592	4687
860.725	4714
860.858	4714
860.99	4592
861.123	4535
861.256	4489
861.388	4637
861.521	5459
861.653	4523
861.786	4447
861.918	4546
862.05	4489
862.183	4618
862.315	4603
862.447	4660
862.58	4569
862.712	4405
862.844	4337
862.976	4478
863.108	4474
863.24	4782
863.372	4360
863.504	4417
863.636	4417
863.768	4531
863.9	4478
864.032	4375
864.164	4443
864.296	4459
864.428	4550
864.559	4538
864.691	4565
864.823	4561
864.954	4466
865.086	4508
865.217	4519
865.349	4447
865.48	4424
865.612	4523
865.743	4622
865.875	4512
866.006	4421
866.137	4523
866.269	4432
866.4	4447
866.531	4405
866.662	4455
866.793	4459
866.924	4428
867.055	4478
867.186	4493
867.317	4466
867.448	4390
867.579	4432
867.71	4451
867.841	4405
867.972	4466
868.103	4474
868.233	4470
868.364	4489
868.495	4508
868.625	4683
868.756	4752
868.886	4542
869.017	4596
869.147	4771
869.278	4790
869.408	4694
869.539	4675
869.669	4759
869.799	4672
869.929	4774
870.06	4748
870.19	4972
870.32	4953
870.45	4991
870.58	5022
870.71	5083
870.84	5090
870.97	4953
871.1	4927
871.23	5124
871.36	5147
871.489	5052
871.619	5064
871.749	5067
871.879	5124
872.008	5185
872.138	5041
872.267	4984
872.397	4911
872.526	4858
872.656	4729
872.785	4763
872.915	4961
873.044	5045
873.173	4953
873.303	4984
873.432	4934
873.561	4972
873.69	4870
873.819	4889
873.948	4965
874.077	4752
874.206	4778
874.335	4805
874.464	4968
874.593	5098
874.722	4949
874.851	5075
874.979	5109
875.108	4984
875.237	4908
875.365	4896
875.494	4908
875.623	5006
875.751	4797
875.88	4908
876.008	5014
876.136	5041
876.265	5193
876.393	5349
876.521	5284
876.65	5246
876.778	5246
876.906	5109
877.034	5018
877.162	5064
877.29	4999
877.418	5117
877.546	5075
877.674	5045
877.802	5075
877.93	5014
878.058	4957
878.185	4915
878.313	4968
878.441	4877
878.568	4782
878.696	4881
878.824	4949
878.951	5025
879.079	5124
879.206	5334
879.333	5109
879.461	5079
879.588	5102
879.715	5193
879.842	5174
879.97	5010
880.097	4797
880.224	4782
880.351	4786
880.478	4854
880.605	4801
880.732	4797
880.859	5094
880.986	4919
881.112	4927
881.239	4786
881.366	4656
881.493	4599
881.619	4573
881.746	4653
881.872	4660
881.999	4675
882.125	4687
882.252	4843
882.378	4809
882.505	4991
882.631	4790
882.757	4710
882.883	4725
883.01	4710
883.136	4698
883.262	4626
883.388	4641
883.514	4847
883.64	4881
883.766	4809
883.892	4634
884.018	4740
884.143	4881
884.269	5029
884.395	4672
884.52	4637
884.646	4611
884.772	4645
884.897	4558
885.023	4641
885.148	4847
885.274	4881
885.399	4850
885.524	4710
885.65	4721
885.775	4774
885.9	4736
886.025	4847
886.15	4782
886.275	4733
886.4	4622
886.525	4748
886.65	4679
886.775	4668
886.9	4919
887.025	5041
887.149	4862
887.274	4691
887.399	4611
887.523	4618
887.648	4603
887.773	4607
887.897	4748
888.021	4809
888.146	4675
888.27	4809
888.395	4938
888.519	4854
888.643	4873
888.767	4858
888.891	4717
889.015	4622
889.139	4653
889.263	4641
889.387	4771
889.511	4911
889.635	4782
889.759	4611
889.883	4660
890.006	4755
890.13	4881
890.254	4630
890.377	4683
890.501	4565
890.624	4519
890.748	4599
890.871	4504
890.995	4440
891.118	4417
891.241	4542
891.364	4550
891.488	4649
891.611	4481
891.734	4588
891.857	4592
891.98	4546
892.103	4668
892.226	4558
892.349	4542
892.471	4432
892.594	4542
892.717	4615
892.839	4577
892.962	4565
893.085	4664
893.207	4618
893.33	4470
893.452	4523
893.575	4675
893.697	4558
893.819	4812
893.941	4828
894.064	4752
894.186	4577
894.308	4550
894.43	4687
894.552	4854
894.674	4744
894.796	4565
894.918	4611
895.04	4592
895.161	4710
895.283	4740
895.405	4596
895.526	4649
895.648	4656
895.769	4687
895.891	4752
896.012	4721
896.134	4710
896.255	4687
896.376	4656
896.498	4618
896.619	4687
896.74	4634
896.861	4637
896.982	4908
897.103	5083
897.224	4767
897.345	4752
897.466	4679
897.587	4729
897.708	4809
897.828	4812
897.949	4679
898.07	4577
898.19	4656
898.311	4831
898.431	4649
898.552	4729
898.672	4820
898.792	4843
898.913	4744
899.033	4653
899.153	4531
899.273	4436
899.393	4478
899.513	4516
899.633	4542
899.753	4512
899.873	4546
899.993	4561
900.113	4561
900.232	4599
900.352	4508
900.472	4508
900.591	4402
900.711	4497
900.83	4466
900.95	4622
901.069	4675
901.189	4512
901.308	4363
901.427	4310
901.546	4398
901.665	4519
901.784	4519
901.904	4421
902.023	4344
902.141	4211
902.26	4185
902.379	4314
902.498	4257
902.617	4192
902.735	4390
902.854	4443
902.973	4344
903.091	4234
903.21	4249
903.328	4249
903.446	4249
903.565	4246
903.683	4314
903.801	4287
903.919	4417
904.038	4421
904.156	4314
904.274	4447
904.392	4375
904.51	4462
904.627	4474
904.745	4554
904.863	4596
904.981	4394
905.098	4287
905.216	4383
905.334	4402
905.451	4459
905.569	4443
905.686	4637
905.803	4569
905.921	4447
906.038	4519
906.155	4466
906.272	4413
906.389	4440
906.506	4344
906.623	4398
906.74	4333
906.857	4333
906.974	4379
907.091	4546
907.208	4694
907.324	4580
907.441	4542
907.557	4386
907.674	4344
907.79	4325
907.907	4344
908.023	4493
908.139	4519
908.256	4398
908.372	4478
908.488	4466
908.604	4356
908.72	4314
908.836	4405
908.952	4421
909.068	4402
909.184	4584
909.3	4485
909.415	4599
909.531	4550
909.647	4322
909.762	4417
909.878	4348
909.993	4424
910.108	4367
910.224	4413
910.339	4432
910.454	4405
910.57	4333
910.685	4299
910.8	4634
910.915	4565
911.03	4443
911.145	4333
911.259	4413
911.374	4386
911.489	4280
911.604	4249
911.718	4196
911.833	4169
911.947	4067
912.062	4048
912.176	4200
912.291	4230
912.405	4276
912.519	4512
912.633	4500
912.748	4363
912.862	4303
912.976	4185
913.09	4067
913.204	4177
913.318	4242
913.431	4375
913.545	4413
913.659	4421
913.772	4348
913.886	4238
914	4268
914.113	4386
914.226	4424
914.34	4417
914.453	4219
914.566	4440
914.68	4299
914.793	4329
914.906	4124
915.019	4158
915.132	4124
915.245	4173
915.358	4215
915.47	4215
915.583	4227
915.696	4310
915.809	4424
915.921	4413
916.034	4295
916.146	4276
916.259	4207
916.371	4367
916.483	4363
916.595	4261
916.708	4318
916.82	4295
916.932	4325
917.044	4329
917.156	4352
917.268	4215
917.38	4242
917.491	4261
917.603	4337
917.715	4428
917.826	4421
917.938	4322
918.049	4219
918.161	4417
918.272	4561
918.384	4523
918.495	4466
918.606	4257
918.717	4185
918.828	4348
918.939	4333
919.05	4272
919.161	4310
919.272	4120
919.383	4234
919.494	4489
919.604	4599
919.715	4424
919.826	4337
919.936	4379
920.047	4451
920.157	4462
920.267	4710
920.378	4550
920.488	4512
920.598	4698
920.708	4866
920.818	4759
920.928	4736
921.038	4908
921.148	4911
921.258	4634
921.368	4550
921.477	4470
921.587	4500
921.697	4394
921.806	4519
921.916	4493
922.025	4246
922.134	4238
922.244	4246
922.353	4352
922.462	4150
922.571	4143
922.68	3979
922.789	3941
922.898	4055
923.007	3949
923.116	4074
923.224	4063
923.333	4059
923.442	3964
923.55	3937
923.659	4013
923.767	4139
923.876	3983
923.984	4124
924.092	3979
924.201	4074
924.309	4120
924.417	4139
924.525	4051
924.633	4078
924.741	5113
924.849	3880
924.956	4097
925.064	3972
925.172	3899
925.279	3945
925.387	4086
925.494	4029
925.602	4227
925.709	4162
925.816	4032
925.924	4128
926.031	4253
926.138	4166
926.245	4181
926.352	4093
926.459	4257
926.566	4318
926.673	4200
926.779	4093
926.886	4067
926.993	3968
927.099	3994
927.206	3934
927.312	3945
927.419	4017
927.525	4025
927.631	4097
927.737	4040
927.843	3934
927.95	3854
928.056	3918
928.162	3964
928.267	4086
928.373	4561
928.479	4116
928.585	3903
928.69	3994
928.796	4055
928.901	3960
929.007	3884
929.112	4002
929.218	3926
929.323	4010
929.428	3922
929.533	4116
929.638	3934
929.743	3926
929.848	4013
929.953	3991
930.058	3915
930.163	3732
930.267	3854
930.372	3998
930.477	3854
930.581	4082
930.685	3953
930.79	3838
930.894	3880
930.998	3827
931.103	4044
931.207	3717
931.311	3713
931.415	3694
931.519	3511
931.623	3572
