Data from test_V78500241_1677.txt Node
Date: Fri Mar 25 17:00:39 CST 2022
User: usil
Spectrometer: V785-0024
Trigger mode: 0
Integration Time (sec): 4.000000E-1
Scans to average: 1
Nonlinearity correction enabled: false
Boxcar width: 0
Storing dark spectrum: false
XAxis mode: Wavelengths
Number of Pixels in Spectrum: 1024
>>>>>Begin Spectral Data<<<<<
801.071	8077
801.214	7932
801.356	7856
801.499	7890
801.641	7780
801.783	7814
801.926	7970
802.068	7970
802.211	8050
802.353	7932
802.496	7852
802.638	7898
802.78	7902
802.923	7925
803.065	7913
803.208	7856
803.35	7928
803.492	8035
803.635	8130
803.777	8012
803.919	8180
804.061	8457
804.204	8092
804.346	8016
804.488	7967
804.63	8058
804.773	8005
804.915	8119
805.057	8290
805.199	8142
805.341	8191
805.483	8301
805.626	8271
805.768	8058
805.91	8221
806.052	8134
806.194	8069
806.336	8252
806.478	8123
806.62	8043
806.762	8115
806.904	8301
807.046	8507
807.188	8400
807.33	8305
807.472	8339
807.614	8180
807.756	8142
807.898	7997
808.04	7833
808.182	7951
808.324	7852
808.465	7925
808.607	8035
808.749	8039
808.891	8199
809.033	8229
809.174	8290
809.316	8043
809.458	7970
809.6	8020
809.741	7959
809.883	8016
810.025	8012
810.166	8077
810.308	8027
810.45	7989
810.591	7849
810.733	7723
810.875	7651
811.016	7460
811.158	7445
811.299	7586
811.441	7647
811.582	7689
811.724	7556
811.865	7540
812.007	7597
812.148	7563
812.29	7525
812.431	7757
812.573	7902
812.714	7967
812.855	8111
812.997	8172
813.138	8305
813.279	8183
813.421	8024
813.562	7940
813.703	7746
813.845	7723
813.986	7400
814.127	7240
814.268	7179
814.41	7175
814.551	7091
814.692	7232
814.833	7015
814.974	7149
815.115	7076
815.256	6970
815.397	6928
815.539	6958
815.68	6814
815.821	6783
815.962	6871
816.103	6825
816.244	6673
816.385	6593
816.526	6559
816.666	6414
816.807	6319
816.948	6422
817.089	6494
817.23	6372
817.371	6331
817.512	6350
817.653	6437
817.793	6353
817.934	6346
818.075	6410
818.216	6422
818.356	6437
818.497	6277
818.638	6064
818.778	6186
818.919	6087
819.06	6194
819.2	6357
819.341	6331
819.481	6350
819.622	6525
819.762	6726
819.903	6688
820.043	6574
820.184	6585
820.324	6585
820.465	6696
820.605	6665
820.746	6677
820.886	6456
821.026	6681
821.167	6726
821.307	6810
821.447	6798
821.588	6711
821.728	6582
821.868	6528
822.008	6357
822.149	6372
822.289	6372
822.429	6190
822.569	6121
822.709	6133
822.849	5901
822.99	5950
823.13	5904
823.27	5901
823.41	5855
823.55	5824
823.69	5745
823.83	5748
823.97	5642
824.11	5539
824.25	5516
824.389	5585
824.529	5638
824.669	5505
824.809	5627
824.949	5665
825.089	5608
825.228	5562
825.368	5402
825.508	5318
825.648	5353
825.787	5379
825.927	5395
826.067	5337
826.206	5349
826.346	5490
826.485	5433
826.625	5482
826.765	5539
826.904	5486
827.044	5280
827.183	5220
827.323	5166
827.462	5299
827.601	5212
827.741	5178
827.88	5212
828.02	5124
828.159	5239
828.298	5383
828.437	5372
828.577	5322
828.716	5452
828.855	5387
828.994	5204
829.134	5197
829.273	5155
829.412	5132
829.551	5197
829.69	5201
829.829	5277
829.968	5402
830.107	5250
830.246	5326
830.385	5178
830.524	5193
830.663	5071
830.802	4965
830.941	4866
831.08	4934
831.219	5033
831.357	5003
831.496	5178
831.635	4987
831.774	4896
831.913	4820
832.051	4744
832.19	4721
832.329	4892
832.467	4717
832.606	4653
832.744	4755
832.883	4748
833.022	4748
833.16	4801
833.299	4847
833.437	4839
833.576	4820
833.714	4881
833.852	4873
833.991	4908
834.129	4972
834.267	4968
834.406	4911
834.544	4968
834.682	4942
834.821	4999
834.959	5151
835.097	5029
835.235	5201
835.373	5102
835.511	5132
835.65	5041
835.788	5033
835.926	4877
836.064	4885
836.202	4957
836.34	5166
836.478	5269
836.615	5121
836.753	5201
836.891	5368
837.029	5284
837.167	5254
837.305	5185
837.443	5117
837.58	5094
837.718	5326
837.856	5223
837.993	5121
838.131	5254
838.269	5212
838.406	5242
838.544	5223
838.681	5109
838.819	5056
838.956	4953
839.094	4984
839.231	5006
839.369	5132
839.506	5429
839.643	5280
839.781	5128
839.918	5029
840.055	5071
840.193	5067
840.33	5079
840.467	5147
840.604	5212
840.742	5532
840.879	5086
841.016	5117
841.153	5189
841.29	5455
841.427	5307
841.564	5315
841.701	5429
841.838	5326
841.975	5273
842.112	5280
842.249	5178
842.385	5166
842.522	5383
842.659	5242
842.796	5166
842.933	5223
843.069	5132
843.206	5185
843.343	5326
843.479	5288
843.616	5269
843.752	5041
843.889	5048
844.025	5239
844.162	5033
844.298	5223
844.435	5117
844.571	5113
844.708	5223
844.844	5265
844.98	5296
845.117	5303
845.253	5147
845.389	5067
845.525	5155
845.661	5124
845.798	5056
845.934	5174
846.07	5090
846.206	5185
846.342	5318
846.478	5189
846.614	5064
846.75	5064
846.886	4972
847.022	5185
847.158	5033
847.294	5083
847.429	5140
847.565	5098
847.701	5330
847.837	4877
847.972	4824
848.108	5018
848.244	4968
848.379	4812
848.515	4721
848.65	4748
848.786	4736
848.921	4820
849.057	4919
849.192	4908
849.328	4828
849.463	4862
849.598	4801
849.734	4771
849.869	4664
850.004	4656
850.14	4717
850.275	4626
850.41	4569
850.545	4603
850.68	4649
850.815	4649
850.95	4599
851.085	4835
851.22	4755
851.355	4683
851.49	4668
851.625	4618
851.76	4653
851.895	4584
852.03	4542
852.165	4683
852.299	4733
852.434	4790
852.569	4748
852.703	4778
852.838	4896
852.973	4976
853.107	4919
853.242	4698
853.376	4729
853.511	4569
853.645	4615
853.78	4835
853.914	4702
854.048	4702
854.183	4664
854.317	4721
854.451	4889
854.585	4702
854.72	4668
854.854	4771
854.988	4603
855.122	4653
855.256	4523
855.39	4706
855.524	4797
855.658	4752
855.792	4702
855.926	4752
856.06	4767
856.194	4793
856.327	4710
856.461	4607
856.595	4634
856.729	4618
856.862	4771
856.996	4717
857.13	4736
857.263	4782
857.397	4816
857.53	4645
857.664	4729
857.797	4839
857.931	4767
858.064	4717
858.197	4790
858.331	4706
858.464	4691
858.597	4516
858.731	4672
858.864	4717
858.997	4607
859.13	4653
859.263	4687
859.396	4672
859.529	4577
859.662	4565
859.795	4561
859.928	4580
860.061	4767
860.194	4790
860.327	4649
860.46	4535
860.592	4733
860.725	4714
860.858	4759
860.99	4580
861.123	4565
861.256	4550
861.388	4607
861.521	5436
861.653	4558
861.786	4504
861.918	4493
862.05	4554
862.183	4538
862.315	4622
862.447	4702
862.58	4569
862.712	4455
862.844	4375
862.976	4459
863.108	4455
863.24	4729
863.372	4344
863.504	4443
863.636	4398
863.768	4523
863.9	4436
864.032	4390
864.164	4451
864.296	4512
864.428	4561
864.559	4615
864.691	4542
864.823	4497
864.954	4527
865.086	4535
865.217	4459
865.349	4440
865.48	4466
865.612	4527
865.743	4645
865.875	4462
866.006	4470
866.137	4474
866.269	4383
866.4	4500
866.531	4462
866.662	4398
866.793	4421
866.924	4478
867.055	4493
867.186	4462
867.317	4386
867.448	4405
867.579	4424
867.71	4417
867.841	4352
867.972	4504
868.103	4485
868.233	4485
868.364	4424
868.495	4550
868.625	4630
868.756	4797
868.886	4660
869.017	4630
869.147	4820
869.278	4748
869.408	4675
869.539	4664
869.669	4710
869.799	4679
869.929	4790
870.06	4797
870.19	4968
870.32	4938
870.45	4927
870.58	5048
870.71	5083
870.84	5105
870.97	4961
871.1	4923
871.23	5159
871.36	5094
871.489	5014
871.619	5113
871.749	5140
871.879	5140
872.008	5178
872.138	5071
872.267	5041
872.397	4812
872.526	4778
872.656	4736
872.785	4763
872.915	4934
873.044	5029
873.173	4942
873.303	4991
873.432	4987
873.561	4984
873.69	4892
873.819	4904
873.948	4934
874.077	4805
874.206	4771
874.335	4793
874.464	4892
874.593	5094
874.722	4915
874.851	5105
874.979	5048
875.108	5071
875.237	4934
875.365	4900
875.494	4866
875.623	4949
875.751	4816
875.88	4854
876.008	4938
876.136	5060
876.265	5261
876.393	5353
876.521	5220
876.65	5280
876.778	5174
876.906	5075
877.034	5037
877.162	5041
877.29	4999
877.418	5075
877.546	4991
877.674	5075
877.802	5056
877.93	5014
878.058	4915
878.185	4915
878.313	4927
878.441	4946
878.568	4835
878.696	4877
878.824	5014
878.951	4976
879.079	5079
879.206	5303
879.333	5113
879.461	4972
879.588	5006
879.715	5159
879.842	5235
879.97	4965
880.097	4801
880.224	4721
880.351	4778
880.478	4816
880.605	4759
880.732	4820
880.859	5075
880.986	4850
881.112	4930
881.239	4801
881.366	4706
881.493	4603
881.619	4577
881.746	4660
881.872	4630
881.999	4691
882.125	4748
882.252	4812
882.378	4835
882.505	4972
882.631	4816
882.757	4698
882.883	4687
883.01	4668
883.136	4656
883.262	4599
883.388	4599
883.514	4828
883.64	4908
883.766	4820
883.892	4664
884.018	4691
884.143	4911
884.269	5056
884.395	4683
884.52	4615
884.646	4683
884.772	4611
884.897	4554
885.023	4653
885.148	4812
885.274	4850
885.399	4843
885.524	4717
885.65	4729
885.775	4774
885.9	4721
886.025	4790
886.15	4797
886.275	4778
886.4	4668
886.525	4725
886.65	4706
886.775	4672
886.9	4919
887.025	5067
887.149	4824
887.274	4630
887.399	4584
887.523	4637
887.648	4599
887.773	4588
887.897	4736
888.021	4801
888.146	4691
888.27	4797
888.395	4919
888.519	4786
888.643	4809
888.767	4782
888.891	4706
889.015	4656
889.139	4653
889.263	4618
889.387	4828
889.511	4870
889.635	4812
889.759	4641
889.883	4637
890.006	4752
890.13	4847
890.254	4630
890.377	4683
890.501	4565
890.624	4523
890.748	4618
890.871	4538
890.995	4440
891.118	4405
891.241	4538
891.364	4527
891.488	4664
891.611	4462
891.734	4580
891.857	4569
891.98	4596
892.103	4641
892.226	4580
892.349	4512
892.471	4443
892.594	4546
892.717	4580
892.839	4573
892.962	4615
893.085	4607
893.207	4626
893.33	4462
893.452	4508
893.575	4679
893.697	4535
893.819	4786
893.941	4839
894.064	4736
894.186	4611
894.308	4599
894.43	4752
894.552	4843
894.674	4721
894.796	4493
894.918	4653
895.04	4550
895.161	4740
895.283	4637
895.405	4569
895.526	4649
895.648	4702
895.769	4675
895.891	4736
896.012	4672
896.134	4771
896.255	4622
896.376	4573
896.498	4611
896.619	4675
896.74	4630
896.861	4630
896.982	4961
897.103	5052
897.224	4801
897.345	4763
897.466	4672
897.587	4733
897.708	4873
897.828	4752
897.949	4653
898.07	4592
898.19	4675
898.311	4782
898.431	4668
898.552	4721
898.672	4767
898.792	4801
898.913	4725
899.033	4675
899.153	4565
899.273	4459
899.393	4508
899.513	4569
899.633	4519
899.753	4561
899.873	4561
899.993	4588
900.113	4535
900.232	4584
900.352	4527
900.472	4527
900.591	4409
900.711	4478
900.83	4466
900.95	4660
901.069	4721
901.189	4569
901.308	4348
901.427	4314
901.546	4424
901.665	4447
901.784	4516
901.904	4413
902.023	4310
902.141	4166
902.26	4181
902.379	4322
902.498	4238
902.617	4207
902.735	4390
902.854	4390
902.973	4333
903.091	4196
903.21	4284
903.328	4272
903.446	4272
903.565	4295
903.683	4295
903.801	4280
903.919	4344
904.038	4421
904.156	4287
904.274	4440
904.392	4360
904.51	4432
904.627	4466
904.745	4512
904.863	4637
904.981	4405
905.098	4310
905.216	4363
905.334	4451
905.451	4470
905.569	4428
905.686	4565
905.803	4588
905.921	4398
906.038	4573
906.155	4485
906.272	4405
906.389	4470
906.506	4337
906.623	4394
906.74	4356
906.857	4265
906.974	4375
907.091	4535
907.208	4672
907.324	4577
907.441	4481
907.557	4379
907.674	4367
907.79	4360
907.907	4371
908.023	4462
908.139	4478
908.256	4409
908.372	4466
908.488	4432
908.604	4405
908.72	4325
908.836	4367
908.952	4341
909.068	4367
909.184	4523
909.3	4504
909.415	4584
909.531	4516
909.647	4352
909.762	4390
909.878	4303
909.993	4459
910.108	4466
910.224	4428
910.339	4508
910.454	4383
910.57	4337
910.685	4299
910.8	4596
910.915	4592
911.03	4516
911.145	4322
911.259	4329
911.374	4352
911.489	4337
911.604	4265
911.718	4162
911.833	4166
911.947	4078
912.062	4006
912.176	4169
912.291	4276
912.405	4280
912.519	4474
912.633	4459
912.748	4398
912.862	4329
912.976	4272
913.09	4055
913.204	4192
913.318	4207
913.431	4348
913.545	4356
913.659	4436
913.772	4325
913.886	4246
914	4200
914.113	4394
914.226	4421
914.34	4379
914.453	4284
914.566	4405
914.68	4344
914.793	4348
914.906	4139
915.019	4082
915.132	4090
915.245	4181
915.358	4185
915.47	4253
915.583	4299
915.696	4287
915.809	4436
915.921	4489
916.034	4265
916.146	4249
916.259	4185
916.371	4360
916.483	4325
916.595	4272
916.708	4337
916.82	4360
916.932	4299
917.044	4344
917.156	4325
917.268	4234
917.38	4295
917.491	4265
917.603	4329
917.715	4413
917.826	4447
917.938	4344
918.049	4207
918.161	4402
918.272	4508
918.384	4523
918.495	4462
918.606	4253
918.717	4253
918.828	4352
918.939	4352
919.05	4230
919.161	4276
919.272	4173
919.383	4219
919.494	4474
919.604	4637
919.715	4428
919.826	4356
919.936	4398
920.047	4523
920.157	4527
920.267	4687
920.378	4535
920.488	4512
920.598	4725
920.708	4877
920.818	4767
920.928	4729
921.038	4953
921.148	4881
921.258	4603
921.368	4546
921.477	4470
921.587	4478
921.697	4367
921.806	4497
921.916	4428
922.025	4242
922.134	4265
922.244	4234
922.353	4325
922.462	4181
922.571	4112
922.68	3983
922.789	3983
922.898	4051
923.007	3987
923.116	4059
923.224	4090
923.333	4067
923.442	4021
923.55	3949
923.659	4082
923.767	4124
923.876	3975
923.984	4090
924.092	3968
924.201	4090
924.309	4074
924.417	4124
924.525	4071
924.633	4124
924.741	4889
924.849	3941
924.956	4128
925.064	3953
925.172	3854
925.279	3972
925.387	4086
925.494	4036
925.602	4219
925.709	4177
925.816	4021
925.924	4120
926.031	4219
926.138	4169
926.245	4215
926.352	4078
926.459	4249
926.566	4310
926.673	4124
926.779	4044
926.886	4078
926.993	3960
927.099	3945
927.206	3915
927.312	3941
927.419	4044
927.525	4021
927.631	4078
927.737	4006
927.843	3922
927.95	3831
928.056	3941
928.162	3979
928.267	4082
928.373	4653
928.479	4093
928.585	3945
928.69	4048
928.796	3994
928.901	3975
929.007	3819
929.112	4006
929.218	3956
929.323	3964
929.428	3953
929.533	4086
929.638	3907
929.743	3960
929.848	4044
929.953	3979
930.058	3922
930.163	3789
930.267	3831
930.372	3964
930.477	3846
930.581	4090
930.685	3945
930.79	3842
930.894	3880
930.998	3865
931.103	4006
931.207	3705
931.311	3705
931.415	3667
931.519	3530
931.623	3526
