Data from test_V78500241_401.txt Node
Date: Fri Mar 25 16:51:47 CST 2022
User: usil
Spectrometer: V785-0024
Trigger mode: 0
Integration Time (sec): 4.000000E-1
Scans to average: 1
Nonlinearity correction enabled: false
Boxcar width: 0
Storing dark spectrum: false
XAxis mode: Wavelengths
Number of Pixels in Spectrum: 1024
>>>>>Begin Spectral Data<<<<<
801.071	8039
801.214	8046
801.356	7898
801.499	7856
801.641	7814
801.783	7845
801.926	7951
802.068	7955
802.211	8005
802.353	8024
802.496	7803
802.638	7868
802.78	7925
802.923	7944
803.065	7883
803.208	7890
803.35	7970
803.492	8073
803.635	8134
803.777	7978
803.919	8119
804.061	8457
804.204	8092
804.346	8050
804.488	7925
804.63	8035
804.773	7928
804.915	8031
805.057	8294
805.199	8161
805.341	8206
805.483	8271
805.626	8138
805.768	8054
805.91	8123
806.052	8221
806.194	8142
806.336	8381
806.478	8221
806.62	8088
806.762	8088
806.904	8252
807.046	8480
807.188	8282
807.33	8275
807.472	8374
807.614	8149
807.756	8180
807.898	8039
808.04	7936
808.182	7947
808.324	7921
808.465	7944
808.607	8103
808.749	8062
808.891	8202
809.033	8294
809.174	8161
809.316	8119
809.458	8111
809.6	8027
809.741	8027
809.883	8016
810.025	8119
810.166	8134
810.308	8024
810.45	8012
810.591	7868
810.733	7757
810.875	7719
811.016	7499
811.158	7575
811.299	7723
811.441	7792
811.582	7769
811.724	7597
811.865	7632
812.007	7628
812.148	7655
812.29	7674
812.431	7792
812.573	7864
812.714	8039
812.855	8115
812.997	8240
813.138	8282
813.279	8237
813.421	8164
813.562	8062
813.703	7909
813.845	7864
813.986	7502
814.127	7365
814.268	7358
814.41	7293
814.551	7179
814.692	7202
814.833	7168
814.974	7088
815.115	7114
815.256	6966
815.397	6939
815.539	6985
815.68	6791
815.821	6829
815.962	6913
816.103	6867
816.244	6768
816.385	6703
816.526	6658
816.666	6513
816.807	6353
816.948	6422
817.089	6471
817.23	6429
817.371	6445
817.512	6365
817.653	6414
817.793	6395
817.934	6399
818.075	6467
818.216	6513
818.356	6414
818.497	6251
818.638	6140
818.778	6125
818.919	6121
819.06	6163
819.2	6311
819.341	6334
819.481	6361
819.622	6570
819.762	6757
819.903	6741
820.043	6563
820.184	6642
820.324	6521
820.465	6673
820.605	6684
820.746	6627
820.886	6540
821.026	6700
821.167	6696
821.307	6795
821.447	6776
821.588	6654
821.728	6604
821.868	6471
822.008	6342
822.149	6475
822.289	6346
822.429	6152
822.569	6125
822.709	6140
822.849	5908
822.99	5920
823.13	5923
823.27	5961
823.41	5737
823.55	5805
823.69	5760
823.83	5794
823.97	5710
824.11	5592
824.25	5482
824.389	5604
824.529	5554
824.669	5535
824.809	5684
824.949	5653
825.089	5668
825.228	5577
825.368	5391
825.508	5318
825.648	5360
825.787	5383
825.927	5402
826.067	5273
826.206	5296
826.346	5433
826.485	5421
826.625	5459
826.765	5573
826.904	5452
827.044	5265
827.183	5250
827.323	5140
827.462	5239
827.601	5204
827.741	5201
827.88	5231
828.02	5136
828.159	5261
828.298	5307
828.437	5353
828.577	5311
828.716	5471
828.855	5326
828.994	5170
829.134	5155
829.273	5178
829.412	5189
829.551	5113
829.69	5223
829.829	5242
829.968	5341
830.107	5246
830.246	5330
830.385	5193
830.524	5159
830.663	5094
830.802	4972
830.941	4885
831.08	4858
831.219	4968
831.357	4976
831.496	5117
831.635	4965
831.774	4824
831.913	4847
832.051	4763
832.19	4702
832.329	4873
832.467	4698
832.606	4618
832.744	4755
832.883	4725
833.022	4748
833.16	4801
833.299	4831
833.437	4786
833.576	4801
833.714	4809
833.852	4877
833.991	4915
834.129	4961
834.267	4949
834.406	4930
834.544	5033
834.682	5006
834.821	4968
834.959	5178
835.097	5045
835.235	5102
835.373	5045
835.511	5075
835.65	5056
835.788	5056
835.926	4904
836.064	4915
836.202	4938
836.34	5147
836.478	5250
836.615	5094
836.753	5227
836.891	5242
837.029	5277
837.167	5193
837.305	5208
837.443	5166
837.58	5071
837.718	5212
837.856	5143
837.993	5162
838.131	5261
838.269	5140
838.406	5170
838.544	5216
838.681	5014
838.819	5029
838.956	4934
839.094	4930
839.231	4972
839.369	5022
839.506	5459
839.643	5288
839.781	5075
839.918	5025
840.055	5094
840.193	5147
840.33	5128
840.467	5151
840.604	5159
840.742	5467
840.879	5098
841.016	5067
841.153	5174
841.29	5372
841.427	5326
841.564	5357
841.701	5341
841.838	5269
841.975	5246
842.112	5261
842.249	5159
842.385	5098
842.522	5299
842.659	5166
842.796	5151
842.933	5220
843.069	5121
843.206	5124
843.343	5330
843.479	5261
843.616	5265
843.752	5060
843.889	4968
844.025	5227
844.162	5037
844.298	5231
844.435	5140
844.571	5056
844.708	5181
844.844	5349
844.98	5391
845.117	5318
845.253	5124
845.389	5086
845.525	5223
845.661	5162
845.798	5041
845.934	5094
846.07	5045
846.206	5201
846.342	5261
846.478	5136
846.614	4957
846.75	4984
846.886	4972
847.022	5159
847.158	5010
847.294	5060
847.429	5143
847.565	5067
847.701	5326
847.837	4828
847.972	4824
848.108	4946
848.244	4900
848.379	4752
848.515	4752
848.65	4717
848.786	4748
848.921	4782
849.057	4866
849.192	4904
849.328	4793
849.463	4820
849.598	4767
849.734	4759
849.869	4710
850.004	4618
850.14	4626
850.275	4577
850.41	4512
850.545	4512
850.68	4611
850.815	4630
850.95	4672
851.085	4812
851.22	4767
851.355	4634
851.49	4622
851.625	4694
851.76	4630
851.895	4611
852.03	4561
852.165	4660
852.299	4752
852.434	4771
852.569	4763
852.703	4782
852.838	4839
852.973	4896
853.107	4919
853.242	4759
853.376	4706
853.511	4519
853.645	4592
853.78	4786
853.914	4660
854.048	4687
854.183	4630
854.317	4668
854.451	4847
854.585	4683
854.72	4607
854.854	4748
854.988	4596
855.122	4664
855.256	4538
855.39	4698
855.524	4778
855.658	4702
855.792	4679
855.926	4687
856.06	4771
856.194	4835
856.327	4702
856.461	4577
856.595	4660
856.729	4588
856.862	4767
856.996	4653
857.13	4733
857.263	4729
857.397	4812
857.53	4683
857.664	4740
857.797	4755
857.931	4778
858.064	4725
858.197	4748
858.331	4626
858.464	4618
858.597	4569
858.731	4630
858.864	4630
858.997	4573
859.13	4607
859.263	4645
859.396	4710
859.529	4584
859.662	4580
859.795	4580
859.928	4634
860.061	4820
860.194	4782
860.327	4607
860.46	4550
860.592	4748
860.725	4702
860.858	4748
860.99	4603
861.123	4512
861.256	4485
861.388	4603
861.521	5360
861.653	4512
861.786	4440
861.918	4424
862.05	4531
862.183	4588
862.315	4630
862.447	4618
862.58	4516
862.712	4417
862.844	4360
862.976	4432
863.108	4466
863.24	4752
863.372	4329
863.504	4436
863.636	4360
863.768	4474
863.9	4466
864.032	4352
864.164	4409
864.296	4504
864.428	4538
864.559	4542
864.691	4523
864.823	4554
864.954	4558
865.086	4512
865.217	4508
865.349	4417
865.48	4470
865.612	4500
865.743	4672
865.875	4478
866.006	4440
866.137	4500
866.269	4478
866.4	4481
866.531	4432
866.662	4390
866.793	4462
866.924	4394
867.055	4561
867.186	4474
867.317	4398
867.448	4409
867.579	4424
867.71	4413
867.841	4432
867.972	4466
868.103	4489
868.233	4459
868.364	4428
868.495	4493
868.625	4649
868.756	4748
868.886	4504
869.017	4611
869.147	4752
869.278	4774
869.408	4672
869.539	4637
869.669	4778
869.799	4645
869.929	4805
870.06	4748
870.19	4961
870.32	4843
870.45	4927
870.58	5022
870.71	5071
870.84	5109
870.97	4957
871.1	4896
871.23	5147
871.36	5132
871.489	5048
871.619	5052
871.749	5117
871.879	5105
872.008	5166
872.138	5113
872.267	4968
872.397	4862
872.526	4843
872.656	4714
872.785	4790
872.915	4949
873.044	5098
873.173	4949
873.303	4987
873.432	4946
873.561	4930
873.69	4892
873.819	4885
873.948	4930
874.077	4824
874.206	4778
874.335	4805
874.464	4896
874.593	5045
874.722	5022
874.851	5090
874.979	5083
875.108	5075
875.237	4919
875.365	4873
875.494	4889
875.623	5045
875.751	4835
875.88	4892
876.008	4942
876.136	5025
876.265	5201
876.393	5330
876.521	5201
876.65	5231
876.778	5128
876.906	5033
877.034	5102
877.162	5090
877.29	5010
877.418	5060
877.546	5056
877.674	5060
877.802	5029
877.93	5033
878.058	4938
878.185	4873
878.313	4965
878.441	4957
878.568	4809
878.696	4934
878.824	4938
878.951	4968
879.079	5124
879.206	5299
879.333	5117
879.461	4965
879.588	4965
879.715	5147
879.842	5189
879.97	4976
880.097	4793
880.224	4778
880.351	4786
880.478	4828
880.605	4786
880.732	4790
880.859	5109
880.986	4881
881.112	4892
881.239	4774
881.366	4668
881.493	4584
881.619	4615
881.746	4599
881.872	4649
881.999	4634
882.125	4691
882.252	4778
882.378	4835
882.505	4987
882.631	4797
882.757	4649
882.883	4687
883.01	4733
883.136	4656
883.262	4603
883.388	4599
883.514	4835
883.64	4843
883.766	4828
883.892	4656
884.018	4744
884.143	4873
884.269	4980
884.395	4660
884.52	4558
884.646	4626
884.772	4618
884.897	4554
885.023	4668
885.148	4793
885.274	4862
885.399	4809
885.524	4748
885.65	4717
885.775	4748
885.9	4679
886.025	4858
886.15	4824
886.275	4733
886.4	4687
886.525	4778
886.65	4672
886.775	4702
886.9	4927
887.025	5041
887.149	4805
887.274	4641
887.399	4599
887.523	4656
887.648	4592
887.773	4558
887.897	4721
888.021	4805
888.146	4649
888.27	4782
888.395	4892
888.519	4793
888.643	4866
888.767	4824
888.891	4691
889.015	4603
889.139	4668
889.263	4622
889.387	4752
889.511	4877
889.635	4786
889.759	4645
889.883	4687
890.006	4729
890.13	4786
890.254	4630
890.377	4668
890.501	4550
890.624	4474
890.748	4641
890.871	4508
890.995	4424
891.118	4390
891.241	4527
891.364	4588
891.488	4626
891.611	4512
891.734	4580
891.857	4592
891.98	4607
892.103	4653
892.226	4615
892.349	4550
892.471	4375
892.594	4504
892.717	4558
892.839	4599
892.962	4584
893.085	4668
893.207	4596
893.33	4436
893.452	4523
893.575	4641
893.697	4558
893.819	4790
893.941	4854
894.064	4759
894.186	4569
894.308	4569
894.43	4740
894.552	4854
894.674	4767
894.796	4618
894.918	4596
895.04	4584
895.161	4710
895.283	4618
895.405	4538
895.526	4592
895.648	4706
895.769	4687
895.891	4698
896.012	4748
896.134	4744
896.255	4668
896.376	4649
896.498	4637
896.619	4649
896.74	4603
896.861	4641
896.982	4892
897.103	5033
897.224	4835
897.345	4710
897.466	4672
897.587	4729
897.708	4831
897.828	4774
897.949	4679
898.07	4592
898.19	4649
898.311	4771
898.431	4679
898.552	4725
898.672	4801
898.792	4790
898.913	4706
899.033	4634
899.153	4497
899.273	4428
899.393	4481
899.513	4500
899.633	4493
899.753	4538
899.873	4497
899.993	4596
900.113	4538
900.232	4538
900.352	4519
900.472	4489
900.591	4383
900.711	4500
900.83	4440
900.95	4599
901.069	4691
901.189	4523
901.308	4329
901.427	4299
901.546	4363
901.665	4443
901.784	4542
901.904	4386
902.023	4306
902.141	4204
902.26	4162
902.379	4306
902.498	4276
902.617	4272
902.735	4432
902.854	4394
902.973	4352
903.091	4215
903.21	4227
903.328	4295
903.446	4230
903.565	4325
903.683	4322
903.801	4314
903.919	4451
904.038	4455
904.156	4360
904.274	4466
904.392	4424
904.51	4466
904.627	4500
904.745	4622
904.863	4679
904.981	4470
905.098	4383
905.216	4386
905.334	4455
905.451	4531
905.569	4493
905.686	4622
905.803	4626
905.921	4383
906.038	4626
906.155	4523
906.272	4466
906.389	4493
906.506	4383
906.623	4424
906.74	4398
906.857	4325
906.974	4386
907.091	4660
907.208	4702
907.324	4637
907.441	4478
907.557	4375
907.674	4394
907.79	4337
907.907	4443
908.023	4538
908.139	4508
908.256	4474
908.372	4512
908.488	4504
908.604	4394
908.72	4386
908.836	4440
908.952	4371
909.068	4504
909.184	4664
909.3	4489
909.415	4664
909.531	4542
909.647	4443
909.762	4421
909.878	4371
909.993	4512
910.108	4443
910.224	4508
910.339	4508
910.454	4451
910.57	4352
910.685	4341
910.8	4710
910.915	4664
911.03	4561
911.145	4436
911.259	4360
911.374	4417
911.489	4344
911.604	4306
911.718	4207
911.833	4242
911.947	4143
912.062	4063
912.176	4242
912.291	4280
912.405	4306
912.519	4519
912.633	4497
912.748	4421
912.862	4383
912.976	4276
913.09	4124
913.204	4200
913.318	4318
913.431	4375
913.545	4413
913.659	4500
913.772	4367
913.886	4284
914	4223
914.113	4428
914.226	4500
914.34	4481
914.453	4291
914.566	4466
914.68	4348
914.793	4383
914.906	4200
915.019	4158
915.132	4139
915.245	4246
915.358	4246
915.47	4253
915.583	4299
915.696	4337
915.809	4424
915.921	4478
916.034	4295
916.146	4318
916.259	4257
916.371	4421
916.483	4451
916.595	4242
916.708	4405
916.82	4367
916.932	4325
917.044	4386
917.156	4337
917.268	4287
917.38	4318
917.491	4348
917.603	4379
917.715	4451
917.826	4466
917.938	4421
918.049	4265
918.161	4443
918.272	4573
918.384	4599
918.495	4474
918.606	4287
918.717	4295
918.828	4379
918.939	4394
919.05	4230
919.161	4352
919.272	4215
919.383	4242
919.494	4474
919.604	4679
919.715	4421
919.826	4375
919.936	4421
920.047	4523
920.157	4519
920.267	4725
920.378	4611
920.488	4527
920.598	4752
920.708	4904
920.818	4771
920.928	4793
921.038	5014
921.148	4965
921.258	4664
921.368	4622
921.477	4565
921.587	4504
921.697	4421
921.806	4531
921.916	4478
922.025	4314
922.134	4310
922.244	4253
922.353	4371
922.462	4227
922.571	4177
922.68	4025
922.789	3975
922.898	4071
923.007	4010
923.116	4154
923.224	4036
923.333	4109
923.442	4036
923.55	4074
923.659	4048
923.767	4143
923.876	4029
923.984	4143
924.092	4032
924.201	4112
924.309	4131
924.417	4169
924.525	4109
924.633	4120
924.741	5113
924.849	3960
924.956	4154
925.064	3987
925.172	3972
925.279	4010
925.387	4105
925.494	4051
925.602	4223
925.709	4291
925.816	4082
925.924	4207
926.031	4257
926.138	4257
926.245	4238
926.352	4150
926.459	4291
926.566	4344
926.673	4200
926.779	4131
926.886	4112
926.993	4051
927.099	4021
927.206	3979
927.312	3937
927.419	4116
927.525	4120
927.631	4147
927.737	3998
927.843	3972
927.95	3915
928.056	4036
928.162	3972
928.267	4074
928.373	4687
928.479	4169
928.585	3899
928.69	4128
928.796	4078
928.901	3968
929.007	3873
929.112	4051
929.218	4006
929.323	3953
929.428	3968
929.533	4154
929.638	3899
929.743	3987
929.848	4105
929.953	4040
930.058	3983
930.163	3823
930.267	3880
930.372	4036
930.477	3865
930.581	4169
930.685	4013
930.79	3854
930.894	3896
930.998	3918
931.103	4048
931.207	3724
931.311	3713
931.415	3720
931.519	3587
931.623	3576
