Data from test_V78500241_1826.txt Node
Date: Fri Mar 25 17:01:41 CST 2022
User: usil
Spectrometer: V785-0024
Trigger mode: 0
Integration Time (sec): 4.000000E-1
Scans to average: 1
Nonlinearity correction enabled: false
Boxcar width: 0
Storing dark spectrum: false
XAxis mode: Wavelengths
Number of Pixels in Spectrum: 1024
>>>>>Begin Spectral Data<<<<<
801.071	8005
801.214	8020
801.356	7841
801.499	7826
801.641	7875
801.783	7822
801.926	7974
802.068	7959
802.211	8069
802.353	7989
802.496	7875
802.638	7807
802.78	7944
802.923	7883
803.065	7841
803.208	7852
803.35	7902
803.492	8084
803.635	8115
803.777	8050
803.919	8119
804.061	8404
804.204	8142
804.346	7997
804.488	7932
804.63	8088
804.773	8016
804.915	8054
805.057	8305
805.199	8081
805.341	8195
805.483	8221
805.626	8244
805.768	8088
805.91	8225
806.052	8248
806.194	8149
806.336	8286
806.478	8024
806.62	8001
806.762	8168
806.904	8252
807.046	8488
807.188	8370
807.33	8259
807.472	8313
807.614	8187
807.756	8115
807.898	8043
808.04	7913
808.182	7883
808.324	7875
808.465	7921
808.607	8016
808.749	8161
808.891	8256
809.033	8252
809.174	8229
809.316	8092
809.458	8103
809.6	7947
809.741	8016
809.883	8073
810.025	8088
810.166	7997
810.308	7997
810.45	7982
810.591	7845
810.733	7731
810.875	7685
811.016	7548
811.158	7563
811.299	7567
811.441	7715
811.582	7620
811.724	7590
811.865	7563
812.007	7571
812.148	7518
812.29	7586
812.431	7757
812.573	7898
812.714	7925
812.855	8123
812.997	8199
813.138	8267
813.279	8130
813.421	8027
813.562	7928
813.703	7837
813.845	7696
813.986	7441
814.127	7247
814.268	7217
814.41	7209
814.551	7164
814.692	7213
814.833	7091
814.974	7027
815.115	7145
815.256	6920
815.397	6973
815.539	6985
815.68	6734
815.821	6772
815.962	6833
816.103	6863
816.244	6669
816.385	6620
816.526	6555
816.666	6452
816.807	6292
816.948	6452
817.089	6399
817.23	6445
817.371	6357
817.512	6372
817.653	6365
817.793	6323
817.934	6350
818.075	6407
818.216	6388
818.356	6452
818.497	6213
818.638	6117
818.778	6205
818.919	6186
819.06	6155
819.2	6353
819.341	6308
819.481	6399
819.622	6521
819.762	6688
819.903	6703
820.043	6563
820.184	6601
820.324	6650
820.465	6677
820.605	6688
820.746	6642
820.886	6494
821.026	6707
821.167	6715
821.307	6829
821.447	6768
821.588	6658
821.728	6593
821.868	6517
822.008	6334
822.149	6338
822.289	6399
822.429	6140
822.569	6087
822.709	6144
822.849	5973
822.99	5904
823.13	5954
823.27	5908
823.41	5786
823.55	5840
823.69	5794
823.83	5828
823.97	5691
824.11	5577
824.25	5539
824.389	5619
824.529	5581
824.669	5509
824.809	5688
824.949	5699
825.089	5657
825.228	5562
825.368	5429
825.508	5337
825.648	5372
825.787	5429
825.927	5425
826.067	5383
826.206	5315
826.346	5379
826.485	5406
826.625	5459
826.765	5532
826.904	5528
827.044	5303
827.183	5223
827.323	5197
827.462	5303
827.601	5231
827.741	5212
827.88	5269
828.02	5147
828.159	5246
828.298	5337
828.437	5406
828.577	5288
828.716	5532
828.855	5364
828.994	5239
829.134	5212
829.273	5220
829.412	5159
829.551	5170
829.69	5204
829.829	5261
829.968	5402
830.107	5292
830.246	5280
830.385	5258
830.524	5170
830.663	5132
830.802	5029
830.941	4923
831.08	4911
831.219	5029
831.357	5029
831.496	5208
831.635	4965
831.774	4850
831.913	4847
832.051	4752
832.19	4774
832.329	4866
832.467	4752
832.606	4656
832.744	4687
832.883	4790
833.022	4763
833.16	4850
833.299	4862
833.437	4843
833.576	4889
833.714	4900
833.852	4923
833.991	4908
834.129	4987
834.267	4980
834.406	4919
834.544	4999
834.682	5075
834.821	5014
834.959	5242
835.097	5018
835.235	5220
835.373	5102
835.511	5128
835.65	5090
835.788	5025
835.926	4877
836.064	4911
836.202	4934
836.34	5189
836.478	5201
836.615	5208
836.753	5193
836.891	5296
837.029	5292
837.167	5197
837.305	5189
837.443	5117
837.58	5094
837.718	5258
837.856	5269
837.993	5178
838.131	5254
838.269	5277
838.406	5220
838.544	5189
838.681	5121
838.819	5025
838.956	4938
839.094	4927
839.231	5018
839.369	5079
839.506	5459
839.643	5292
839.781	5086
839.918	5018
840.055	5117
840.193	5128
840.33	5132
840.467	5170
840.604	5193
840.742	5406
840.879	5048
841.016	5090
841.153	5132
841.29	5398
841.427	5406
841.564	5402
841.701	5379
841.838	5334
841.975	5254
842.112	5250
842.249	5151
842.385	5189
842.522	5368
842.659	5227
842.796	5174
842.933	5265
843.069	5151
843.206	5201
843.343	5318
843.479	5311
843.616	5269
843.752	5060
843.889	5075
844.025	5258
844.162	5060
844.298	5250
844.435	5117
844.571	4984
844.708	5242
844.844	5315
844.98	5345
845.117	5311
845.253	5162
845.389	5086
845.525	5235
845.661	5166
845.798	5086
845.934	5147
846.07	5117
846.206	5208
846.342	5299
846.478	5185
846.614	5060
846.75	5022
846.886	4957
847.022	5162
847.158	5022
847.294	5109
847.429	5178
847.565	5140
847.701	5360
847.837	4896
847.972	4858
848.108	5018
848.244	4957
848.379	4786
848.515	4752
848.65	4767
848.786	4778
848.921	4771
849.057	4881
849.192	4984
849.328	4854
849.463	4892
849.598	4881
849.734	4786
849.869	4702
850.004	4615
850.14	4710
850.275	4641
850.41	4577
850.545	4580
850.68	4622
850.815	4694
850.95	4622
851.085	4812
851.22	4850
851.355	4729
851.49	4626
851.625	4664
851.76	4599
851.895	4584
852.03	4550
852.165	4714
852.299	4752
852.434	4854
852.569	4778
852.703	4767
852.838	4896
852.973	4930
853.107	4934
853.242	4763
853.376	4691
853.511	4535
853.645	4634
853.78	4870
853.914	4698
854.048	4687
854.183	4630
854.317	4755
854.451	4877
854.585	4698
854.72	4641
854.854	4778
854.988	4622
855.122	4630
855.256	4546
855.39	4691
855.524	4782
855.658	4714
855.792	4752
855.926	4748
856.06	4736
856.194	4805
856.327	4702
856.461	4611
856.595	4618
856.729	4626
856.862	4782
856.996	4759
857.13	4733
857.263	4786
857.397	4835
857.53	4630
857.664	4729
857.797	4767
857.931	4801
858.064	4698
858.197	4721
858.331	4694
858.464	4618
858.597	4542
858.731	4584
858.864	4626
858.997	4622
859.13	4698
859.263	4702
859.396	4755
859.529	4592
859.662	4599
859.795	4626
859.928	4630
860.061	4870
860.194	4816
860.327	4626
860.46	4592
860.592	4736
860.725	4752
860.858	4790
860.99	4584
861.123	4550
861.256	4516
861.388	4592
861.521	5414
861.653	4504
861.786	4424
861.918	4489
862.05	4546
862.183	4577
862.315	4603
862.447	4664
862.58	4573
862.712	4402
862.844	4390
862.976	4413
863.108	4493
863.24	4911
863.372	4398
863.504	4455
863.636	4447
863.768	4489
863.9	4443
864.032	4344
864.164	4424
864.296	4542
864.428	4618
864.559	4588
864.691	4561
864.823	4519
864.954	4527
865.086	4428
865.217	4466
865.349	4500
865.48	4500
865.612	4504
865.743	4664
865.875	4504
866.006	4478
866.137	4459
866.269	4493
866.4	4470
866.531	4447
866.662	4436
866.793	4443
866.924	4462
867.055	4531
867.186	4470
867.317	4436
867.448	4405
867.579	4409
867.71	4474
867.841	4383
867.972	4512
868.103	4493
868.233	4470
868.364	4451
868.495	4523
868.625	4660
868.756	4748
868.886	4603
869.017	4641
869.147	4824
869.278	4797
869.408	4683
869.539	4618
869.669	4771
869.799	4687
869.929	4786
870.06	4763
870.19	4934
870.32	4965
870.45	4949
870.58	5010
870.71	5090
870.84	5128
870.97	4946
871.1	4915
871.23	5140
871.36	5143
871.489	5098
871.619	5124
871.749	5151
871.879	5170
872.008	5193
872.138	5102
872.267	5105
872.397	4889
872.526	4850
872.656	4767
872.785	4835
872.915	4942
873.044	5045
873.173	4984
873.303	4991
873.432	4999
873.561	4991
873.69	4927
873.819	4881
873.948	4980
874.077	4850
874.206	4729
874.335	4870
874.464	4976
874.593	5067
874.722	4930
874.851	5105
874.979	5029
875.108	5071
875.237	4934
875.365	4911
875.494	4892
875.623	4991
875.751	4847
875.88	4896
876.008	4972
876.136	5045
876.265	5250
876.393	5337
876.521	5261
876.65	5261
876.778	5212
876.906	5117
877.034	5102
877.162	5029
877.29	4972
877.418	5094
877.546	5090
877.674	5075
877.802	5003
877.93	5029
878.058	4999
878.185	4908
878.313	5029
878.441	4934
878.568	4831
878.696	4889
878.824	4965
878.951	5025
879.079	5117
879.206	5280
879.333	5117
879.461	5037
879.588	5006
879.715	5067
879.842	5242
879.97	5037
880.097	4763
880.224	4721
880.351	4843
880.478	4843
880.605	4774
880.732	4820
880.859	5140
880.986	4873
881.112	4866
881.239	4763
881.366	4656
881.493	4611
881.619	4641
881.746	4637
881.872	4664
881.999	4679
882.125	4706
882.252	4812
882.378	4854
882.505	4991
882.631	4759
882.757	4714
882.883	4763
883.01	4733
883.136	4683
883.262	4615
883.388	4664
883.514	4786
883.64	4908
883.766	4854
883.892	4641
884.018	4740
884.143	4923
884.269	5029
884.395	4706
884.52	4653
884.646	4683
884.772	4611
884.897	4592
885.023	4683
885.148	4790
885.274	4850
885.399	4820
885.524	4721
885.65	4702
885.775	4774
885.9	4729
886.025	4862
886.15	4786
886.275	4702
886.4	4691
886.525	4725
886.65	4706
886.775	4725
886.9	4892
887.025	5014
887.149	4854
887.274	4729
887.399	4554
887.523	4607
887.648	4554
887.773	4599
887.897	4778
888.021	4774
888.146	4668
888.27	4816
888.395	4927
888.519	4847
888.643	4805
888.767	4831
888.891	4714
889.015	4618
889.139	4653
889.263	4588
889.387	4729
889.511	4896
889.635	4790
889.759	4664
889.883	4634
890.006	4759
890.13	4850
890.254	4596
890.377	4668
890.501	4573
890.624	4546
890.748	4656
890.871	4508
890.995	4455
891.118	4432
891.241	4531
891.364	4558
891.488	4653
891.611	4504
891.734	4577
891.857	4577
891.98	4603
892.103	4721
892.226	4634
892.349	4565
892.471	4451
892.594	4561
892.717	4599
892.839	4538
892.962	4626
893.085	4683
893.207	4626
893.33	4512
893.452	4588
893.575	4736
893.697	4523
893.819	4801
893.941	4805
894.064	4847
894.186	4599
894.308	4618
894.43	4752
894.552	4812
894.674	4778
894.796	4561
894.918	4599
895.04	4645
895.161	4702
895.283	4656
895.405	4599
895.526	4645
895.648	4706
895.769	4714
895.891	4714
896.012	4748
896.134	4725
896.255	4660
896.376	4634
896.498	4622
896.619	4687
896.74	4653
896.861	4656
896.982	4881
897.103	5086
897.224	4873
897.345	4763
897.466	4694
897.587	4744
897.708	4934
897.828	4805
897.949	4679
898.07	4584
898.19	4645
898.311	4850
898.431	4637
898.552	4744
898.672	4812
898.792	4797
898.913	4816
899.033	4637
899.153	4531
899.273	4462
899.393	4508
899.513	4500
899.633	4531
899.753	4573
899.873	4516
899.993	4649
900.113	4508
900.232	4584
900.352	4580
900.472	4436
900.591	4432
900.711	4459
900.83	4432
900.95	4592
901.069	4664
901.189	4577
901.308	4352
901.427	4344
901.546	4383
901.665	4523
901.784	4527
901.904	4409
902.023	4310
902.141	4188
902.26	4166
902.379	4348
902.498	4284
902.617	4219
902.735	4352
902.854	4432
902.973	4341
903.091	4219
903.21	4215
903.328	4291
903.446	4303
903.565	4242
903.683	4348
903.801	4291
903.919	4390
904.038	4409
904.156	4280
904.274	4424
904.392	4421
904.51	4440
904.627	4478
904.745	4558
904.863	4618
904.981	4386
905.098	4261
905.216	4383
905.334	4447
905.451	4440
905.569	4470
905.686	4531
905.803	4599
905.921	4413
906.038	4512
906.155	4478
906.272	4383
906.389	4428
906.506	4306
906.623	4405
906.74	4440
906.857	4325
906.974	4383
907.091	4584
907.208	4687
907.324	4569
907.441	4531
907.557	4360
907.674	4379
907.79	4325
907.907	4409
908.023	4466
908.139	4455
908.256	4466
908.372	4478
908.488	4489
908.604	4352
908.72	4325
908.836	4402
908.952	4413
909.068	4455
909.184	4535
909.3	4459
909.415	4569
909.531	4542
909.647	4341
909.762	4394
909.878	4363
909.993	4451
910.108	4440
910.224	4405
910.339	4466
910.454	4379
910.57	4329
910.685	4268
910.8	4641
910.915	4584
911.03	4497
911.145	4310
911.259	4306
911.374	4344
911.489	4341
911.604	4295
911.718	4227
911.833	4227
911.947	4112
912.062	4025
912.176	4185
912.291	4272
912.405	4291
912.519	4508
912.633	4516
912.748	4371
912.862	4314
912.976	4200
913.09	4063
913.204	4185
913.318	4287
913.431	4363
913.545	4390
913.659	4409
913.772	4367
913.886	4276
914	4234
914.113	4356
914.226	4428
914.34	4409
914.453	4204
914.566	4447
914.68	4261
914.793	4341
914.906	4112
915.019	4116
915.132	4055
915.245	4150
915.358	4230
915.47	4276
915.583	4242
915.696	4310
915.809	4436
915.921	4421
916.034	4257
916.146	4287
916.259	4192
916.371	4398
916.483	4367
916.595	4207
916.708	4325
916.82	4333
916.932	4276
917.044	4295
917.156	4367
917.268	4257
917.38	4261
917.491	4306
917.603	4379
917.715	4443
917.826	4466
917.938	4383
918.049	4261
918.161	4375
918.272	4523
918.384	4542
918.495	4413
918.606	4295
918.717	4265
918.828	4360
918.939	4341
919.05	4291
919.161	4344
919.272	4124
919.383	4268
919.494	4398
919.604	4618
919.715	4436
919.826	4363
919.936	4443
920.047	4535
920.157	4485
920.267	4717
920.378	4527
920.488	4512
920.598	4725
920.708	4934
920.818	4736
920.928	4778
921.038	4942
921.148	4896
921.258	4615
921.368	4554
921.477	4489
921.587	4466
921.697	4371
921.806	4558
921.916	4436
922.025	4265
922.134	4265
922.244	4211
922.353	4360
922.462	4192
922.571	4173
922.68	4029
922.789	3972
922.898	4040
923.007	4059
923.116	4074
923.224	4078
923.333	4074
923.442	3983
923.55	3983
923.659	4055
923.767	4101
923.876	4036
923.984	4124
924.092	3987
924.201	4093
924.309	4090
924.417	4143
924.525	4036
924.633	4128
924.741	5018
924.849	3926
924.956	4147
925.064	3964
925.172	3945
925.279	3956
925.387	4063
925.494	4044
925.602	4162
925.709	4181
925.816	4074
925.924	4150
926.031	4253
926.138	4223
926.245	4150
926.352	4101
926.459	4268
926.566	4280
926.673	4162
926.779	4135
926.886	4101
926.993	3991
927.099	3964
927.206	3949
927.312	3926
927.419	4093
927.525	4017
927.631	4086
927.737	4002
927.843	3930
927.95	3819
928.056	3960
928.162	3979
928.267	4025
928.373	4596
928.479	4101
928.585	3873
928.69	4040
928.796	4074
928.901	3975
929.007	3873
929.112	3998
929.218	3964
929.323	3949
929.428	3922
929.533	4109
929.638	3903
929.743	3945
929.848	4044
929.953	3964
930.058	3930
930.163	3774
930.267	3797
930.372	3934
930.477	3804
930.581	4063
930.685	3915
930.79	3842
930.894	3911
930.998	3808
931.103	4017
931.207	3743
931.311	3705
931.415	3667
931.519	3477
931.623	3568
