Data from test_V78500241_533.txt Node
Date: Fri Mar 25 16:52:42 CST 2022
User: usil
Spectrometer: V785-0024
Trigger mode: 0
Integration Time (sec): 4.000000E-1
Scans to average: 1
Nonlinearity correction enabled: false
Boxcar width: 0
Storing dark spectrum: false
XAxis mode: Wavelengths
Number of Pixels in Spectrum: 1024
>>>>>Begin Spectral Data<<<<<
801.071	8046
801.214	7959
801.356	7784
801.499	7818
801.641	7719
801.783	7807
801.926	8069
802.068	8001
802.211	8077
802.353	8016
802.496	7879
802.638	7913
802.78	7925
802.923	7909
803.065	7875
803.208	7864
803.35	7909
803.492	7989
803.635	8073
803.777	7982
803.919	8168
804.061	8427
804.204	8176
804.346	8103
804.488	7932
804.63	8046
804.773	7978
804.915	8077
805.057	8313
805.199	8153
805.341	8225
805.483	8248
805.626	8164
805.768	8043
805.91	8065
806.052	8202
806.194	8073
806.336	8336
806.478	8180
806.62	8016
806.762	8229
806.904	8290
807.046	8431
807.188	8328
807.33	8252
807.472	8298
807.614	8157
807.756	8195
807.898	7898
808.04	7795
808.182	7890
808.324	7887
808.465	7894
808.607	8058
808.749	8111
808.891	8206
809.033	8267
809.174	8214
809.316	8001
809.458	8084
809.6	7959
809.741	8058
809.883	8073
810.025	8123
810.166	8027
810.308	8035
810.45	8001
810.591	7894
810.733	7765
810.875	7636
811.016	7491
811.158	7495
811.299	7616
811.441	7795
811.582	7605
811.724	7613
811.865	7601
812.007	7586
812.148	7578
812.29	7655
812.431	7712
812.573	7868
812.714	7978
812.855	8126
812.997	8263
813.138	8381
813.279	8176
813.421	8214
813.562	8054
813.703	7890
813.845	7761
813.986	7586
814.127	7388
814.268	7301
814.41	7270
814.551	7141
814.692	7103
814.833	7057
814.974	7110
815.115	7129
815.256	7000
815.397	6897
815.539	6962
815.68	6890
815.821	6821
815.962	6852
816.103	6867
816.244	6760
816.385	6604
816.526	6639
816.666	6445
816.807	6327
816.948	6448
817.089	6464
817.23	6414
817.371	6334
817.512	6422
817.653	6384
817.793	6342
817.934	6403
818.075	6448
818.216	6395
818.356	6380
818.497	6220
818.638	6163
818.778	6076
818.919	6064
819.06	6110
819.2	6292
819.341	6323
819.481	6323
819.622	6513
819.762	6711
819.903	6741
820.043	6551
820.184	6559
820.324	6536
820.465	6662
820.605	6673
820.746	6589
820.886	6441
821.026	6677
821.167	6627
821.307	6829
821.447	6745
821.588	6623
821.728	6540
821.868	6486
822.008	6289
822.149	6327
822.289	6346
822.429	6155
822.569	6114
822.709	6049
822.849	5882
822.99	5885
823.13	5931
823.27	5939
823.41	5813
823.55	5733
823.69	5737
823.83	5733
823.97	5688
824.11	5581
824.25	5554
824.389	5570
824.529	5573
824.669	5566
824.809	5592
824.949	5672
825.089	5642
825.228	5516
825.368	5379
825.508	5368
825.648	5391
825.787	5414
825.927	5410
826.067	5357
826.206	5357
826.346	5337
826.485	5425
826.625	5372
826.765	5539
826.904	5421
827.044	5212
827.183	5212
827.323	5094
827.462	5258
827.601	5132
827.741	5181
827.88	5166
828.02	5094
828.159	5223
828.298	5311
828.437	5318
828.577	5318
828.716	5455
828.855	5296
828.994	5178
829.134	5159
829.273	5174
829.412	5109
829.551	5109
829.69	5117
829.829	5223
829.968	5372
830.107	5242
830.246	5292
830.385	5121
830.524	5143
830.663	5079
830.802	4995
830.941	4896
831.08	4870
831.219	4995
831.357	4961
831.496	5193
831.635	4965
831.774	4771
831.913	4828
832.051	4698
832.19	4771
832.329	4820
832.467	4717
832.606	4599
832.744	4729
832.883	4675
833.022	4736
833.16	4793
833.299	4812
833.437	4771
833.576	4847
833.714	4828
833.852	4824
833.991	4828
834.129	5025
834.267	4991
834.406	4850
834.544	4961
834.682	4980
834.821	4999
834.959	5102
835.097	4946
835.235	5117
835.373	5086
835.511	5117
835.65	5083
835.788	4987
835.926	4877
836.064	4866
836.202	4904
836.34	5136
836.478	5185
836.615	5075
836.753	5193
836.891	5277
837.029	5216
837.167	5162
837.305	5178
837.443	5132
837.58	5056
837.718	5201
837.856	5189
837.993	5136
838.131	5204
838.269	5151
838.406	5170
838.544	5208
838.681	5064
838.819	4995
838.956	4904
839.094	4908
839.231	4938
839.369	5041
839.506	5402
839.643	5299
839.781	5048
839.918	5003
840.055	5136
840.193	5075
840.33	5113
840.467	5124
840.604	5197
840.742	5436
840.879	5079
841.016	5037
841.153	5124
841.29	5360
841.427	5288
841.564	5315
841.701	5326
841.838	5246
841.975	5269
842.112	5208
842.249	5178
842.385	5102
842.522	5311
842.659	5181
842.796	5121
842.933	5155
843.069	5102
843.206	5151
843.343	5242
843.479	5216
843.616	5212
843.752	5025
843.889	5037
844.025	5204
844.162	5010
844.298	5197
844.435	5109
844.571	5086
844.708	5170
844.844	5299
844.98	5334
845.117	5273
845.253	5094
845.389	5094
845.525	5143
845.661	5132
845.798	5045
845.934	5124
846.07	5045
846.206	5189
846.342	5292
846.478	5197
846.614	5025
846.75	4968
846.886	4976
847.022	5124
847.158	4987
847.294	5052
847.429	5159
847.565	4991
847.701	5311
847.837	4828
847.972	4850
848.108	4923
848.244	4915
848.379	4809
848.515	4744
848.65	4710
848.786	4782
848.921	4778
849.057	4911
849.192	4877
849.328	4820
849.463	4847
849.598	4816
849.734	4729
849.869	4683
850.004	4634
850.14	4637
850.275	4626
850.41	4535
850.545	4577
850.68	4603
850.815	4634
850.95	4626
851.085	4816
851.22	4740
851.355	4653
851.49	4622
851.625	4634
851.76	4573
851.895	4527
852.03	4538
852.165	4641
852.299	4736
852.434	4812
852.569	4710
852.703	4748
852.838	4843
852.973	4911
853.107	4889
853.242	4714
853.376	4672
853.511	4542
853.645	4596
853.78	4809
853.914	4691
854.048	4660
854.183	4634
854.317	4687
854.451	4847
854.585	4687
854.72	4664
854.854	4782
854.988	4607
855.122	4649
855.256	4512
855.39	4607
855.524	4786
855.658	4748
855.792	4698
855.926	4687
856.06	4717
856.194	4782
856.327	4656
856.461	4618
856.595	4641
856.729	4603
856.862	4774
856.996	4698
857.13	4683
857.263	4793
857.397	4809
857.53	4615
857.664	4714
857.797	4744
857.931	4767
858.064	4634
858.197	4755
858.331	4672
858.464	4626
858.597	4516
858.731	4626
858.864	4626
858.997	4592
859.13	4668
859.263	4679
859.396	4702
859.529	4599
859.662	4538
859.795	4535
859.928	4630
860.061	4698
860.194	4782
860.327	4592
860.46	4577
860.592	4687
860.725	4744
860.858	4721
860.99	4584
861.123	4546
861.256	4542
861.388	4630
861.521	5417
861.653	4489
861.786	4440
861.918	4451
862.05	4527
862.183	4569
862.315	4645
862.447	4649
862.58	4558
862.712	4466
862.844	4348
862.976	4451
863.108	4451
863.24	4889
863.372	4333
863.504	4405
863.636	4409
863.768	4508
863.9	4424
864.032	4390
864.164	4413
864.296	4451
864.428	4565
864.559	4569
864.691	4554
864.823	4538
864.954	4470
865.086	4535
865.217	4428
865.349	4451
865.48	4481
865.612	4440
865.743	4626
865.875	4451
866.006	4428
866.137	4516
866.269	4417
866.4	4413
866.531	4424
866.662	4428
866.793	4417
866.924	4417
867.055	4512
867.186	4462
867.317	4443
867.448	4356
867.579	4462
867.71	4386
867.841	4386
867.972	4466
868.103	4424
868.233	4443
868.364	4447
868.495	4493
868.625	4717
868.756	4820
868.886	4558
869.017	4649
869.147	4786
869.278	4790
869.408	4683
869.539	4615
869.669	4710
869.799	4702
869.929	4771
870.06	4729
870.19	4953
870.32	4896
870.45	4942
870.58	4968
870.71	5132
870.84	5113
870.97	4961
871.1	4877
871.23	5189
871.36	5090
871.489	5014
871.619	5067
871.749	5048
871.879	5136
872.008	5159
872.138	5052
872.267	4980
872.397	4870
872.526	4778
872.656	4714
872.785	4797
872.915	4923
873.044	4991
873.173	4915
873.303	4976
873.432	4949
873.561	4949
873.69	4885
873.819	4881
873.948	4889
874.077	4778
874.206	4782
874.335	4809
874.464	4953
874.593	5003
874.722	4938
874.851	5185
874.979	5075
875.108	4987
875.237	4904
875.365	4850
875.494	4877
875.623	4949
875.751	4820
875.88	4881
876.008	4927
876.136	4995
876.265	5185
876.393	5273
876.521	5296
876.65	5242
876.778	5159
876.906	5064
877.034	5010
877.162	5056
877.29	4995
877.418	5037
877.546	5025
877.674	5041
877.802	5010
877.93	5022
878.058	4991
878.185	4896
878.313	4911
878.441	4984
878.568	4793
878.696	4896
878.824	4923
878.951	5029
879.079	5136
879.206	5261
879.333	5090
879.461	4980
879.588	4995
879.715	5124
879.842	5208
879.97	5056
880.097	4771
880.224	4729
880.351	4824
880.478	4816
880.605	4790
880.732	4801
880.859	5086
880.986	4923
881.112	4946
881.239	4809
881.366	4679
881.493	4561
881.619	4584
881.746	4668
881.872	4656
881.999	4675
882.125	4729
882.252	4729
882.378	4793
882.505	4965
882.631	4835
882.757	4645
882.883	4733
883.01	4721
883.136	4634
883.262	4607
883.388	4622
883.514	4824
883.64	4881
883.766	4812
883.892	4679
884.018	4725
884.143	4816
884.269	4980
884.395	4660
884.52	4641
884.646	4691
884.772	4561
884.897	4565
885.023	4675
885.148	4759
885.274	4881
885.399	4824
885.524	4725
885.65	4698
885.775	4740
885.9	4706
886.025	4881
886.15	4797
886.275	4717
886.4	4653
886.525	4672
886.65	4698
886.775	4721
886.9	4870
887.025	5067
887.149	4797
887.274	4645
887.399	4573
887.523	4622
887.648	4592
887.773	4550
887.897	4809
888.021	4801
888.146	4706
888.27	4812
888.395	4919
888.519	4782
888.643	4828
888.767	4847
888.891	4649
889.015	4577
889.139	4653
889.263	4615
889.387	4740
889.511	4911
889.635	4782
889.759	4577
889.883	4622
890.006	4755
890.13	4843
890.254	4596
890.377	4611
890.501	4573
890.624	4489
890.748	4653
890.871	4519
890.995	4447
891.118	4402
891.241	4512
891.364	4569
891.488	4634
891.611	4485
891.734	4535
891.857	4577
891.98	4584
892.103	4645
892.226	4607
892.349	4542
892.471	4440
892.594	4546
892.717	4596
892.839	4558
892.962	4588
893.085	4683
893.207	4577
893.33	4451
893.452	4527
893.575	4649
893.697	4611
893.819	4782
893.941	4820
894.064	4771
894.186	4599
894.308	4561
894.43	4736
894.552	4801
894.674	4729
894.796	4542
894.918	4542
895.04	4546
895.161	4714
895.283	4664
895.405	4584
895.526	4588
895.648	4694
895.769	4675
895.891	4717
896.012	4714
896.134	4710
896.255	4687
896.376	4622
896.498	4584
896.619	4683
896.74	4588
896.861	4660
896.982	4915
897.103	5098
897.224	4835
897.345	4736
897.466	4656
897.587	4717
897.708	4805
897.828	4797
897.949	4664
898.07	4611
898.19	4630
898.311	4858
898.431	4698
898.552	4725
898.672	4820
898.792	4736
898.913	4729
899.033	4645
899.153	4519
899.273	4443
899.393	4478
899.513	4504
899.633	4554
899.753	4554
899.873	4500
899.993	4603
900.113	4542
900.232	4565
900.352	4527
900.472	4447
900.591	4417
900.711	4474
900.83	4481
900.95	4565
901.069	4691
901.189	4561
901.308	4344
901.427	4299
901.546	4344
901.665	4440
901.784	4500
901.904	4402
902.023	4318
902.141	4196
902.26	4150
902.379	4322
902.498	4295
902.617	4200
902.735	4352
902.854	4440
902.973	4383
903.091	4238
903.21	4249
903.328	4322
903.446	4272
903.565	4249
903.683	4337
903.801	4268
903.919	4421
904.038	4451
904.156	4348
904.274	4451
904.392	4428
904.51	4440
904.627	4516
904.745	4535
904.863	4653
904.981	4386
905.098	4306
905.216	4360
905.334	4402
905.451	4405
905.569	4500
905.686	4546
905.803	4546
905.921	4462
906.038	4550
906.155	4462
906.272	4383
906.389	4447
906.506	4367
906.623	4443
906.74	4432
906.857	4329
906.974	4386
907.091	4558
907.208	4675
907.324	4577
907.441	4523
907.557	4287
907.674	4329
907.79	4322
907.907	4409
908.023	4485
908.139	4485
908.256	4383
908.372	4497
908.488	4470
908.604	4360
908.72	4322
908.836	4386
908.952	4390
909.068	4421
909.184	4584
909.3	4497
909.415	4550
909.531	4519
909.647	4405
909.762	4375
909.878	4360
909.993	4398
910.108	4409
910.224	4344
910.339	4508
910.454	4424
910.57	4375
910.685	4337
910.8	4622
910.915	4588
911.03	4485
911.145	4276
911.259	4306
911.374	4367
911.489	4344
911.604	4276
911.718	4158
911.833	4207
911.947	4120
912.062	4040
912.176	4242
912.291	4257
912.405	4257
912.519	4481
912.633	4508
912.748	4375
912.862	4303
912.976	4211
913.09	4105
913.204	4166
913.318	4238
913.431	4348
913.545	4344
913.659	4432
913.772	4356
913.886	4268
914	4234
914.113	4375
914.226	4402
914.34	4390
914.453	4253
914.566	4428
914.68	4234
914.793	4261
914.906	4162
915.019	4124
915.132	4055
915.245	4185
915.358	4219
915.47	4227
915.583	4246
915.696	4299
915.809	4390
915.921	4405
916.034	4253
916.146	4272
916.259	4227
916.371	4394
916.483	4303
916.595	4230
916.708	4310
916.82	4325
916.932	4360
917.044	4344
917.156	4329
917.268	4200
917.38	4287
917.491	4276
917.603	4348
917.715	4383
917.826	4413
917.938	4383
918.049	4280
918.161	4432
918.272	4527
918.384	4558
918.495	4489
918.606	4291
918.717	4211
918.828	4337
918.939	4348
919.05	4246
919.161	4348
919.272	4143
919.383	4272
919.494	4478
919.604	4622
919.715	4440
919.826	4325
919.936	4402
920.047	4546
920.157	4538
920.267	4714
920.378	4523
920.488	4516
920.598	4698
920.708	4850
920.818	4733
920.928	4759
921.038	4961
921.148	4892
921.258	4599
921.368	4538
921.477	4535
921.587	4447
921.697	4375
921.806	4516
921.916	4440
922.025	4314
922.134	4238
922.244	4192
922.353	4325
922.462	4200
922.571	4158
922.68	4048
922.789	3960
922.898	4051
923.007	4010
923.116	4074
923.224	4093
923.333	4101
923.442	3998
923.55	3953
923.659	4017
923.767	4097
923.876	3991
923.984	4162
924.092	3998
924.201	4040
924.309	4101
924.417	4074
924.525	4067
924.633	4109
924.741	5071
924.849	3964
924.956	4169
925.064	3972
925.172	3937
925.279	3979
925.387	4097
925.494	4048
925.602	4154
925.709	4154
925.816	4063
925.924	4116
926.031	4215
926.138	4150
926.245	4192
926.352	4067
926.459	4261
926.566	4337
926.673	4162
926.779	4048
926.886	4071
926.993	3956
927.099	3949
927.206	3953
927.312	3949
927.419	4044
927.525	4006
927.631	4093
927.737	3915
927.843	3937
927.95	3884
928.056	3960
928.162	4044
928.267	4074
928.373	4630
928.479	4082
928.585	3846
928.69	4025
928.796	4044
928.901	4013
929.007	3823
929.112	3994
929.218	3949
929.323	3941
929.428	3956
929.533	4112
929.638	3903
929.743	3934
929.848	4059
929.953	4010
930.058	3964
930.163	3800
930.267	3850
930.372	3949
930.477	3857
930.581	4093
930.685	3907
930.79	3774
930.894	3876
930.998	3850
931.103	4048
931.207	3751
931.311	3724
931.415	3633
931.519	3492
931.623	3549
