Data from test_V78500241_491.txt Node
Date: Fri Mar 25 16:52:24 CST 2022
User: usil
Spectrometer: V785-0024
Trigger mode: 0
Integration Time (sec): 4.000000E-1
Scans to average: 1
Nonlinearity correction enabled: false
Boxcar width: 0
Storing dark spectrum: false
XAxis mode: Wavelengths
Number of Pixels in Spectrum: 1024
>>>>>Begin Spectral Data<<<<<
801.071	8073
801.214	7978
801.356	7871
801.499	7795
801.641	7856
801.783	7849
801.926	8065
802.068	8020
802.211	7978
802.353	7978
802.496	7852
802.638	7917
802.78	7890
802.923	7879
803.065	7837
803.208	7868
803.35	7868
803.492	8001
803.635	8058
803.777	8065
803.919	8123
804.061	8461
804.204	8130
804.346	8035
804.488	7936
804.63	8008
804.773	8046
804.915	8065
805.057	8275
805.199	8168
805.341	8218
805.483	8309
805.626	8252
805.768	8001
805.91	8130
806.052	8218
806.194	8084
806.336	8324
806.478	8092
806.62	8046
806.762	8096
806.904	8206
807.046	8381
807.188	8313
807.33	8187
807.472	8218
807.614	8043
807.756	8012
807.898	8027
808.04	7887
808.182	7894
808.324	7959
808.465	7936
808.607	8005
808.749	8077
808.891	8107
809.033	8282
809.174	8126
809.316	8035
809.458	8092
809.6	7970
809.741	8088
809.883	8012
810.025	8092
810.166	8081
810.308	7986
810.45	8050
810.591	7898
810.733	7807
810.875	7693
811.016	7487
811.158	7480
811.299	7639
811.441	7712
811.582	7693
811.724	7563
811.865	7544
812.007	7655
812.148	7616
812.29	7632
812.431	7719
812.573	7909
812.714	8008
812.855	8084
812.997	8267
813.138	8385
813.279	8191
813.421	8103
813.562	8065
813.703	7909
813.845	7769
813.986	7476
814.127	7305
814.268	7335
814.41	7278
814.551	7141
814.692	7126
814.833	7076
814.974	7118
815.115	7122
815.256	6970
815.397	6890
815.539	6981
815.68	6867
815.821	6856
815.962	6867
816.103	6863
816.244	6707
816.385	6627
816.526	6597
816.666	6467
816.807	6384
816.948	6441
817.089	6509
817.23	6437
817.371	6346
817.512	6391
817.653	6380
817.793	6369
817.934	6384
818.075	6483
818.216	6418
818.356	6372
818.497	6228
818.638	6129
818.778	6091
818.919	6125
819.06	6125
819.2	6266
819.341	6304
819.481	6380
819.622	6441
819.762	6741
819.903	6776
820.043	6570
820.184	6540
820.324	6566
820.465	6692
820.605	6642
820.746	6612
820.886	6513
821.026	6662
821.167	6783
821.307	6764
821.447	6745
821.588	6555
821.728	6525
821.868	6486
822.008	6292
822.149	6361
822.289	6372
822.429	6201
822.569	6030
822.709	6095
822.849	5961
822.99	5908
823.13	5931
823.27	5878
823.41	5817
823.55	5752
823.69	5786
823.83	5775
823.97	5642
824.11	5524
824.25	5551
824.389	5573
824.529	5581
824.669	5532
824.809	5680
824.949	5646
825.089	5657
825.228	5581
825.368	5357
825.508	5315
825.648	5383
825.787	5353
825.927	5345
826.067	5299
826.206	5261
826.346	5436
826.485	5395
826.625	5372
826.765	5543
826.904	5493
827.044	5231
827.183	5181
827.323	5174
827.462	5261
827.601	5136
827.741	5174
827.88	5216
828.02	5136
828.159	5223
828.298	5303
828.437	5360
828.577	5345
828.716	5455
828.855	5277
828.994	5151
829.134	5178
829.273	5193
829.412	5147
829.551	5117
829.69	5155
829.829	5174
829.968	5349
830.107	5250
830.246	5292
830.385	5155
830.524	5132
830.663	5033
830.802	5006
830.941	4873
831.08	4862
831.219	4991
831.357	4991
831.496	5113
831.635	4911
831.774	4858
831.913	4839
832.051	4702
832.19	4740
832.329	4801
832.467	4687
832.606	4660
832.744	4733
832.883	4679
833.022	4755
833.16	4763
833.299	4820
833.437	4805
833.576	4801
833.714	4805
833.852	4866
833.991	4896
834.129	4999
834.267	4911
834.406	4904
834.544	4999
834.682	4949
834.821	4968
834.959	5185
835.097	4965
835.235	5136
835.373	5064
835.511	5124
835.65	5060
835.788	5033
835.926	4877
836.064	4873
836.202	4885
836.34	5147
836.478	5246
836.615	5128
836.753	5181
836.891	5261
837.029	5181
837.167	5189
837.305	5155
837.443	5166
837.58	5102
837.718	5212
837.856	5197
837.993	5128
838.131	5201
838.269	5208
838.406	5178
838.544	5185
838.681	5018
838.819	4987
838.956	4904
839.094	4839
839.231	4942
839.369	5113
839.506	5410
839.643	5254
839.781	5067
839.918	5010
840.055	5124
840.193	5113
840.33	5056
840.467	5132
840.604	5178
840.742	5467
840.879	5109
841.016	5105
841.153	5128
841.29	5330
841.427	5379
841.564	5307
841.701	5334
841.838	5242
841.975	5239
842.112	5231
842.249	5151
842.385	5075
842.522	5311
842.659	5117
842.796	5121
842.933	5204
843.069	5124
843.206	5155
843.343	5288
843.479	5201
843.616	5288
843.752	5033
843.889	4972
844.025	5155
844.162	4980
844.298	5201
844.435	5033
844.571	5064
844.708	5166
844.844	5288
844.98	5296
845.117	5246
845.253	5105
845.389	5064
845.525	5147
845.661	5136
845.798	5067
845.934	5121
846.07	5006
846.206	5132
846.342	5265
846.478	5162
846.614	4965
846.75	4995
846.886	4953
847.022	5185
847.158	5037
847.294	5048
847.429	5094
847.565	5098
847.701	5341
847.837	4828
847.972	4778
848.108	4930
848.244	4915
848.379	4797
848.515	4706
848.65	4717
848.786	4767
848.921	4797
849.057	4896
849.192	4885
849.328	4805
849.463	4862
849.598	4793
849.734	4774
849.869	4691
850.004	4596
850.14	4618
850.275	4607
850.41	4497
850.545	4535
850.68	4584
850.815	4607
850.95	4656
851.085	4824
851.22	4736
851.355	4653
851.49	4580
851.625	4607
851.76	4603
851.895	4573
852.03	4512
852.165	4630
852.299	4710
852.434	4763
852.569	4721
852.703	4755
852.838	4824
852.973	4889
853.107	4919
853.242	4710
853.376	4592
853.511	4603
853.645	4618
853.78	4763
853.914	4694
854.048	4683
854.183	4637
854.317	4694
854.451	4843
854.585	4683
854.72	4626
854.854	4710
854.988	4596
855.122	4649
855.256	4523
855.39	4679
855.524	4774
855.658	4725
855.792	4714
855.926	4744
856.06	4774
856.194	4797
856.327	4710
856.461	4675
856.595	4584
856.729	4599
856.862	4771
856.996	4710
857.13	4755
857.263	4786
857.397	4778
857.53	4698
857.664	4710
857.797	4797
857.931	4767
858.064	4683
858.197	4797
858.331	4675
858.464	4596
858.597	4565
858.731	4664
858.864	4679
858.997	4687
859.13	4744
859.263	4736
859.396	4740
859.529	4615
859.662	4615
859.795	4565
859.928	4679
860.061	4786
860.194	4850
860.327	4672
860.46	4599
860.592	4725
860.725	4778
860.858	4755
860.99	4592
861.123	4565
861.256	4508
861.388	4603
861.521	5383
861.653	4508
861.786	4523
861.918	4489
862.05	4531
862.183	4584
862.315	4607
862.447	4694
862.58	4637
862.712	4413
862.844	4348
862.976	4542
863.108	4470
863.24	4820
863.372	4379
863.504	4443
863.636	4451
863.768	4550
863.9	4462
864.032	4462
864.164	4428
864.296	4512
864.428	4519
864.559	4630
864.691	4622
864.823	4561
864.954	4512
865.086	4565
865.217	4481
865.349	4462
865.48	4527
865.612	4504
865.743	4645
865.875	4569
866.006	4451
866.137	4500
866.269	4470
866.4	4474
866.531	4489
866.662	4424
866.793	4474
866.924	4470
867.055	4523
867.186	4508
867.317	4474
867.448	4436
867.579	4470
867.71	4447
867.841	4421
867.972	4474
868.103	4500
868.233	4519
868.364	4466
868.495	4577
868.625	4694
868.756	4809
868.886	4573
869.017	4679
869.147	4824
869.278	4782
869.408	4675
869.539	4664
869.669	4744
869.799	4698
869.929	4793
870.06	4778
870.19	5014
870.32	4953
870.45	4961
870.58	5071
870.71	5147
870.84	5109
870.97	4957
871.1	4953
871.23	5143
871.36	5159
871.489	5067
871.619	5075
871.749	5132
871.879	5109
872.008	5181
872.138	5102
872.267	5029
872.397	4892
872.526	4866
872.656	4740
872.785	4793
872.915	4991
873.044	5079
873.173	4968
873.303	5041
873.432	4972
873.561	4984
873.69	4904
873.819	4911
873.948	4961
874.077	4847
874.206	4782
874.335	4885
874.464	4919
874.593	5090
874.722	5022
874.851	5128
874.979	5094
875.108	5037
875.237	4946
875.365	4968
875.494	4824
875.623	5006
875.751	4854
875.88	4870
876.008	5025
876.136	5045
876.265	5208
876.393	5353
876.521	5307
876.65	5269
876.778	5201
876.906	5147
877.034	5052
877.162	5079
877.29	5006
877.418	5064
877.546	5086
877.674	5090
877.802	5048
877.93	5029
878.058	4999
878.185	4927
878.313	5010
878.441	4927
878.568	4847
878.696	4934
878.824	5041
878.951	5056
879.079	5136
879.206	5337
879.333	5143
879.461	5067
879.588	5029
879.715	5181
879.842	5258
879.97	5064
880.097	4805
880.224	4782
880.351	4828
880.478	4862
880.605	4850
880.732	4839
880.859	5124
880.986	4946
881.112	4961
881.239	4812
881.366	4752
881.493	4687
881.619	4561
881.746	4729
881.872	4679
881.999	4702
882.125	4714
882.252	4828
882.378	4828
882.505	5041
882.631	4820
882.757	4702
882.883	4790
883.01	4778
883.136	4736
883.262	4649
883.388	4634
883.514	4839
883.64	4896
883.766	4790
883.892	4702
884.018	4759
884.143	4900
884.269	5025
884.395	4717
884.52	4672
884.646	4672
884.772	4626
884.897	4607
885.023	4675
885.148	4793
885.274	4908
885.399	4866
885.524	4748
885.65	4664
885.775	4790
885.9	4740
886.025	4843
886.15	4771
886.275	4736
886.4	4687
886.525	4744
886.65	4740
886.775	4736
886.9	4923
887.025	5041
887.149	4881
887.274	4656
887.399	4588
887.523	4675
887.648	4611
887.773	4630
887.897	4782
888.021	4801
888.146	4710
888.27	4847
888.395	4915
888.519	4835
888.643	4797
888.767	4896
888.891	4721
889.015	4615
889.139	4687
889.263	4660
889.387	4740
889.511	4900
889.635	4782
889.759	4649
889.883	4668
890.006	4801
890.13	4839
890.254	4653
890.377	4744
890.501	4588
890.624	4504
890.748	4649
890.871	4531
890.995	4466
891.118	4455
891.241	4542
891.364	4577
891.488	4622
891.611	4542
891.734	4546
891.857	4634
891.98	4569
892.103	4687
892.226	4664
892.349	4523
892.471	4459
892.594	4615
892.717	4599
892.839	4626
892.962	4641
893.085	4694
893.207	4611
893.33	4462
893.452	4561
893.575	4694
893.697	4607
893.819	4854
893.941	4824
894.064	4816
894.186	4634
894.308	4622
894.43	4717
894.552	4831
894.674	4786
894.796	4588
894.918	4592
895.04	4573
895.161	4744
895.283	4687
895.405	4649
895.526	4668
895.648	4752
895.769	4653
895.891	4759
896.012	4782
896.134	4755
896.255	4691
896.376	4664
896.498	4637
896.619	4706
896.74	4626
896.861	4664
896.982	4946
897.103	5045
897.224	4934
897.345	4782
897.466	4725
897.587	4763
897.708	4862
897.828	4797
897.949	4694
898.07	4626
898.19	4645
898.311	4889
898.431	4702
898.552	4812
898.672	4866
898.792	4816
898.913	4778
899.033	4645
899.153	4516
899.273	4424
899.393	4554
899.513	4542
899.633	4569
899.753	4565
899.873	4550
899.993	4554
900.113	4584
900.232	4622
900.352	4607
900.472	4489
900.591	4424
900.711	4497
900.83	4447
900.95	4599
901.069	4698
901.189	4588
901.308	4383
901.427	4356
901.546	4421
901.665	4531
901.784	4535
901.904	4417
902.023	4344
902.141	4207
902.26	4169
902.379	4299
902.498	4246
902.617	4268
902.735	4383
902.854	4459
902.973	4375
903.091	4196
903.21	4257
903.328	4322
903.446	4314
903.565	4280
903.683	4356
903.801	4291
903.919	4402
904.038	4481
904.156	4284
904.274	4421
904.392	4470
904.51	4478
904.627	4493
904.745	4565
904.863	4599
904.981	4398
905.098	4383
905.216	4398
905.334	4489
905.451	4466
905.569	4440
905.686	4599
905.803	4626
905.921	4436
906.038	4596
906.155	4504
906.272	4462
906.389	4500
906.506	4356
906.623	4405
906.74	4421
906.857	4348
906.974	4390
907.091	4550
907.208	4649
907.324	4611
907.441	4489
907.557	4329
907.674	4405
907.79	4367
907.907	4436
908.023	4485
908.139	4504
908.256	4436
908.372	4497
908.488	4466
908.604	4306
908.72	4383
908.836	4409
908.952	4318
909.068	4481
909.184	4599
909.3	4519
909.415	4599
909.531	4577
909.647	4367
909.762	4367
909.878	4352
909.993	4436
910.108	4443
910.224	4409
910.339	4531
910.454	4436
910.57	4386
910.685	4322
910.8	4672
910.915	4596
911.03	4466
911.145	4344
911.259	4333
911.374	4405
911.489	4322
911.604	4299
911.718	4238
911.833	4246
911.947	4135
912.062	4029
912.176	4223
912.291	4249
912.405	4268
912.519	4462
912.633	4516
912.748	4413
912.862	4363
912.976	4265
913.09	4105
913.204	4185
913.318	4295
913.431	4386
913.545	4390
913.659	4470
913.772	4421
913.886	4291
914	4230
914.113	4402
914.226	4470
914.34	4394
914.453	4318
914.566	4485
914.68	4314
914.793	4341
914.906	4223
915.019	4124
915.132	4074
915.245	4219
915.358	4257
915.47	4265
915.583	4325
915.696	4268
915.809	4417
915.921	4428
916.034	4306
916.146	4253
916.259	4253
916.371	4413
916.483	4333
916.595	4272
916.708	4390
916.82	4367
916.932	4341
917.044	4337
917.156	4352
917.268	4299
917.38	4310
917.491	4253
917.603	4337
917.715	4402
917.826	4455
917.938	4360
918.049	4314
918.161	4402
918.272	4550
918.384	4542
918.495	4493
918.606	4306
918.717	4284
918.828	4318
918.939	4337
919.05	4284
919.161	4398
919.272	4143
919.383	4265
919.494	4455
919.604	4615
919.715	4474
919.826	4329
919.936	4409
920.047	4546
920.157	4485
920.267	4733
920.378	4531
920.488	4493
920.598	4729
920.708	4892
920.818	4782
920.928	4797
921.038	4919
921.148	4896
921.258	4611
921.368	4538
921.477	4542
921.587	4459
921.697	4390
921.806	4554
921.916	4459
922.025	4284
922.134	4333
922.244	4299
922.353	4322
922.462	4188
922.571	4143
922.68	3991
922.789	4044
922.898	4078
923.007	4002
923.116	4093
923.224	4101
923.333	4116
923.442	4055
923.55	4032
923.659	4086
923.767	4166
923.876	4051
923.984	4131
924.092	4010
924.201	4105
924.309	4143
924.417	4109
924.525	4097
924.633	4139
924.741	5105
924.849	3960
924.956	4200
925.064	3987
925.172	3937
925.279	3979
925.387	4128
925.494	4116
925.602	4310
925.709	4219
925.816	4086
925.924	4196
926.031	4303
926.138	4211
926.245	4253
926.352	4147
926.459	4280
926.566	4348
926.673	4211
926.779	4135
926.886	4128
926.993	4017
927.099	4021
927.206	4025
927.312	3998
927.419	4120
927.525	4090
927.631	4131
927.737	3987
927.843	4010
927.95	3888
928.056	4002
928.162	4059
928.267	4105
928.373	4752
928.479	4166
928.585	3915
928.69	4067
928.796	4128
928.901	4013
929.007	3953
929.112	4067
929.218	3991
929.323	4006
929.428	4006
929.533	4169
929.638	3964
929.743	3983
929.848	4078
929.953	3998
930.058	4032
930.163	3827
930.267	3873
930.372	3991
930.477	3865
930.581	4154
930.685	3994
930.79	3884
930.894	3956
930.998	3926
931.103	4074
931.207	3762
931.311	3759
931.415	3713
931.519	3576
931.623	3625
