Data from test_V78500241_2287.txt Node
Date: Fri Mar 25 17:04:54 CST 2022
User: usil
Spectrometer: V785-0024
Trigger mode: 0
Integration Time (sec): 4.000000E-1
Scans to average: 1
Nonlinearity correction enabled: false
Boxcar width: 0
Storing dark spectrum: false
XAxis mode: Wavelengths
Number of Pixels in Spectrum: 1024
>>>>>Begin Spectral Data<<<<<
801.071	8012
801.214	7928
801.356	7944
801.499	7807
801.641	7841
801.783	7833
801.926	7974
802.068	7944
802.211	7974
802.353	8035
802.496	7822
802.638	7871
802.78	7902
802.923	7871
803.065	7898
803.208	7909
803.35	7982
803.492	8168
803.635	8199
803.777	8035
803.919	8134
804.061	8408
804.204	8130
804.346	8062
804.488	7947
804.63	8031
804.773	8054
804.915	8130
805.057	8320
805.199	8168
805.341	8199
805.483	8259
805.626	8191
805.768	8130
805.91	8214
806.052	8195
806.194	8142
806.336	8317
806.478	8069
806.62	8138
806.762	8126
806.904	8252
807.046	8393
807.188	8275
807.33	8389
807.472	8351
807.614	8130
807.756	8164
807.898	7967
808.04	7928
808.182	7902
808.324	7868
808.465	7917
808.607	8058
808.749	8100
808.891	8259
809.033	8332
809.174	8157
809.316	8035
809.458	8092
809.6	8035
809.741	8016
809.883	7963
810.025	8092
810.166	8088
810.308	8050
810.45	8016
810.591	7913
810.733	7719
810.875	7719
811.016	7510
811.158	7430
811.299	7544
811.441	7727
811.582	7738
811.724	7563
811.865	7567
812.007	7586
812.148	7540
812.29	7613
812.431	7696
812.573	7871
812.714	7921
812.855	8123
812.997	8191
813.138	8199
813.279	8103
813.421	8123
813.562	7967
813.703	7868
813.845	7738
813.986	7411
814.127	7228
814.268	7263
814.41	7209
814.551	7198
814.692	7217
814.833	7160
814.974	7099
815.115	7129
815.256	6970
815.397	6920
815.539	6954
815.68	6829
815.821	6707
815.962	6795
816.103	6829
816.244	6726
816.385	6646
816.526	6646
816.666	6502
816.807	6369
816.948	6429
817.089	6433
817.23	6445
817.371	6311
817.512	6384
817.653	6365
817.793	6372
817.934	6376
818.075	6460
818.216	6384
818.356	6353
818.497	6216
818.638	6155
818.778	6220
818.919	6144
819.06	6129
819.2	6308
819.341	6311
819.481	6311
819.622	6532
819.762	6753
819.903	6681
820.043	6635
820.184	6528
820.324	6547
820.465	6768
820.605	6582
820.746	6681
820.886	6456
821.026	6696
821.167	6627
821.307	6829
821.447	6783
821.588	6681
821.728	6578
821.868	6471
822.008	6270
822.149	6353
822.289	6338
822.429	6121
822.569	6095
822.709	6148
822.849	5920
822.99	5958
823.13	5980
823.27	6019
823.41	5771
823.55	5786
823.69	5786
823.83	5794
823.97	5657
824.11	5528
824.25	5535
824.389	5581
824.529	5615
824.669	5596
824.809	5665
824.949	5688
825.089	5649
825.228	5535
825.368	5463
825.508	5425
825.648	5395
825.787	5455
825.927	5402
826.067	5326
826.206	5372
826.346	5379
826.485	5452
826.625	5429
826.765	5577
826.904	5474
827.044	5292
827.183	5273
827.323	5174
827.462	5265
827.601	5273
827.741	5273
827.88	5254
828.02	5128
828.159	5258
828.298	5379
828.437	5406
828.577	5292
828.716	5497
828.855	5379
828.994	5208
829.134	5178
829.273	5254
829.412	5189
829.551	5201
829.69	5216
829.829	5280
829.968	5452
830.107	5345
830.246	5258
830.385	5147
830.524	5181
830.663	5113
830.802	4957
830.941	4938
831.08	4885
831.219	5014
831.357	5010
831.496	5181
831.635	4991
831.774	4930
831.913	4854
832.051	4752
832.19	4782
832.329	4847
832.467	4698
832.606	4660
832.744	4778
832.883	4752
833.022	4687
833.16	4797
833.299	4873
833.437	4870
833.576	4930
833.714	4896
833.852	4892
833.991	4915
834.129	4972
834.267	4980
834.406	4938
834.544	4987
834.682	4995
834.821	5025
834.959	5201
835.097	5064
835.235	5197
835.373	5166
835.511	5132
835.65	5075
835.788	5045
835.926	4923
836.064	4904
836.202	4961
836.34	5201
836.478	5185
836.615	5166
836.753	5250
836.891	5322
837.029	5280
837.167	5231
837.305	5220
837.443	5193
837.58	5102
837.718	5315
837.856	5208
837.993	5181
838.131	5254
838.269	5231
838.406	5204
838.544	5189
838.681	5045
838.819	5037
838.956	4934
839.094	4919
839.231	4968
839.369	5090
839.506	5433
839.643	5334
839.781	5147
839.918	5098
840.055	5136
840.193	5140
840.33	5166
840.467	5151
840.604	5250
840.742	5452
840.879	5105
841.016	5105
841.153	5159
841.29	5379
841.427	5334
841.564	5341
841.701	5398
841.838	5341
841.975	5288
842.112	5337
842.249	5181
842.385	5121
842.522	5364
842.659	5212
842.796	5162
842.933	5223
843.069	5178
843.206	5166
843.343	5326
843.479	5322
843.616	5284
843.752	5109
843.889	5067
844.025	5261
844.162	5079
844.298	5242
844.435	5086
844.571	5067
844.708	5246
844.844	5307
844.98	5379
845.117	5326
845.253	5181
845.389	5140
845.525	5231
845.661	5136
845.798	5079
845.934	5181
846.07	5079
846.206	5254
846.342	5273
846.478	5216
846.614	5029
846.75	5014
846.886	4961
847.022	5193
847.158	5075
847.294	5056
847.429	5113
847.565	5105
847.701	5368
847.837	4877
847.972	4843
848.108	4953
848.244	4953
848.379	4786
848.515	4824
848.65	4759
848.786	4759
848.921	4801
849.057	4850
849.192	4896
849.328	4854
849.463	4904
849.598	4866
849.734	4797
849.869	4733
850.004	4645
850.14	4725
850.275	4645
850.41	4561
850.545	4622
850.68	4649
850.815	4626
850.95	4641
851.085	4850
851.22	4755
851.355	4675
851.49	4649
851.625	4641
851.76	4687
851.895	4615
852.03	4592
852.165	4698
852.299	4679
852.434	4748
852.569	4759
852.703	4801
852.838	4881
852.973	4957
853.107	4923
853.242	4767
853.376	4729
853.511	4523
853.645	4637
853.78	4850
853.914	4641
854.048	4710
854.183	4702
854.317	4767
854.451	4896
854.585	4664
854.72	4691
854.854	4755
854.988	4630
855.122	4626
855.256	4546
855.39	4679
855.524	4790
855.658	4759
855.792	4725
855.926	4733
856.06	4752
856.194	4843
856.327	4729
856.461	4656
856.595	4607
856.729	4630
856.862	4748
856.996	4763
857.13	4725
857.263	4801
857.397	4839
857.53	4668
857.664	4778
857.797	4759
857.931	4801
858.064	4717
858.197	4710
858.331	4683
858.464	4679
858.597	4561
858.731	4649
858.864	4656
858.997	4641
859.13	4694
859.263	4736
859.396	4717
859.529	4607
859.662	4626
859.795	4542
859.928	4653
860.061	4782
860.194	4816
860.327	4656
860.46	4558
860.592	4748
860.725	4733
860.858	4752
860.99	4592
861.123	4561
861.256	4508
861.388	4626
861.521	5299
861.653	4527
861.786	4443
861.918	4459
862.05	4607
862.183	4592
862.315	4603
862.447	4694
862.58	4558
862.712	4398
862.844	4405
862.976	4455
863.108	4508
863.24	4915
863.372	4417
863.504	4451
863.636	4398
863.768	4489
863.9	4440
864.032	4417
864.164	4455
864.296	4542
864.428	4558
864.559	4630
864.691	4569
864.823	4546
864.954	4535
865.086	4554
865.217	4489
865.349	4436
865.48	4466
865.612	4497
865.743	4641
865.875	4478
866.006	4455
866.137	4436
866.269	4474
866.4	4455
866.531	4462
866.662	4390
866.793	4402
866.924	4481
867.055	4527
867.186	4481
867.317	4466
867.448	4386
867.579	4443
867.71	4402
867.841	4394
867.972	4466
868.103	4447
868.233	4474
868.364	4413
868.495	4481
868.625	4687
868.756	4805
868.886	4577
869.017	4679
869.147	4809
869.278	4759
869.408	4637
869.539	4637
869.669	4733
869.799	4664
869.929	4767
870.06	4790
870.19	4949
870.32	4889
870.45	4965
870.58	4980
870.71	5109
870.84	5155
870.97	4957
871.1	4904
871.23	5170
871.36	5128
871.489	5090
871.619	5094
871.749	5105
871.879	5098
872.008	5166
872.138	5048
872.267	5018
872.397	4824
872.526	4805
872.656	4736
872.785	4839
872.915	4976
873.044	5086
873.173	4919
873.303	4965
873.432	4999
873.561	4991
873.69	4889
873.819	4839
873.948	4919
874.077	4831
874.206	4774
874.335	4828
874.464	4927
874.593	5083
874.722	5025
874.851	5136
874.979	5113
875.108	5022
875.237	4892
875.365	4980
875.494	4923
875.623	5003
875.751	4820
875.88	4873
876.008	5022
876.136	5037
876.265	5254
876.393	5345
876.521	5265
876.65	5235
876.778	5121
876.906	5143
877.034	5025
877.162	5102
877.29	5018
877.418	5071
877.546	5075
877.674	5090
877.802	5064
877.93	5010
878.058	4908
878.185	4934
878.313	4987
878.441	4904
878.568	4793
878.696	4904
878.824	5014
878.951	5056
879.079	5193
879.206	5303
879.333	5143
879.461	5018
879.588	5060
879.715	5155
879.842	5227
879.97	5010
880.097	4721
880.224	4786
880.351	4782
880.478	4797
880.605	4824
880.732	4790
880.859	5102
880.986	4908
881.112	4915
881.239	4809
881.366	4672
881.493	4664
881.619	4641
881.746	4660
881.872	4634
881.999	4634
882.125	4687
882.252	4805
882.378	4866
882.505	4995
882.631	4812
882.757	4706
882.883	4755
883.01	4763
883.136	4702
883.262	4630
883.388	4599
883.514	4797
883.64	4854
883.766	4831
883.892	4736
884.018	4694
884.143	4938
884.269	5033
884.395	4698
884.52	4645
884.646	4687
884.772	4603
884.897	4561
885.023	4668
885.148	4805
885.274	4854
885.399	4828
885.524	4721
885.65	4679
885.775	4782
885.9	4725
886.025	4877
886.15	4805
886.275	4729
886.4	4630
886.525	4729
886.65	4683
886.775	4740
886.9	4942
887.025	5041
887.149	4858
887.274	4622
887.399	4584
887.523	4607
887.648	4584
887.773	4615
887.897	4748
888.021	4793
888.146	4675
888.27	4824
888.395	4896
888.519	4797
888.643	4828
888.767	4862
888.891	4694
889.015	4611
889.139	4672
889.263	4626
889.387	4774
889.511	4873
889.635	4801
889.759	4653
889.883	4634
890.006	4752
890.13	4805
890.254	4607
890.377	4687
890.501	4542
890.624	4561
890.748	4618
890.871	4516
890.995	4455
891.118	4405
891.241	4531
891.364	4558
891.488	4634
891.611	4512
891.734	4569
891.857	4649
891.98	4527
892.103	4675
892.226	4649
892.349	4527
892.471	4432
892.594	4565
892.717	4672
892.839	4535
892.962	4603
893.085	4706
893.207	4577
893.33	4489
893.452	4546
893.575	4637
893.697	4569
893.819	4820
893.941	4831
894.064	4801
894.186	4599
894.308	4569
894.43	4740
894.552	4831
894.674	4744
894.796	4565
894.918	4599
895.04	4565
895.161	4721
895.283	4653
895.405	4596
895.526	4634
895.648	4698
895.769	4702
895.891	4694
896.012	4721
896.134	4736
896.255	4729
896.376	4645
896.498	4630
896.619	4710
896.74	4683
896.861	4687
896.982	4946
897.103	5094
897.224	4816
897.345	4771
897.466	4714
897.587	4771
897.708	4866
897.828	4771
897.949	4645
898.07	4622
898.19	4683
898.311	4820
898.431	4664
898.552	4771
898.672	4812
898.792	4816
898.913	4744
899.033	4683
899.153	4519
899.273	4470
899.393	4497
899.513	4531
899.633	4542
899.753	4550
899.873	4500
899.993	4554
900.113	4588
900.232	4626
900.352	4584
900.472	4497
900.591	4379
900.711	4523
900.83	4428
900.95	4577
901.069	4645
901.189	4546
901.308	4394
901.427	4303
901.546	4379
901.665	4481
901.784	4500
901.904	4386
902.023	4314
902.141	4196
902.26	4154
902.379	4322
902.498	4227
902.617	4227
902.735	4314
902.854	4428
902.973	4405
903.091	4215
903.21	4295
903.328	4280
903.446	4268
903.565	4284
903.683	4352
903.801	4276
903.919	4398
904.038	4436
904.156	4329
904.274	4428
904.392	4341
904.51	4459
904.627	4424
904.745	4580
904.863	4577
904.981	4402
905.098	4356
905.216	4367
905.334	4409
905.451	4440
905.569	4432
905.686	4542
905.803	4577
905.921	4455
906.038	4542
906.155	4500
906.272	4417
906.389	4462
906.506	4325
906.623	4394
906.74	4440
906.857	4318
906.974	4352
907.091	4584
907.208	4645
907.324	4596
907.441	4538
907.557	4356
907.674	4348
907.79	4333
907.907	4386
908.023	4504
908.139	4519
908.256	4440
908.372	4470
908.488	4478
908.604	4348
908.72	4329
908.836	4363
908.952	4421
909.068	4428
909.184	4561
909.3	4500
909.415	4580
909.531	4577
909.647	4356
909.762	4329
909.878	4413
909.993	4485
910.108	4447
910.224	4375
910.339	4474
910.454	4375
910.57	4341
910.685	4299
910.8	4653
910.915	4550
911.03	4512
911.145	4348
911.259	4363
911.374	4386
911.489	4325
911.604	4322
911.718	4188
911.833	4211
911.947	4090
912.062	4032
912.176	4246
912.291	4242
912.405	4268
912.519	4462
912.633	4485
912.748	4375
912.862	4360
912.976	4204
913.09	4059
913.204	4154
913.318	4234
913.431	4390
913.545	4375
913.659	4470
913.772	4360
913.886	4223
914	4242
914.113	4386
914.226	4440
914.34	4409
914.453	4181
914.566	4417
914.68	4310
914.793	4348
914.906	4177
915.019	4128
915.132	4086
915.245	4227
915.358	4211
915.47	4185
915.583	4268
915.696	4299
915.809	4428
915.921	4443
916.034	4242
916.146	4265
916.259	4204
916.371	4322
916.483	4379
916.595	4238
916.708	4318
916.82	4333
916.932	4360
917.044	4333
917.156	4291
917.268	4204
917.38	4306
917.491	4280
917.603	4333
917.715	4443
917.826	4436
917.938	4390
918.049	4257
918.161	4360
918.272	4535
918.384	4538
918.495	4462
918.606	4333
918.717	4234
918.828	4314
918.939	4390
919.05	4284
919.161	4314
919.272	4162
919.383	4196
919.494	4474
919.604	4580
919.715	4417
919.826	4310
919.936	4371
920.047	4527
920.157	4470
920.267	4702
920.378	4550
920.488	4474
920.598	4740
920.708	4839
920.818	4771
920.928	4755
921.038	4911
921.148	4915
921.258	4656
921.368	4508
921.477	4478
921.587	4474
921.697	4363
921.806	4508
921.916	4436
922.025	4265
922.134	4280
922.244	4246
922.353	4390
922.462	4173
922.571	4124
922.68	4032
922.789	3987
922.898	4059
923.007	4032
923.116	4093
923.224	4101
923.333	4067
923.442	4013
923.55	3979
923.659	4013
923.767	4131
923.876	4002
923.984	4139
924.092	4002
924.201	4055
924.309	4112
924.417	4135
924.525	4013
924.633	4120
924.741	5071
924.849	3896
924.956	4101
925.064	3964
925.172	3876
925.279	3972
925.387	4044
925.494	4048
925.602	4257
925.709	4173
925.816	4025
925.924	4078
926.031	4162
926.138	4211
926.245	4200
926.352	4101
926.459	4242
926.566	4287
926.673	4185
926.779	4074
926.886	4086
926.993	3994
927.099	3949
927.206	3926
927.312	3945
927.419	4086
927.525	3994
927.631	4067
927.737	3975
927.843	3949
927.95	3838
928.056	3983
928.162	3979
928.267	4063
928.373	4694
928.479	4105
928.585	3880
928.69	4040
928.796	4048
928.901	3979
929.007	3854
929.112	3994
929.218	3964
929.323	3968
929.428	3949
929.533	4074
929.638	3888
929.743	3964
929.848	4040
929.953	4029
930.058	3945
930.163	3781
930.267	3774
930.372	4013
930.477	3781
930.581	4063
930.685	3960
930.79	3812
930.894	3865
930.998	3819
931.103	4059
931.207	3701
931.311	3675
931.415	3667
931.519	3534
931.623	3515
