Data from test_V78500241_2288.txt Node
Date: Fri Mar 25 17:04:54 CST 2022
User: usil
Spectrometer: V785-0024
Trigger mode: 0
Integration Time (sec): 4.000000E-1
Scans to average: 1
Nonlinearity correction enabled: false
Boxcar width: 0
Storing dark spectrum: false
XAxis mode: Wavelengths
Number of Pixels in Spectrum: 1024
>>>>>Begin Spectral Data<<<<<
801.071	7993
801.214	8012
801.356	7902
801.499	7837
801.641	7772
801.783	7799
801.926	7932
802.068	7963
802.211	7860
802.353	8012
802.496	7871
802.638	7860
802.78	7875
802.923	7928
803.065	7860
803.208	7811
803.35	7928
803.492	8115
803.635	8103
803.777	8020
803.919	8168
804.061	8442
804.204	8187
804.346	8050
804.488	7940
804.63	8088
804.773	8005
804.915	8153
805.057	8305
805.199	8244
805.341	8191
805.483	8259
805.626	8218
805.768	8096
805.91	8199
806.052	8153
806.194	8043
806.336	8267
806.478	8081
806.62	8050
806.762	8145
806.904	8218
807.046	8446
807.188	8317
807.33	8279
807.472	8282
807.614	8164
807.756	8096
807.898	8069
808.04	7890
808.182	7883
808.324	7947
808.465	7856
808.607	8103
808.749	8153
808.891	8153
809.033	8305
809.174	8206
809.316	8084
809.458	8050
809.6	7951
809.741	8005
809.883	8035
810.025	8081
810.166	8103
810.308	8005
810.45	8001
810.591	7868
810.733	7742
810.875	7662
811.016	7426
811.158	7438
811.299	7616
811.441	7772
811.582	7601
811.724	7597
811.865	7552
812.007	7567
812.148	7590
812.29	7666
812.431	7700
812.573	7883
812.714	7989
812.855	8100
812.997	8161
813.138	8358
813.279	8153
813.421	8035
813.562	7989
813.703	7830
813.845	7742
813.986	7445
814.127	7346
814.268	7217
814.41	7175
814.551	7194
814.692	7247
814.833	7099
814.974	7072
815.115	7114
815.256	6985
815.397	6928
815.539	6958
815.68	6791
815.821	6787
815.962	6924
816.103	6795
816.244	6738
816.385	6627
816.526	6631
816.666	6494
816.807	6281
816.948	6464
817.089	6502
817.23	6418
817.371	6376
817.512	6384
817.653	6429
817.793	6365
817.934	6407
818.075	6422
818.216	6422
818.356	6384
818.497	6224
818.638	6129
818.778	6152
818.919	6133
819.06	6140
819.2	6304
819.341	6334
819.481	6300
819.622	6525
819.762	6700
819.903	6707
820.043	6566
820.184	6582
820.324	6623
820.465	6635
820.605	6703
820.746	6563
820.886	6506
821.026	6601
821.167	6715
821.307	6859
821.447	6768
821.588	6684
821.728	6517
821.868	6460
822.008	6300
822.149	6346
822.289	6311
822.429	6117
822.569	6133
822.709	6140
822.849	5935
822.99	5916
823.13	5863
823.27	5901
823.41	5840
823.55	5790
823.69	5775
823.83	5764
823.97	5646
824.11	5551
824.25	5509
824.389	5562
824.529	5585
824.669	5448
824.809	5611
824.949	5684
825.089	5623
825.228	5585
825.368	5376
825.508	5372
825.648	5364
825.787	5383
825.927	5368
826.067	5311
826.206	5296
826.346	5372
826.485	5383
826.625	5395
826.765	5589
826.904	5459
827.044	5277
827.183	5220
827.323	5136
827.462	5258
827.601	5151
827.741	5185
827.88	5174
828.02	5113
828.159	5208
828.298	5299
828.437	5353
828.577	5246
828.716	5490
828.855	5330
828.994	5143
829.134	5136
829.273	5178
829.412	5143
829.551	5105
829.69	5151
829.829	5216
829.968	5425
830.107	5326
830.246	5318
830.385	5143
830.524	5170
830.663	5109
830.802	4953
830.941	4885
831.08	4896
831.219	4976
831.357	4953
831.496	5159
831.635	4953
831.774	4831
831.913	4843
832.051	4744
832.19	4771
832.329	4843
832.467	4660
832.606	4675
832.744	4683
832.883	4767
833.022	4721
833.16	4744
833.299	4809
833.437	4812
833.576	4820
833.714	4839
833.852	4877
833.991	4908
834.129	4987
834.267	4976
834.406	4900
834.544	4987
834.682	4972
834.821	4984
834.959	5128
835.097	4968
835.235	5151
835.373	5117
835.511	5060
835.65	5045
835.788	5018
835.926	4873
836.064	4843
836.202	4896
836.34	5216
836.478	5231
836.615	5098
836.753	5197
836.891	5288
837.029	5250
837.167	5162
837.305	5140
837.443	5159
837.58	5094
837.718	5250
837.856	5189
837.993	5136
838.131	5220
838.269	5212
838.406	5216
838.544	5181
838.681	5014
838.819	5029
838.956	4881
839.094	4904
839.231	5003
839.369	5102
839.506	5425
839.643	5277
839.781	5025
839.918	5041
840.055	5121
840.193	5094
840.33	5140
840.467	5140
840.604	5212
840.742	5463
840.879	5098
841.016	5056
841.153	5121
841.29	5360
841.427	5330
841.564	5307
841.701	5334
841.838	5212
841.975	5223
842.112	5254
842.249	5124
842.385	5143
842.522	5299
842.659	5159
842.796	5090
842.933	5117
843.069	5105
843.206	5140
843.343	5315
843.479	5242
843.616	5296
843.752	5014
843.889	5018
844.025	5220
844.162	4995
844.298	5197
844.435	5086
844.571	5041
844.708	5174
844.844	5326
844.98	5330
845.117	5299
845.253	5128
845.389	5075
845.525	5162
845.661	5121
845.798	5041
845.934	5117
846.07	5022
846.206	5128
846.342	5292
846.478	5147
846.614	5014
846.75	5014
846.886	4919
847.022	5079
847.158	5033
847.294	5056
847.429	5056
847.565	5067
847.701	5357
847.837	4828
847.972	4782
848.108	4927
848.244	4896
848.379	4790
848.515	4752
848.65	4702
848.786	4721
848.921	4717
849.057	4862
849.192	4873
849.328	4824
849.463	4862
849.598	4828
849.734	4717
849.869	4656
850.004	4672
850.14	4683
850.275	4618
850.41	4561
850.545	4531
850.68	4599
850.815	4618
850.95	4675
851.085	4835
851.22	4752
851.355	4668
851.49	4599
851.625	4637
851.76	4607
851.895	4573
852.03	4558
852.165	4634
852.299	4683
852.434	4854
852.569	4805
852.703	4786
852.838	4850
852.973	4927
853.107	4892
853.242	4763
853.376	4687
853.511	4546
853.645	4649
853.78	4782
853.914	4694
854.048	4611
854.183	4603
854.317	4664
854.451	4835
854.585	4645
854.72	4634
854.854	4763
854.988	4588
855.122	4607
855.256	4519
855.39	4622
855.524	4782
855.658	4717
855.792	4687
855.926	4714
856.06	4782
856.194	4793
856.327	4710
856.461	4569
856.595	4653
856.729	4630
856.862	4744
856.996	4615
857.13	4748
857.263	4736
857.397	4778
857.53	4641
857.664	4717
857.797	4790
857.931	4763
858.064	4672
858.197	4790
858.331	4634
858.464	4683
858.597	4542
858.731	4672
858.864	4634
858.997	4584
859.13	4641
859.263	4672
859.396	4687
859.529	4584
859.662	4554
859.795	4542
859.928	4618
860.061	4744
860.194	4786
860.327	4622
860.46	4611
860.592	4740
860.725	4706
860.858	4736
860.99	4580
861.123	4542
861.256	4535
861.388	4653
861.521	5227
861.653	4497
861.786	4432
861.918	4421
862.05	4500
862.183	4531
862.315	4607
862.447	4668
862.58	4523
862.712	4390
862.844	4329
862.976	4485
863.108	4466
863.24	4824
863.372	4363
863.504	4424
863.636	4440
863.768	4459
863.9	4402
864.032	4375
864.164	4413
864.296	4424
864.428	4542
864.559	4569
864.691	4554
864.823	4542
864.954	4497
865.086	4531
865.217	4459
865.349	4409
865.48	4428
865.612	4470
865.743	4615
865.875	4462
866.006	4383
866.137	4432
866.269	4402
866.4	4428
866.531	4394
866.662	4375
866.793	4390
866.924	4443
867.055	4493
867.186	4436
867.317	4428
867.448	4375
867.579	4462
867.71	4371
867.841	4398
867.972	4462
868.103	4443
868.233	4421
868.364	4432
868.495	4432
868.625	4687
868.756	4801
868.886	4550
869.017	4679
869.147	4786
869.278	4774
869.408	4675
869.539	4615
869.669	4740
869.799	4672
869.929	4759
870.06	4729
870.19	4934
870.32	4915
870.45	4930
870.58	5041
870.71	5041
870.84	5079
870.97	4934
871.1	4904
871.23	5105
871.36	5037
871.489	5010
871.619	5048
871.749	5102
871.879	5086
872.008	5155
872.138	5052
872.267	5025
872.397	4839
872.526	4828
872.656	4725
872.785	4797
872.915	4885
873.044	4980
873.173	4949
873.303	4923
873.432	4927
873.561	4930
873.69	4835
873.819	4881
873.948	4953
874.077	4839
874.206	4752
874.335	4831
874.464	4904
874.593	5079
874.722	4999
874.851	5090
874.979	5067
875.108	5052
875.237	4896
875.365	4892
875.494	4908
875.623	5006
875.751	4847
875.88	4847
876.008	4980
876.136	4987
876.265	5166
876.393	5307
876.521	5258
876.65	5208
876.778	5155
876.906	5052
877.034	5018
877.162	5025
877.29	5025
877.418	5052
877.546	5048
877.674	5041
877.802	5056
877.93	5018
878.058	4919
878.185	4866
878.313	4957
878.441	4923
878.568	4812
878.696	4870
878.824	4927
878.951	4976
879.079	5094
879.206	5292
879.333	5083
879.461	4942
879.588	5041
879.715	5083
879.842	5216
879.97	4984
880.097	4759
880.224	4748
880.351	4820
880.478	4782
880.605	4740
880.732	4801
880.859	5113
880.986	4862
881.112	4927
881.239	4805
881.366	4683
881.493	4603
881.619	4641
881.746	4637
881.872	4622
881.999	4660
882.125	4698
882.252	4748
882.378	4820
882.505	4938
882.631	4812
882.757	4660
882.883	4752
883.01	4721
883.136	4668
883.262	4573
883.388	4592
883.514	4854
883.64	4858
883.766	4767
883.892	4653
884.018	4733
884.143	4900
884.269	5010
884.395	4668
884.52	4569
884.646	4615
884.772	4622
884.897	4561
885.023	4660
885.148	4809
885.274	4839
885.399	4782
885.524	4729
885.65	4668
885.775	4691
885.9	4706
886.025	4862
886.15	4778
886.275	4714
886.4	4630
886.525	4687
886.65	4683
886.775	4668
886.9	4900
887.025	5029
887.149	4755
887.274	4683
887.399	4546
887.523	4596
887.648	4580
887.773	4577
887.897	4778
888.021	4786
888.146	4679
888.27	4820
888.395	4927
888.519	4774
888.643	4862
888.767	4790
888.891	4653
889.015	4607
889.139	4634
889.263	4584
889.387	4774
889.511	4885
889.635	4801
889.759	4611
889.883	4637
890.006	4729
890.13	4801
890.254	4561
890.377	4656
890.501	4538
890.624	4474
890.748	4649
890.871	4546
890.995	4451
891.118	4375
891.241	4554
891.364	4527
891.488	4630
891.611	4466
891.734	4527
891.857	4596
891.98	4588
892.103	4611
892.226	4569
892.349	4512
892.471	4432
892.594	4558
892.717	4577
892.839	4550
892.962	4546
893.085	4641
893.207	4558
893.33	4485
893.452	4500
893.575	4637
893.697	4573
893.819	4782
893.941	4843
894.064	4774
894.186	4550
894.308	4561
894.43	4725
894.552	4782
894.674	4790
894.796	4516
894.918	4615
895.04	4550
895.161	4691
895.283	4687
895.405	4561
895.526	4660
895.648	4668
895.769	4672
895.891	4733
896.012	4763
896.134	4740
896.255	4645
896.376	4611
896.498	4588
896.619	4641
896.74	4592
896.861	4634
896.982	4866
897.103	5079
897.224	4816
897.345	4736
897.466	4694
897.587	4664
897.708	4858
897.828	4774
897.949	4656
898.07	4573
898.19	4618
898.311	4793
898.431	4641
898.552	4725
898.672	4820
898.792	4820
898.913	4736
899.033	4573
899.153	4516
899.273	4459
899.393	4485
899.513	4569
899.633	4542
899.753	4535
899.873	4497
899.993	4569
900.113	4523
900.232	4569
900.352	4504
900.472	4466
900.591	4348
900.711	4436
900.83	4443
900.95	4584
901.069	4729
901.189	4489
901.308	4371
901.427	4314
901.546	4363
901.665	4447
901.784	4538
901.904	4405
902.023	4341
902.141	4200
902.26	4147
902.379	4329
902.498	4253
902.617	4246
902.735	4360
902.854	4356
902.973	4325
903.091	4211
903.21	4261
903.328	4329
903.446	4314
903.565	4253
903.683	4325
903.801	4234
903.919	4383
904.038	4409
904.156	4322
904.274	4424
904.392	4398
904.51	4413
904.627	4459
904.745	4531
904.863	4656
904.981	4398
905.098	4318
905.216	4402
905.334	4428
905.451	4447
905.569	4455
905.686	4580
905.803	4542
905.921	4421
906.038	4538
906.155	4451
906.272	4421
906.389	4424
906.506	4348
906.623	4390
906.74	4386
906.857	4329
906.974	4379
907.091	4550
907.208	4675
907.324	4558
907.441	4523
907.557	4344
907.674	4402
907.79	4337
907.907	4333
908.023	4489
908.139	4424
908.256	4424
908.372	4466
908.488	4436
908.604	4402
908.72	4314
908.836	4371
908.952	4409
909.068	4455
909.184	4550
909.3	4455
909.415	4588
909.531	4542
909.647	4337
909.762	4390
909.878	4341
909.993	4394
910.108	4432
910.224	4443
910.339	4462
910.454	4379
910.57	4363
910.685	4306
910.8	4656
910.915	4580
911.03	4500
911.145	4306
911.259	4329
911.374	4398
911.489	4276
911.604	4322
911.718	4154
911.833	4211
911.947	4078
912.062	3994
912.176	4196
912.291	4196
912.405	4204
912.519	4508
912.633	4535
912.748	4386
912.862	4333
912.976	4177
913.09	4082
913.204	4131
913.318	4238
913.431	4356
913.545	4371
913.659	4428
913.772	4405
913.886	4265
914	4207
914.113	4375
914.226	4421
914.34	4375
914.453	4204
914.566	4447
914.68	4272
914.793	4287
914.906	4177
915.019	4147
915.132	4071
915.245	4158
915.358	4227
915.47	4246
915.583	4261
915.696	4280
915.809	4383
915.921	4436
916.034	4249
916.146	4272
916.259	4150
916.371	4352
916.483	4318
916.595	4291
916.708	4303
916.82	4299
916.932	4314
917.044	4333
917.156	4306
917.268	4242
917.38	4272
917.491	4253
917.603	4318
917.715	4383
917.826	4424
917.938	4287
918.049	4230
918.161	4424
918.272	4550
918.384	4550
918.495	4474
918.606	4272
918.717	4249
918.828	4299
918.939	4360
919.05	4219
919.161	4310
919.272	4128
919.383	4204
919.494	4447
919.604	4596
919.715	4409
919.826	4379
919.936	4394
920.047	4519
920.157	4470
920.267	4721
920.378	4538
920.488	4542
920.598	4675
920.708	4877
920.818	4740
920.928	4752
921.038	4923
921.148	4892
921.258	4634
921.368	4527
921.477	4493
921.587	4462
921.697	4367
921.806	4542
921.916	4428
922.025	4344
922.134	4261
922.244	4291
922.353	4360
922.462	4173
922.571	4162
922.68	3998
922.789	4006
922.898	4029
923.007	4025
923.116	4078
923.224	4101
923.333	4029
923.442	3991
923.55	3953
923.659	4044
923.767	4116
923.876	3983
923.984	4109
924.092	3998
924.201	4093
924.309	4097
924.417	4078
924.525	4021
924.633	4090
924.741	5045
924.849	3964
924.956	4124
925.064	3945
925.172	3903
925.279	3960
925.387	4071
925.494	4040
925.602	4169
925.709	4196
925.816	4025
925.924	4128
926.031	4234
926.138	4185
926.245	4230
926.352	4059
926.459	4230
926.566	4295
926.673	4131
926.779	4067
926.886	4120
926.993	3972
927.099	3979
927.206	3934
927.312	3956
927.419	4071
927.525	4002
927.631	4112
927.737	3949
927.843	3934
927.95	3804
928.056	3979
928.162	3956
928.267	4048
928.373	4717
928.479	4128
928.585	3854
928.69	4017
928.796	4071
928.901	3937
929.007	3797
929.112	4029
929.218	3991
929.323	3937
929.428	3918
929.533	4090
929.638	3922
929.743	3934
929.848	4025
929.953	4002
930.058	3934
930.163	3755
930.267	3827
930.372	3945
930.477	3759
930.581	4090
930.685	3896
930.79	3797
930.894	3918
930.998	3831
931.103	3998
931.207	3728
931.311	3682
931.415	3641
931.519	3523
931.623	3572
