Data from test_V78500241_787.txt Node
Date: Fri Mar 25 16:54:28 CST 2022
User: usil
Spectrometer: V785-0024
Trigger mode: 0
Integration Time (sec): 4.000000E-1
Scans to average: 1
Nonlinearity correction enabled: false
Boxcar width: 0
Storing dark spectrum: false
XAxis mode: Wavelengths
Number of Pixels in Spectrum: 1024
>>>>>Begin Spectral Data<<<<<
801.071	8008
801.214	7967
801.356	7799
801.499	7868
801.641	7765
801.783	7864
801.926	7944
802.068	7932
802.211	7974
802.353	8027
802.496	7894
802.638	7868
802.78	7940
802.923	7887
803.065	7883
803.208	7868
803.35	7936
803.492	8100
803.635	8157
803.777	8012
803.919	8111
804.061	8427
804.204	8096
804.346	8031
804.488	7936
804.63	8153
804.773	8046
804.915	8100
805.057	8286
805.199	8111
805.341	8275
805.483	8298
805.626	8180
805.768	8142
805.91	8183
806.052	8153
806.194	8130
806.336	8313
806.478	8073
806.62	8031
806.762	8081
806.904	8210
807.046	8465
807.188	8404
807.33	8343
807.472	8286
807.614	8134
807.756	8115
807.898	7978
808.04	7856
808.182	7883
808.324	7917
808.465	7906
808.607	8008
808.749	8069
808.891	8172
809.033	8267
809.174	8240
809.316	8115
809.458	8031
809.6	7902
809.741	8050
809.883	8031
810.025	8073
810.166	8062
810.308	7955
810.45	8043
810.591	7852
810.733	7715
810.875	7662
811.016	7510
811.158	7441
811.299	7556
811.441	7666
811.582	7674
811.724	7521
811.865	7552
812.007	7586
812.148	7571
812.29	7651
812.431	7628
812.573	7837
812.714	7947
812.855	8123
812.997	8210
813.138	8317
813.279	8126
813.421	8065
813.562	8039
813.703	7864
813.845	7727
813.986	7540
814.127	7255
814.268	7301
814.41	7133
814.551	7057
814.692	7149
814.833	7061
814.974	7107
815.115	7114
815.256	6928
815.397	7015
815.539	6901
815.68	6837
815.821	6760
815.962	6802
816.103	6783
816.244	6753
816.385	6639
816.526	6604
816.666	6490
816.807	6266
816.948	6384
817.089	6407
817.23	6395
817.371	6391
817.512	6369
817.653	6388
817.793	6342
817.934	6433
818.075	6441
818.216	6384
818.356	6361
818.497	6178
818.638	6087
818.778	6220
818.919	6110
819.06	6129
819.2	6315
819.341	6277
819.481	6365
819.622	6513
819.762	6673
819.903	6700
820.043	6608
820.184	6563
820.324	6642
820.465	6738
820.605	6696
820.746	6593
820.886	6490
821.026	6677
821.167	6635
821.307	6772
821.447	6719
821.588	6650
821.728	6540
821.868	6429
822.008	6277
822.149	6391
822.289	6304
822.429	6148
822.569	6011
822.709	6148
822.849	5885
822.99	5889
823.13	5901
823.27	5889
823.41	5790
823.55	5764
823.69	5733
823.83	5733
823.97	5680
824.11	5543
824.25	5490
824.389	5524
824.529	5543
824.669	5520
824.809	5619
824.949	5638
825.089	5608
825.228	5501
825.368	5402
825.508	5341
825.648	5315
825.787	5406
825.927	5383
826.067	5277
826.206	5337
826.346	5402
826.485	5433
826.625	5410
826.765	5551
826.904	5471
827.044	5269
827.183	5197
827.323	5121
827.462	5280
827.601	5128
827.741	5197
827.88	5273
828.02	5117
828.159	5250
828.298	5284
828.437	5368
828.577	5265
828.716	5433
828.855	5277
828.994	5117
829.134	5117
829.273	5204
829.412	5178
829.551	5105
829.69	5105
829.829	5227
829.968	5330
830.107	5204
830.246	5242
830.385	5162
830.524	5128
830.663	5083
830.802	4949
830.941	4889
831.08	4850
831.219	4953
831.357	4972
831.496	5117
831.635	4892
831.774	4866
831.913	4824
832.051	4672
832.19	4744
832.329	4824
832.467	4672
832.606	4645
832.744	4702
832.883	4733
833.022	4710
833.16	4778
833.299	4793
833.437	4816
833.576	4797
833.714	4831
833.852	4809
833.991	4915
834.129	4942
834.267	4927
834.406	4885
834.544	4968
834.682	4991
834.821	4976
834.959	5155
835.097	4965
835.235	5147
835.373	5102
835.511	5143
835.65	4995
835.788	4991
835.926	4908
836.064	4854
836.202	4915
836.34	5185
836.478	5242
836.615	5151
836.753	5223
836.891	5311
837.029	5220
837.167	5170
837.305	5159
837.443	5067
837.58	5045
837.718	5208
837.856	5143
837.993	5140
838.131	5216
838.269	5201
838.406	5174
838.544	5204
838.681	5037
838.819	4999
838.956	4938
839.094	4908
839.231	4923
839.369	5086
839.506	5410
839.643	5239
839.781	5052
839.918	4980
840.055	5117
840.193	5083
840.33	5090
840.467	5159
840.604	5220
840.742	5410
840.879	5037
841.016	5086
841.153	5162
841.29	5326
841.427	5353
841.564	5273
841.701	5395
841.838	5269
841.975	5170
842.112	5197
842.249	5113
842.385	5098
842.522	5307
842.659	5159
842.796	5147
842.933	5201
843.069	5124
843.206	5181
843.343	5284
843.479	5197
843.616	5204
843.752	5064
843.889	4976
844.025	5201
844.162	5014
844.298	5147
844.435	5098
844.571	5079
844.708	5132
844.844	5315
844.98	5353
845.117	5322
845.253	5113
845.389	5083
845.525	5178
845.661	5128
845.798	4972
845.934	5094
846.07	5067
846.206	5132
846.342	5303
846.478	5162
846.614	5052
846.75	4987
846.886	4938
847.022	5113
847.158	5006
847.294	5041
847.429	5037
847.565	5041
847.701	5318
847.837	4870
847.972	4793
848.108	4866
848.244	4946
848.379	4767
848.515	4729
848.65	4656
848.786	4744
848.921	4790
849.057	4862
849.192	4892
849.328	4786
849.463	4850
849.598	4782
849.734	4786
849.869	4653
850.004	4626
850.14	4637
850.275	4596
850.41	4531
850.545	4558
850.68	4569
850.815	4558
850.95	4637
851.085	4824
851.22	4698
851.355	4675
851.49	4618
851.625	4599
851.76	4577
851.895	4550
852.03	4485
852.165	4603
852.299	4729
852.434	4786
852.569	4778
852.703	4748
852.838	4843
852.973	4927
853.107	4938
853.242	4694
853.376	4649
853.511	4512
853.645	4630
853.78	4778
853.914	4637
854.048	4668
854.183	4603
854.317	4702
854.451	4755
854.585	4653
854.72	4618
854.854	4721
854.988	4618
855.122	4668
855.256	4538
855.39	4672
855.524	4812
855.658	4729
855.792	4714
855.926	4755
856.06	4717
856.194	4744
856.327	4656
856.461	4599
856.595	4561
856.729	4611
856.862	4717
856.996	4675
857.13	4714
857.263	4744
857.397	4771
857.53	4683
857.664	4714
857.797	4729
857.931	4778
858.064	4668
858.197	4786
858.331	4653
858.464	4618
858.597	4519
858.731	4637
858.864	4618
858.997	4584
859.13	4618
859.263	4664
859.396	4668
859.529	4584
859.662	4561
859.795	4512
859.928	4596
860.061	4752
860.194	4774
860.327	4618
860.46	4523
860.592	4691
860.725	4691
860.858	4714
860.99	4573
861.123	4504
861.256	4504
861.388	4592
861.521	5246
861.653	4481
861.786	4466
861.918	4402
862.05	4527
862.183	4538
862.315	4561
862.447	4675
862.58	4512
862.712	4405
862.844	4303
862.976	4466
863.108	4428
863.24	4919
863.372	4295
863.504	4432
863.636	4383
863.768	4481
863.9	4405
864.032	4341
864.164	4402
864.296	4504
864.428	4527
864.559	4519
864.691	4535
864.823	4535
864.954	4508
865.086	4474
865.217	4462
865.349	4421
865.48	4447
865.612	4466
865.743	4599
865.875	4432
866.006	4436
866.137	4432
866.269	4436
866.4	4398
866.531	4447
866.662	4386
866.793	4333
866.924	4455
867.055	4538
867.186	4478
867.317	4413
867.448	4367
867.579	4405
867.71	4356
867.841	4383
867.972	4443
868.103	4481
868.233	4417
868.364	4417
868.495	4470
868.625	4637
868.756	4736
868.886	4580
869.017	4611
869.147	4721
869.278	4714
869.408	4618
869.539	4622
869.669	4744
869.799	4634
869.929	4763
870.06	4733
870.19	4949
870.32	4919
870.45	4927
870.58	4987
870.71	5117
870.84	5102
870.97	4976
871.1	4930
871.23	5128
871.36	5079
871.489	5025
871.619	5083
871.749	5033
871.879	5151
872.008	5170
872.138	4991
872.267	4965
872.397	4835
872.526	4725
872.656	4744
872.785	4782
872.915	4938
873.044	5010
873.173	4908
873.303	4965
873.432	4904
873.561	4976
873.69	4862
873.819	4850
873.948	4915
874.077	4812
874.206	4740
874.335	4771
874.464	4930
874.593	5064
874.722	4934
874.851	5075
874.979	5124
875.108	4999
875.237	4881
875.365	4839
875.494	4885
875.623	4946
875.751	4885
875.88	4870
876.008	4957
876.136	5006
876.265	5121
876.393	5288
876.521	5197
876.65	5201
876.778	5178
876.906	5041
877.034	4965
877.162	5014
877.29	4972
877.418	5052
877.546	5029
877.674	4980
877.802	5048
877.93	5037
878.058	4923
878.185	4850
878.313	4965
878.441	4949
878.568	4805
878.696	4873
878.824	4919
878.951	4968
879.079	5075
879.206	5292
879.333	5071
879.461	4915
879.588	5003
879.715	5155
879.842	5159
879.97	4965
880.097	4816
880.224	4729
880.351	4801
880.478	4793
880.605	4790
880.732	4801
880.859	5098
880.986	4934
881.112	4949
881.239	4702
881.366	4668
881.493	4607
881.619	4603
881.746	4664
881.872	4702
881.999	4687
882.125	4675
882.252	4820
882.378	4767
882.505	4946
882.631	4790
882.757	4626
882.883	4748
883.01	4744
883.136	4611
883.262	4634
883.388	4599
883.514	4790
883.64	4824
883.766	4797
883.892	4675
884.018	4706
884.143	4904
884.269	5018
884.395	4672
884.52	4615
884.646	4607
884.772	4588
884.897	4535
885.023	4649
885.148	4752
885.274	4915
885.399	4786
885.524	4721
885.65	4702
885.775	4790
885.9	4694
886.025	4858
886.15	4797
886.275	4694
886.4	4622
886.525	4706
886.65	4694
886.775	4691
886.9	4885
887.025	5022
887.149	4847
887.274	4698
887.399	4580
887.523	4607
887.648	4592
887.773	4615
887.897	4752
888.021	4767
888.146	4683
888.27	4858
888.395	4938
888.519	4797
888.643	4824
888.767	4786
888.891	4691
889.015	4618
889.139	4630
889.263	4569
889.387	4778
889.511	4896
889.635	4774
889.759	4615
889.883	4649
890.006	4691
890.13	4805
890.254	4607
890.377	4698
890.501	4538
890.624	4497
890.748	4618
890.871	4500
890.995	4421
891.118	4386
891.241	4523
891.364	4554
891.488	4618
891.611	4485
891.734	4478
891.857	4550
891.98	4561
892.103	4607
892.226	4577
892.349	4542
892.471	4417
892.594	4565
892.717	4584
892.839	4523
892.962	4569
893.085	4622
893.207	4546
893.33	4447
893.452	4500
893.575	4668
893.697	4542
893.819	4778
893.941	4847
894.064	4790
894.186	4607
894.308	4523
894.43	4744
894.552	4786
894.674	4729
894.796	4573
894.918	4577
895.04	4542
895.161	4683
895.283	4691
895.405	4592
895.526	4626
895.648	4630
895.769	4679
895.891	4736
896.012	4733
896.134	4755
896.255	4668
896.376	4599
896.498	4626
896.619	4694
896.74	4603
896.861	4607
896.982	4896
897.103	5071
897.224	4816
897.345	4725
897.466	4683
897.587	4717
897.708	4809
897.828	4778
897.949	4675
898.07	4592
898.19	4622
898.311	4858
898.431	4679
898.552	4740
898.672	4786
898.792	4797
898.913	4748
899.033	4653
899.153	4508
899.273	4447
899.393	4443
899.513	4542
899.633	4523
899.753	4527
899.873	4474
899.993	4584
900.113	4527
900.232	4592
900.352	4512
900.472	4470
900.591	4375
900.711	4455
900.83	4485
900.95	4573
901.069	4649
901.189	4538
901.308	4337
901.427	4261
901.546	4405
901.665	4470
901.784	4474
901.904	4348
902.023	4356
902.141	4131
902.26	4147
902.379	4295
902.498	4227
902.617	4154
902.735	4344
902.854	4398
902.973	4390
903.091	4181
903.21	4272
903.328	4295
903.446	4215
903.565	4265
903.683	4322
903.801	4257
903.919	4383
904.038	4421
904.156	4287
904.274	4443
904.392	4417
904.51	4504
904.627	4478
904.745	4527
904.863	4565
904.981	4367
905.098	4280
905.216	4375
905.334	4421
905.451	4466
905.569	4493
905.686	4542
905.803	4542
905.921	4443
906.038	4512
906.155	4447
906.272	4379
906.389	4432
906.506	4314
906.623	4363
906.74	4363
906.857	4295
906.974	4375
907.091	4519
907.208	4664
907.324	4580
907.441	4523
907.557	4329
907.674	4348
907.79	4341
907.907	4390
908.023	4470
908.139	4489
908.256	4455
908.372	4447
908.488	4436
908.604	4318
908.72	4356
908.836	4344
908.952	4352
909.068	4409
909.184	4558
909.3	4481
909.415	4565
909.531	4554
909.647	4356
909.762	4371
909.878	4360
909.993	4428
910.108	4413
910.224	4390
910.339	4508
910.454	4375
910.57	4318
910.685	4299
910.8	4668
910.915	4611
911.03	4489
911.145	4341
911.259	4303
911.374	4402
911.489	4322
911.604	4280
911.718	4188
911.833	4173
911.947	4097
912.062	4029
912.176	4227
912.291	4227
912.405	4211
912.519	4459
912.633	4523
912.748	4383
912.862	4299
912.976	4219
913.09	4063
913.204	4166
913.318	4185
913.431	4337
913.545	4383
913.659	4470
913.772	4360
913.886	4295
914	4257
914.113	4394
914.226	4424
914.34	4375
914.453	4234
914.566	4409
914.68	4295
914.793	4329
914.906	4120
915.019	4040
915.132	4040
915.245	4177
915.358	4227
915.47	4223
915.583	4268
915.696	4272
915.809	4398
915.921	4432
916.034	4238
916.146	4268
916.259	4185
916.371	4386
916.483	4333
916.595	4272
916.708	4329
916.82	4287
916.932	4314
917.044	4337
917.156	4337
917.268	4234
917.38	4322
917.491	4268
917.603	4356
917.715	4386
917.826	4421
917.938	4329
918.049	4223
918.161	4402
918.272	4504
918.384	4542
918.495	4424
918.606	4299
918.717	4219
918.828	4306
918.939	4367
919.05	4284
919.161	4322
919.272	4116
919.383	4215
919.494	4447
919.604	4603
919.715	4489
919.826	4383
919.936	4390
920.047	4519
920.157	4443
920.267	4717
920.378	4538
920.488	4504
920.598	4759
920.708	4911
920.818	4725
920.928	4759
921.038	4900
921.148	4911
921.258	4637
921.368	4565
921.477	4481
921.587	4443
921.697	4386
921.806	4550
921.916	4462
922.025	4291
922.134	4261
922.244	4257
922.353	4325
922.462	4162
922.571	4158
922.68	4063
922.789	4010
922.898	4063
923.007	3949
923.116	4082
923.224	4082
923.333	4074
923.442	3983
923.55	3953
923.659	4025
923.767	4071
923.876	3975
923.984	4135
924.092	3956
924.201	4078
924.309	4082
924.417	4128
924.525	4086
924.633	4154
924.741	4843
924.849	3922
924.956	4173
925.064	3964
925.172	3857
925.279	3918
925.387	4109
925.494	4040
925.602	4192
925.709	4242
925.816	4021
925.924	4147
926.031	4166
926.138	4139
926.245	4200
926.352	4112
926.459	4249
926.566	4322
926.673	4124
926.779	4090
926.886	4101
926.993	3968
927.099	3945
927.206	3915
927.312	3956
927.419	4055
927.525	4032
927.631	4093
927.737	3941
927.843	3911
927.95	3835
928.056	3926
928.162	3994
928.267	4063
928.373	4675
928.479	4139
928.585	3884
928.69	4013
928.796	4071
928.901	3956
929.007	3869
929.112	3953
929.218	3964
929.323	3953
929.428	3899
929.533	4116
929.638	3899
929.743	3941
929.848	4051
929.953	3960
930.058	3869
930.163	3751
930.267	3804
930.372	3937
930.477	3789
930.581	4101
930.685	3934
930.79	3804
930.894	3835
930.998	3808
931.103	4051
931.207	3690
931.311	3709
931.415	3682
931.519	3557
931.623	3488
