Data from test_V78500241_2226.txt Node
Date: Fri Mar 25 17:04:28 CST 2022
User: usil
Spectrometer: V785-0024
Trigger mode: 0
Integration Time (sec): 4.000000E-1
Scans to average: 1
Nonlinearity correction enabled: false
Boxcar width: 0
Storing dark spectrum: false
XAxis mode: Wavelengths
Number of Pixels in Spectrum: 1024
>>>>>Begin Spectral Data<<<<<
801.071	8012
801.214	7963
801.356	7868
801.499	7837
801.641	7795
801.783	7833
801.926	7963
802.068	7921
802.211	7967
802.353	8062
802.496	7906
802.638	7830
802.78	7925
802.923	7898
803.065	7837
803.208	7845
803.35	8016
803.492	8065
803.635	8134
803.777	8043
803.919	8183
804.061	8476
804.204	8157
804.346	8081
804.488	7959
804.63	8081
804.773	7989
804.915	8100
805.057	8286
805.199	8138
805.341	8214
805.483	8240
805.626	8221
805.768	8176
805.91	8210
806.052	8221
806.194	8100
806.336	8256
806.478	8096
806.62	8107
806.762	8168
806.904	8267
807.046	8461
807.188	8328
807.33	8282
807.472	8309
807.614	8183
807.756	8252
807.898	7963
808.04	7849
808.182	7875
808.324	7925
808.465	7944
808.607	8054
808.749	8088
808.891	8248
809.033	8309
809.174	8244
809.316	8100
809.458	8084
809.6	8035
809.741	8043
809.883	8005
810.025	8103
810.166	8062
810.308	7978
810.45	7925
810.591	7852
810.733	7715
810.875	7624
811.016	7499
811.158	7438
811.299	7544
811.441	7685
811.582	7632
811.724	7510
811.865	7556
812.007	7575
812.148	7559
812.29	7597
812.431	7712
812.573	7898
812.714	7997
812.855	8077
812.997	8172
813.138	8267
813.279	8096
813.421	8024
813.562	7955
813.703	7715
813.845	7746
813.986	7400
814.127	7247
814.268	7194
814.41	7129
814.551	7160
814.692	7206
814.833	7076
814.974	7053
815.115	7122
815.256	6939
815.397	6951
815.539	6947
815.68	6798
815.821	6734
815.962	6916
816.103	6814
816.244	6757
816.385	6559
816.526	6627
816.666	6471
816.807	6285
816.948	6429
817.089	6479
817.23	6452
817.371	6384
817.512	6376
817.653	6460
817.793	6391
817.934	6410
818.075	6467
818.216	6407
818.356	6395
818.497	6304
818.638	6140
818.778	6106
818.919	6148
819.06	6148
819.2	6323
819.341	6319
819.481	6357
819.622	6566
819.762	6738
819.903	6715
820.043	6642
820.184	6551
820.324	6582
820.465	6650
820.605	6658
820.746	6608
820.886	6574
821.026	6642
821.167	6726
821.307	6764
821.447	6806
821.588	6776
821.728	6612
821.868	6521
822.008	6304
822.149	6395
822.289	6350
822.429	6205
822.569	6152
822.709	6152
822.849	5923
822.99	5965
823.13	5958
823.27	5916
823.41	5847
823.55	5775
823.69	5775
823.83	5851
823.97	5699
824.11	5642
824.25	5566
824.389	5562
824.529	5573
824.669	5524
824.809	5619
824.949	5672
825.089	5604
825.228	5604
825.368	5402
825.508	5330
825.648	5398
825.787	5372
825.927	5417
826.067	5357
826.206	5368
826.346	5433
826.485	5440
826.625	5421
826.765	5532
826.904	5497
827.044	5303
827.183	5322
827.323	5235
827.462	5299
827.601	5280
827.741	5178
827.88	5235
828.02	5155
828.159	5250
828.298	5326
828.437	5444
828.577	5334
828.716	5516
828.855	5349
828.994	5216
829.134	5201
829.273	5227
829.412	5185
829.551	5181
829.69	5246
829.829	5261
829.968	5414
830.107	5330
830.246	5311
830.385	5201
830.524	5162
830.663	5094
830.802	5045
830.941	4942
831.08	4938
831.219	4980
831.357	5041
831.496	5223
831.635	4904
831.774	4915
831.913	4873
832.051	4767
832.19	4767
832.329	4911
832.467	4736
832.606	4683
832.744	4778
832.883	4790
833.022	4759
833.16	4771
833.299	4870
833.437	4866
833.576	4828
833.714	4881
833.852	4934
833.991	4957
834.129	4976
834.267	4984
834.406	4961
834.544	4995
834.682	4995
834.821	4976
834.959	5185
835.097	5041
835.235	5151
835.373	5090
835.511	5155
835.65	5090
835.788	5071
835.926	4961
836.064	4904
836.202	4987
836.34	5220
836.478	5307
836.615	5147
836.753	5223
836.891	5330
837.029	5277
837.167	5197
837.305	5235
837.443	5162
837.58	5083
837.718	5250
837.856	5189
837.993	5193
838.131	5292
838.269	5220
838.406	5269
838.544	5204
838.681	5079
838.819	5056
838.956	4904
839.094	4927
839.231	5014
839.369	5121
839.506	5467
839.643	5318
839.781	5094
839.918	5022
840.055	5121
840.193	5094
840.33	5124
840.467	5174
840.604	5242
840.742	5459
840.879	5090
841.016	5140
841.153	5242
841.29	5387
841.427	5387
841.564	5326
841.701	5395
841.838	5292
841.975	5292
842.112	5280
842.249	5143
842.385	5102
842.522	5318
842.659	5189
842.796	5197
842.933	5212
843.069	5159
843.206	5155
843.343	5326
843.479	5231
843.616	5307
843.752	5048
843.889	5060
844.025	5288
844.162	5037
844.298	5242
844.435	5048
844.571	5060
844.708	5220
844.844	5357
844.98	5387
845.117	5337
845.253	5185
845.389	5128
845.525	5201
845.661	5216
845.798	5064
845.934	5121
846.07	5086
846.206	5189
846.342	5299
846.478	5201
846.614	5045
846.75	5014
846.886	4911
847.022	5181
847.158	5041
847.294	5140
847.429	5174
847.565	5090
847.701	5357
847.837	4908
847.972	4839
848.108	4995
848.244	4980
848.379	4820
848.515	4793
848.65	4782
848.786	4782
848.921	4812
849.057	4896
849.192	4946
849.328	4839
849.463	4854
849.598	4839
849.734	4767
849.869	4694
850.004	4687
850.14	4683
850.275	4660
850.41	4535
850.545	4622
850.68	4634
850.815	4653
850.95	4683
851.085	4877
851.22	4774
851.355	4706
851.49	4660
851.625	4641
851.76	4729
851.895	4588
852.03	4611
852.165	4664
852.299	4748
852.434	4828
852.569	4786
852.703	4782
852.838	4873
852.973	4919
853.107	4942
853.242	4733
853.376	4706
853.511	4596
853.645	4653
853.78	4850
853.914	4752
854.048	4702
854.183	4698
854.317	4664
854.451	4870
854.585	4733
854.72	4687
854.854	4793
854.988	4615
855.122	4683
855.256	4542
855.39	4702
855.524	4809
855.658	4763
855.792	4729
855.926	4763
856.06	4797
856.194	4850
856.327	4710
856.461	4653
856.595	4698
856.729	4634
856.862	4816
856.996	4717
857.13	4801
857.263	4778
857.397	4843
857.53	4653
857.664	4736
857.797	4774
857.931	4824
858.064	4694
858.197	4717
858.331	4637
858.464	4679
858.597	4531
858.731	4641
858.864	4664
858.997	4611
859.13	4736
859.263	4675
859.396	4717
859.529	4599
859.662	4611
859.795	4558
859.928	4637
860.061	4740
860.194	4816
860.327	4675
860.46	4580
860.592	4736
860.725	4763
860.858	4748
860.99	4675
861.123	4519
861.256	4561
861.388	4660
861.521	5337
861.653	4474
861.786	4455
861.918	4462
862.05	4558
862.183	4561
862.315	4607
862.447	4683
862.58	4603
862.712	4455
862.844	4318
862.976	4436
863.108	4470
863.24	4870
863.372	4303
863.504	4459
863.636	4459
863.768	4500
863.9	4424
864.032	4413
864.164	4432
864.296	4470
864.428	4565
864.559	4599
864.691	4569
864.823	4573
864.954	4550
865.086	4538
865.217	4478
865.349	4421
865.48	4500
865.612	4535
865.743	4664
865.875	4485
866.006	4481
866.137	4519
866.269	4455
866.4	4462
866.531	4497
866.662	4409
866.793	4462
866.924	4481
867.055	4527
867.186	4500
867.317	4409
867.448	4417
867.579	4436
867.71	4405
867.841	4398
867.972	4504
868.103	4500
868.233	4466
868.364	4436
868.495	4489
868.625	4668
868.756	4759
868.886	4561
869.017	4649
869.147	4805
869.278	4782
869.408	4653
869.539	4668
869.669	4778
869.799	4729
869.929	4767
870.06	4778
870.19	4984
870.32	4923
870.45	4930
870.58	5083
870.71	5136
870.84	5109
870.97	4942
871.1	4911
871.23	5181
871.36	5189
871.489	5033
871.619	5109
871.749	5109
871.879	5140
872.008	5140
872.138	5056
872.267	5018
872.397	4881
872.526	4809
872.656	4740
872.785	4839
872.915	4946
873.044	5060
873.173	4953
873.303	4984
873.432	4968
873.561	4995
873.69	4911
873.819	4908
873.948	5006
874.077	4835
874.206	4816
874.335	4824
874.464	4976
874.593	5071
874.722	4961
874.851	5113
874.979	5075
875.108	5067
875.237	4911
875.365	4850
875.494	4942
875.623	4972
875.751	4866
875.88	4934
876.008	5045
876.136	5025
876.265	5273
876.393	5372
876.521	5288
876.65	5231
876.778	5132
876.906	5121
877.034	5094
877.162	5025
877.29	5052
877.418	5086
877.546	5045
877.674	5014
877.802	5094
877.93	5056
878.058	4930
878.185	4877
878.313	5048
878.441	4930
878.568	4820
878.696	4892
878.824	4980
878.951	5048
879.079	5132
879.206	5318
879.333	5124
879.461	5006
879.588	4987
879.715	5090
879.842	5208
879.97	5041
880.097	4778
880.224	4736
880.351	4805
880.478	4911
880.605	4854
880.732	4835
880.859	5094
880.986	4877
881.112	4923
881.239	4786
881.366	4668
881.493	4630
881.619	4599
881.746	4607
881.872	4672
881.999	4683
882.125	4664
882.252	4801
882.378	4839
882.505	4953
882.631	4812
882.757	4694
882.883	4763
883.01	4729
883.136	4683
883.262	4618
883.388	4694
883.514	4809
883.64	4904
883.766	4816
883.892	4702
884.018	4721
884.143	4900
884.269	5037
884.395	4721
884.52	4694
884.646	4660
884.772	4626
884.897	4580
885.023	4683
885.148	4771
885.274	4881
885.399	4831
885.524	4729
885.65	4675
885.775	4740
885.9	4714
886.025	4896
886.15	4774
886.275	4755
886.4	4725
886.525	4675
886.65	4725
886.775	4687
886.9	4854
887.025	5048
887.149	4778
887.274	4626
887.399	4588
887.523	4569
887.648	4607
887.773	4622
887.897	4782
888.021	4774
888.146	4733
888.27	4877
888.395	4896
888.519	4801
888.643	4820
888.767	4847
888.891	4710
889.015	4645
889.139	4675
889.263	4603
889.387	4771
889.511	4873
889.635	4782
889.759	4660
889.883	4660
890.006	4767
890.13	4843
890.254	4645
890.377	4630
890.501	4561
890.624	4546
890.748	4649
890.871	4558
890.995	4481
891.118	4360
891.241	4542
891.364	4603
891.488	4618
891.611	4500
891.734	4516
891.857	4603
891.98	4584
892.103	4637
892.226	4641
892.349	4550
892.471	4409
892.594	4573
892.717	4630
892.839	4592
892.962	4607
893.085	4668
893.207	4618
893.33	4440
893.452	4531
893.575	4664
893.697	4542
893.819	4820
893.941	4835
894.064	4771
894.186	4596
894.308	4580
894.43	4744
894.552	4763
894.674	4767
894.796	4550
894.918	4603
895.04	4645
895.161	4717
895.283	4664
895.405	4592
895.526	4656
895.648	4706
895.769	4714
895.891	4752
896.012	4755
896.134	4767
896.255	4672
896.376	4622
896.498	4634
896.619	4645
896.74	4641
896.861	4664
896.982	4942
897.103	5064
897.224	4866
897.345	4755
897.466	4698
897.587	4729
897.708	4850
897.828	4812
897.949	4748
898.07	4588
898.19	4622
898.311	4801
898.431	4672
898.552	4752
898.672	4763
898.792	4824
898.913	4805
899.033	4615
899.153	4478
899.273	4424
899.393	4504
899.513	4542
899.633	4546
899.753	4523
899.873	4516
899.993	4596
900.113	4546
900.232	4588
900.352	4531
900.472	4462
900.591	4447
900.711	4459
900.83	4466
900.95	4634
901.069	4729
901.189	4558
901.308	4363
901.427	4318
901.546	4379
901.665	4451
901.784	4535
901.904	4337
902.023	4337
902.141	4215
902.26	4219
902.379	4276
902.498	4253
902.617	4234
902.735	4398
902.854	4375
902.973	4375
903.091	4181
903.21	4211
903.328	4341
903.446	4303
903.565	4249
903.683	4363
903.801	4314
903.919	4417
904.038	4428
904.156	4318
904.274	4424
904.392	4394
904.51	4455
904.627	4455
904.745	4607
904.863	4649
904.981	4394
905.098	4303
905.216	4390
905.334	4413
905.451	4478
905.569	4493
905.686	4535
905.803	4523
905.921	4398
906.038	4546
906.155	4504
906.272	4367
906.389	4436
906.506	4367
906.623	4375
906.74	4360
906.857	4356
906.974	4318
907.091	4565
907.208	4698
907.324	4634
907.441	4508
907.557	4337
907.674	4322
907.79	4341
907.907	4352
908.023	4497
908.139	4485
908.256	4417
908.372	4478
908.488	4474
908.604	4409
908.72	4314
908.836	4409
908.952	4459
909.068	4478
909.184	4599
909.3	4531
909.415	4588
909.531	4550
909.647	4394
909.762	4348
909.878	4352
909.993	4455
910.108	4402
910.224	4451
910.339	4474
910.454	4447
910.57	4363
910.685	4352
910.8	4626
910.915	4637
911.03	4516
911.145	4348
911.259	4363
911.374	4363
911.489	4337
911.604	4280
911.718	4169
911.833	4196
911.947	4124
912.062	4055
912.176	4204
912.291	4257
912.405	4268
912.519	4436
912.633	4481
912.748	4341
912.862	4306
912.976	4246
913.09	4131
913.204	4207
913.318	4280
913.431	4398
913.545	4371
913.659	4436
913.772	4356
913.886	4265
914	4154
914.113	4402
914.226	4443
914.34	4402
914.453	4265
914.566	4424
914.68	4299
914.793	4333
914.906	4196
915.019	4181
915.132	4086
915.245	4196
915.358	4238
915.47	4253
915.583	4306
915.696	4291
915.809	4409
915.921	4413
916.034	4257
916.146	4242
916.259	4215
916.371	4394
916.483	4363
916.595	4242
916.708	4303
916.82	4352
916.932	4322
917.044	4390
917.156	4371
917.268	4299
917.38	4265
917.491	4287
917.603	4356
917.715	4402
917.826	4383
917.938	4329
918.049	4230
918.161	4325
918.272	4535
918.384	4565
918.495	4455
918.606	4306
918.717	4200
918.828	4352
918.939	4356
919.05	4295
919.161	4337
919.272	4143
919.383	4207
919.494	4489
919.604	4653
919.715	4440
919.826	4379
919.936	4432
920.047	4542
920.157	4489
920.267	4702
920.378	4554
920.488	4481
920.598	4672
920.708	4900
920.818	4759
920.928	4767
921.038	4953
921.148	4946
921.258	4622
921.368	4569
921.477	4504
921.587	4481
921.697	4432
921.806	4500
921.916	4466
922.025	4249
922.134	4265
922.244	4219
922.353	4291
922.462	4192
922.571	4139
922.68	4029
922.789	3972
922.898	3979
923.007	3983
923.116	4093
923.224	4055
923.333	4097
923.442	3987
923.55	3945
923.659	4017
923.767	4090
923.876	4044
923.984	4128
924.092	4013
924.201	4082
924.309	4105
924.417	4162
924.525	4090
924.633	4120
924.741	5086
924.849	3922
924.956	4128
925.064	3983
925.172	3896
925.279	3922
925.387	4032
925.494	4078
925.602	4207
925.709	4185
925.816	4074
925.924	4116
926.031	4253
926.138	4173
926.245	4177
926.352	4048
926.459	4246
926.566	4268
926.673	4162
926.779	4109
926.886	4120
926.993	3941
927.099	3956
927.206	3994
927.312	3926
927.419	4032
927.525	4032
927.631	4147
927.737	3960
927.843	3975
927.95	3861
928.056	3979
928.162	4010
928.267	4051
928.373	4656
928.479	4116
928.585	3888
928.69	4036
928.796	4082
928.901	3953
929.007	3865
929.112	4002
929.218	3979
929.323	3975
929.428	3949
929.533	4086
929.638	3884
929.743	3964
929.848	4071
929.953	3994
930.058	3972
930.163	3842
930.267	3804
930.372	3918
930.477	3854
930.581	4154
930.685	3945
930.79	3800
930.894	3873
930.998	3880
931.103	4021
931.207	3701
931.311	3694
931.415	3705
931.519	3549
931.623	3523
