Data from test_V78500241_1619.txt Node
Date: Fri Mar 25 17:00:15 CST 2022
User: usil
Spectrometer: V785-0024
Trigger mode: 0
Integration Time (sec): 4.000000E-1
Scans to average: 1
Nonlinearity correction enabled: false
Boxcar width: 0
Storing dark spectrum: false
XAxis mode: Wavelengths
Number of Pixels in Spectrum: 1024
>>>>>Begin Spectral Data<<<<<
801.071	8073
801.214	7978
801.356	7875
801.499	7852
801.641	7811
801.783	7833
801.926	7974
802.068	7955
802.211	7978
802.353	8005
802.496	7833
802.638	7818
802.78	7860
802.923	7928
803.065	7902
803.208	7917
803.35	7989
803.492	8031
803.635	8149
803.777	7982
803.919	8077
804.061	8526
804.204	8164
804.346	8077
804.488	7917
804.63	8012
804.773	7967
804.915	8073
805.057	8263
805.199	8161
805.341	8218
805.483	8161
805.626	8161
805.768	8096
805.91	8157
806.052	8214
806.194	8134
806.336	8237
806.478	8088
806.62	8024
806.762	8111
806.904	8252
807.046	8461
807.188	8324
807.33	8275
807.472	8282
807.614	8176
807.756	8195
807.898	7944
808.04	7811
808.182	7860
808.324	7818
808.465	7849
808.607	8107
808.749	8119
808.891	8229
809.033	8237
809.174	8145
809.316	8027
809.458	8027
809.6	7944
809.741	8016
809.883	8031
810.025	8050
810.166	8069
810.308	8024
810.45	7982
810.591	7868
810.733	7700
810.875	7620
811.016	7563
811.158	7499
811.299	7582
811.441	7788
811.582	7677
811.724	7533
811.865	7487
812.007	7533
812.148	7540
812.29	7559
812.431	7696
812.573	7871
812.714	7974
812.855	8088
812.997	8164
813.138	8290
813.279	8161
813.421	8024
813.562	7963
813.703	7746
813.845	7670
813.986	7449
814.127	7305
814.268	7171
814.41	7179
814.551	7137
814.692	7175
814.833	7084
814.974	7069
815.115	7126
815.256	6996
815.397	6905
815.539	6954
815.68	6783
815.821	6719
815.962	6802
816.103	6802
816.244	6673
816.385	6604
816.526	6566
816.666	6475
816.807	6300
816.948	6426
817.089	6445
817.23	6426
817.371	6315
817.512	6361
817.653	6361
817.793	6311
817.934	6399
818.075	6452
818.216	6418
818.356	6426
818.497	6224
818.638	6068
818.778	6110
818.919	6125
819.06	6178
819.2	6304
819.341	6292
819.481	6350
819.622	6544
819.762	6730
819.903	6642
820.043	6540
820.184	6589
820.324	6593
820.465	6677
820.605	6642
820.746	6582
820.886	6532
821.026	6631
821.167	6692
821.307	6757
821.447	6749
821.588	6684
821.728	6521
821.868	6502
822.008	6338
822.149	6323
822.289	6342
822.429	6125
822.569	6038
822.709	6106
822.849	5927
822.99	5908
823.13	5878
823.27	5882
823.41	5771
823.55	5771
823.69	5775
823.83	5775
823.97	5665
824.11	5573
824.25	5501
824.389	5539
824.529	5551
824.669	5512
824.809	5611
824.949	5649
825.089	5649
825.228	5539
825.368	5410
825.508	5284
825.648	5303
825.787	5353
825.927	5398
826.067	5360
826.206	5307
826.346	5417
826.485	5406
826.625	5417
826.765	5535
826.904	5436
827.044	5239
827.183	5201
827.323	5166
827.462	5296
827.601	5227
827.741	5208
827.88	5250
828.02	5159
828.159	5258
828.298	5326
828.437	5372
828.577	5273
828.716	5486
828.855	5364
828.994	5193
829.134	5159
829.273	5254
829.412	5143
829.551	5166
829.69	5216
829.829	5239
829.968	5398
830.107	5280
830.246	5345
830.385	5189
830.524	5162
830.663	5105
830.802	4999
830.941	4946
831.08	4923
831.219	5006
831.357	5033
831.496	5216
831.635	4953
831.774	4854
831.913	4809
832.051	4782
832.19	4755
832.329	4870
832.467	4702
832.606	4675
832.744	4748
832.883	4771
833.022	4801
833.16	4801
833.299	4824
833.437	4843
833.576	4881
833.714	4854
833.852	4915
833.991	4938
834.129	4972
834.267	4946
834.406	4961
834.544	5022
834.682	5014
834.821	5010
834.959	5159
835.097	5025
835.235	5201
835.373	5159
835.511	5121
835.65	5064
835.788	5067
835.926	4938
836.064	4923
836.202	4972
836.34	5235
836.478	5265
836.615	5143
836.753	5174
836.891	5299
837.029	5258
837.167	5201
837.305	5189
837.443	5151
837.58	5090
837.718	5273
837.856	5170
837.993	5159
838.131	5231
838.269	5216
838.406	5227
838.544	5185
838.681	5037
838.819	5010
838.956	4873
839.094	4873
839.231	4991
839.369	5128
839.506	5436
839.643	5254
839.781	5086
839.918	4999
840.055	5136
840.193	5151
840.33	5128
840.467	5121
840.604	5174
840.742	5436
840.879	5086
841.016	5124
841.153	5155
841.29	5429
841.427	5315
841.564	5311
841.701	5372
841.838	5368
841.975	5235
842.112	5265
842.249	5201
842.385	5113
842.522	5261
842.659	5170
842.796	5086
842.933	5223
843.069	5178
843.206	5212
843.343	5330
843.479	5277
843.616	5246
843.752	5064
843.889	4995
844.025	5250
844.162	5033
844.298	5212
844.435	5094
844.571	5109
844.708	5201
844.844	5303
844.98	5353
845.117	5357
845.253	5109
845.389	5094
845.525	5185
845.661	5185
845.798	5022
845.934	5208
846.07	5056
846.206	5223
846.342	5299
846.478	5189
846.614	5067
846.75	4991
846.886	4949
847.022	5162
847.158	5037
847.294	5056
847.429	5136
847.565	5102
847.701	5376
847.837	4877
847.972	4873
848.108	4999
848.244	4965
848.379	4812
848.515	4725
848.65	4733
848.786	4805
848.921	4797
849.057	4889
849.192	4911
849.328	4778
849.463	4866
849.598	4831
849.734	4771
849.869	4721
850.004	4675
850.14	4683
850.275	4637
850.41	4603
850.545	4569
850.68	4653
850.815	4679
850.95	4641
851.085	4885
851.22	4771
851.355	4706
851.49	4641
851.625	4675
851.76	4660
851.895	4580
852.03	4561
852.165	4664
852.299	4748
852.434	4797
852.569	4774
852.703	4831
852.838	4889
852.973	4919
853.107	4934
853.242	4778
853.376	4679
853.511	4626
853.645	4653
853.78	4831
853.914	4729
854.048	4694
854.183	4691
854.317	4767
854.451	4824
854.585	4675
854.72	4618
854.854	4759
854.988	4611
855.122	4653
855.256	4558
855.39	4717
855.524	4763
855.658	4778
855.792	4717
855.926	4752
856.06	4793
856.194	4786
856.327	4683
856.461	4599
856.595	4664
856.729	4672
856.862	4820
856.996	4755
857.13	4748
857.263	4767
857.397	4786
857.53	4694
857.664	4801
857.797	4805
857.931	4782
858.064	4702
858.197	4752
858.331	4630
858.464	4622
858.597	4550
858.731	4630
858.864	4668
858.997	4653
859.13	4656
859.263	4664
859.396	4736
859.529	4599
859.662	4607
859.795	4512
859.928	4618
860.061	4816
860.194	4778
860.327	4637
860.46	4573
860.592	4736
860.725	4759
860.858	4714
860.99	4645
861.123	4561
861.256	4565
861.388	4607
861.521	5189
861.653	4535
861.786	4481
861.918	4478
862.05	4531
862.183	4573
862.315	4611
862.447	4645
862.58	4584
862.712	4466
862.844	4329
862.976	4508
863.108	4489
863.24	4801
863.372	4344
863.504	4451
863.636	4405
863.768	4485
863.9	4474
864.032	4394
864.164	4432
864.296	4523
864.428	4573
864.559	4573
864.691	4497
864.823	4569
864.954	4542
865.086	4474
865.217	4512
865.349	4447
865.48	4478
865.612	4519
865.743	4618
865.875	4516
866.006	4489
866.137	4478
866.269	4417
866.4	4424
866.531	4455
866.662	4360
866.793	4447
866.924	4455
867.055	4489
867.186	4440
867.317	4451
867.448	4402
867.579	4379
867.71	4451
867.841	4398
867.972	4455
868.103	4504
868.233	4440
868.364	4485
868.495	4493
868.625	4672
868.756	4752
868.886	4577
869.017	4645
869.147	4755
869.278	4778
869.408	4687
869.539	4649
869.669	4725
869.799	4637
869.929	4801
870.06	4714
870.19	4957
870.32	4900
870.45	4938
870.58	4972
870.71	5094
870.84	5109
870.97	4934
871.1	4885
871.23	5136
871.36	5128
871.489	5067
871.619	5128
871.749	5143
871.879	5159
872.008	5189
872.138	5113
872.267	4999
872.397	4824
872.526	4793
872.656	4721
872.785	4793
872.915	4942
873.044	5064
873.173	4923
873.303	4965
873.432	4972
873.561	4927
873.69	4877
873.819	4881
873.948	4938
874.077	4843
874.206	4828
874.335	4816
874.464	4896
874.593	5090
874.722	4980
874.851	5056
874.979	5075
875.108	5037
875.237	4919
875.365	4934
875.494	4873
875.623	4972
875.751	4824
875.88	4911
876.008	4999
876.136	5037
876.265	5170
876.393	5349
876.521	5280
876.65	5208
876.778	5170
876.906	5071
877.034	5090
877.162	5090
877.29	4995
877.418	5083
877.546	5090
877.674	5022
877.802	5037
877.93	5037
878.058	4934
878.185	4923
878.313	4987
878.441	4957
878.568	4801
878.696	4862
878.824	5003
878.951	5018
879.079	5181
879.206	5326
879.333	5121
879.461	4965
879.588	4999
879.715	5098
879.842	5197
879.97	5022
880.097	4782
880.224	4839
880.351	4812
880.478	4835
880.605	4790
880.732	4824
880.859	5124
880.986	4923
881.112	4873
881.239	4793
881.366	4626
881.493	4653
881.619	4603
881.746	4649
881.872	4683
881.999	4626
882.125	4679
882.252	4805
882.378	4839
882.505	4953
882.631	4812
882.757	4668
882.883	4740
883.01	4710
883.136	4717
883.262	4630
883.388	4656
883.514	4873
883.64	4870
883.766	4771
883.892	4660
884.018	4752
884.143	4923
884.269	5010
884.395	4706
884.52	4664
884.646	4683
884.772	4615
884.897	4538
885.023	4653
885.148	4816
885.274	4881
885.399	4816
885.524	4721
885.65	4702
885.775	4805
885.9	4664
886.025	4892
886.15	4793
886.275	4725
886.4	4653
886.525	4694
886.65	4736
886.775	4675
886.9	4908
887.025	5025
887.149	4809
887.274	4683
887.399	4573
887.523	4577
887.648	4596
887.773	4588
887.897	4793
888.021	4774
888.146	4717
888.27	4847
888.395	4961
888.519	4797
888.643	4831
888.767	4831
888.891	4653
889.015	4618
889.139	4668
889.263	4603
889.387	4729
889.511	4843
889.635	4843
889.759	4698
889.883	4653
890.006	4729
890.13	4824
890.254	4634
890.377	4691
890.501	4584
890.624	4508
890.748	4645
890.871	4538
890.995	4424
891.118	4421
891.241	4546
891.364	4584
891.488	4637
891.611	4497
891.734	4538
891.857	4603
891.98	4569
892.103	4637
892.226	4630
892.349	4558
892.471	4447
892.594	4546
892.717	4634
892.839	4584
892.962	4630
893.085	4649
893.207	4592
893.33	4538
893.452	4538
893.575	4698
893.697	4577
893.819	4801
893.941	4835
894.064	4748
894.186	4622
894.308	4573
894.43	4786
894.552	4866
894.674	4729
894.796	4599
894.918	4577
895.04	4577
895.161	4755
895.283	4660
895.405	4599
895.526	4675
895.648	4679
895.769	4618
895.891	4748
896.012	4748
896.134	4710
896.255	4668
896.376	4626
896.498	4615
896.619	4653
896.74	4656
896.861	4618
896.982	4934
897.103	5086
897.224	4831
897.345	4755
897.466	4736
897.587	4706
897.708	4877
897.828	4809
897.949	4653
898.07	4580
898.19	4656
898.311	4862
898.431	4603
898.552	4748
898.672	4854
898.792	4816
898.913	4763
899.033	4607
899.153	4527
899.273	4413
899.393	4546
899.513	4523
899.633	4546
899.753	4550
899.873	4512
899.993	4603
900.113	4577
900.232	4634
900.352	4542
900.472	4512
900.591	4436
900.711	4451
900.83	4428
900.95	4630
901.069	4714
901.189	4565
901.308	4363
901.427	4322
901.546	4394
901.665	4474
901.784	4519
901.904	4405
902.023	4360
902.141	4188
902.26	4211
902.379	4322
902.498	4257
902.617	4246
902.735	4348
902.854	4383
902.973	4386
903.091	4242
903.21	4223
903.328	4295
903.446	4246
903.565	4215
903.683	4409
903.801	4261
903.919	4409
904.038	4470
904.156	4291
904.274	4402
904.392	4443
904.51	4432
904.627	4485
904.745	4580
904.863	4645
904.981	4421
905.098	4325
905.216	4398
905.334	4428
905.451	4462
905.569	4516
905.686	4565
905.803	4558
905.921	4459
906.038	4554
906.155	4531
906.272	4424
906.389	4497
906.506	4390
906.623	4386
906.74	4413
906.857	4322
906.974	4409
907.091	4596
907.208	4717
907.324	4641
907.441	4531
907.557	4356
907.674	4398
907.79	4371
907.907	4443
908.023	4519
908.139	4535
908.256	4470
908.372	4512
908.488	4527
908.604	4386
908.72	4363
908.836	4428
908.952	4352
909.068	4436
909.184	4656
909.3	4527
909.415	4634
909.531	4592
909.647	4402
909.762	4417
909.878	4348
909.993	4455
910.108	4485
910.224	4462
910.339	4519
910.454	4421
910.57	4409
910.685	4413
910.8	4725
910.915	4626
911.03	4504
911.145	4405
911.259	4413
911.374	4405
911.489	4360
911.604	4367
911.718	4211
911.833	4238
911.947	4116
912.062	4029
912.176	4268
912.291	4287
912.405	4325
912.519	4516
912.633	4558
912.748	4394
912.862	4379
912.976	4211
913.09	4131
913.204	4192
913.318	4306
913.431	4424
913.545	4360
913.659	4485
913.772	4428
913.886	4246
914	4238
914.113	4443
914.226	4481
914.34	4436
914.453	4238
914.566	4500
914.68	4356
914.793	4398
914.906	4215
915.019	4147
915.132	4082
915.245	4207
915.358	4284
915.47	4249
915.583	4306
915.696	4348
915.809	4447
915.921	4478
916.034	4322
916.146	4291
916.259	4314
916.371	4413
916.483	4386
916.595	4291
916.708	4409
916.82	4356
916.932	4360
917.044	4402
917.156	4356
917.268	4299
917.38	4314
917.491	4306
917.603	4356
917.715	4421
917.826	4474
917.938	4424
918.049	4265
918.161	4440
918.272	4588
918.384	4565
918.495	4432
918.606	4333
918.717	4272
918.828	4344
918.939	4390
919.05	4280
919.161	4341
919.272	4192
919.383	4299
919.494	4527
919.604	4672
919.715	4481
919.826	4379
919.936	4428
920.047	4573
920.157	4550
920.267	4767
920.378	4584
920.488	4550
920.598	4748
920.708	4915
920.818	4816
920.928	4774
921.038	5006
921.148	4923
921.258	4649
921.368	4584
921.477	4527
921.587	4527
921.697	4451
921.806	4561
921.916	4451
922.025	4303
922.134	4303
922.244	4223
922.353	4398
922.462	4238
922.571	4192
922.68	3987
922.789	4010
922.898	4109
923.007	4040
923.116	4188
923.224	4097
923.333	4131
923.442	4078
923.55	4029
923.659	4097
923.767	4124
923.876	4078
923.984	4139
924.092	4032
924.201	4124
924.309	4139
924.417	4116
924.525	4109
924.633	4177
924.741	4946
924.849	3956
924.956	4192
925.064	3987
925.172	3979
925.279	3998
925.387	4032
925.494	4120
925.602	4181
925.709	4162
925.816	4063
925.924	4143
926.031	4249
926.138	4185
926.245	4215
926.352	4078
926.459	4284
926.566	4390
926.673	4150
926.779	4109
926.886	4086
926.993	4021
927.099	3949
927.206	3949
927.312	4013
927.419	4105
927.525	4044
927.631	4101
927.737	4059
927.843	3956
927.95	3899
928.056	3987
928.162	4010
928.267	4078
928.373	4615
928.479	4101
928.585	3884
928.69	4067
928.796	4116
928.901	3998
929.007	3854
929.112	4032
929.218	3979
929.323	3983
929.428	4006
929.533	4105
929.638	3888
929.743	4002
929.848	4078
929.953	3991
930.058	3987
930.163	3812
930.267	3850
930.372	4010
930.477	3846
930.581	4154
930.685	3937
930.79	3873
930.894	3888
930.998	3892
931.103	4044
931.207	3762
931.311	3728
931.415	3701
931.519	3534
931.623	3549
