Data from test_V78500241_739.txt Node
Date: Fri Mar 25 16:54:08 CST 2022
User: usil
Spectrometer: V785-0024
Trigger mode: 0
Integration Time (sec): 4.000000E-1
Scans to average: 1
Nonlinearity correction enabled: false
Boxcar width: 0
Storing dark spectrum: false
XAxis mode: Wavelengths
Number of Pixels in Spectrum: 1024
>>>>>Begin Spectral Data<<<<<
801.071	7989
801.214	8020
801.356	7849
801.499	7898
801.641	7753
801.783	7776
801.926	7986
802.068	7940
802.211	8005
802.353	7928
802.496	7868
802.638	7856
802.78	7913
802.923	7879
803.065	7852
803.208	7879
803.35	8008
803.492	8084
803.635	8153
803.777	7997
803.919	8012
804.061	8400
804.204	8069
804.346	8062
804.488	7986
804.63	8107
804.773	8046
804.915	8130
805.057	8343
805.199	8115
805.341	8100
805.483	8275
805.626	8244
805.768	8046
805.91	8176
806.052	8195
806.194	8088
806.336	8305
806.478	8088
806.62	8046
806.762	8119
806.904	8301
807.046	8454
807.188	8298
807.33	8229
807.472	8267
807.614	8130
807.756	8092
807.898	7970
808.04	7852
808.182	7864
808.324	7883
808.465	7909
808.607	7993
808.749	8134
808.891	8172
809.033	8240
809.174	8176
809.316	8039
809.458	7997
809.6	7932
809.741	7986
809.883	8005
810.025	8077
810.166	8054
810.308	8031
810.45	7974
810.591	7845
810.733	7723
810.875	7693
811.016	7559
811.158	7457
811.299	7548
811.441	7708
811.582	7670
811.724	7537
811.865	7457
812.007	7533
812.148	7540
812.29	7609
812.431	7704
812.573	7841
812.714	7932
812.855	8058
812.997	8153
813.138	8225
813.279	8229
813.421	8149
813.562	8065
813.703	7887
813.845	7776
813.986	7483
814.127	7301
814.268	7274
814.41	7164
814.551	7091
814.692	7133
814.833	7031
814.974	7088
815.115	7076
815.256	6951
815.397	6951
815.539	6977
815.68	6814
815.821	6814
815.962	6878
816.103	6798
816.244	6665
816.385	6547
816.526	6646
816.666	6525
816.807	6262
816.948	6376
817.089	6456
817.23	6433
817.371	6323
817.512	6395
817.653	6372
817.793	6338
817.934	6327
818.075	6471
818.216	6422
818.356	6388
818.497	6197
818.638	6114
818.778	6102
818.919	6114
819.06	6163
819.2	6319
819.341	6254
819.481	6414
819.622	6582
819.762	6711
819.903	6665
820.043	6547
820.184	6566
820.324	6555
820.465	6662
820.605	6673
820.746	6665
820.886	6437
821.026	6578
821.167	6783
821.307	6745
821.447	6741
821.588	6616
821.728	6597
821.868	6502
822.008	6308
822.149	6281
822.289	6338
822.429	6148
822.569	6095
822.709	6060
822.849	5897
822.99	5920
823.13	5927
823.27	5882
823.41	5786
823.55	5718
823.69	5771
823.83	5798
823.97	5642
824.11	5509
824.25	5471
824.389	5581
824.529	5589
824.669	5524
824.809	5680
824.949	5695
825.089	5600
825.228	5566
825.368	5364
825.508	5349
825.648	5330
825.787	5337
825.927	5414
826.067	5330
826.206	5231
826.346	5345
826.485	5395
826.625	5402
826.765	5520
826.904	5440
827.044	5208
827.183	5242
827.323	5132
827.462	5227
827.601	5151
827.741	5166
827.88	5201
828.02	5109
828.159	5223
828.298	5254
828.437	5318
828.577	5280
828.716	5410
828.855	5307
828.994	5155
829.134	5159
829.273	5151
829.412	5174
829.551	5109
829.69	5140
829.829	5235
829.968	5379
830.107	5273
830.246	5292
830.385	5147
830.524	5132
830.663	5067
830.802	4911
830.941	4870
831.08	4873
831.219	4987
831.357	4949
831.496	5166
831.635	4900
831.774	4862
831.913	4835
832.051	4752
832.19	4774
832.329	4824
832.467	4664
832.606	4603
832.744	4702
832.883	4744
833.022	4767
833.16	4755
833.299	4843
833.437	4801
833.576	4797
833.714	4839
833.852	4892
833.991	4873
834.129	4965
834.267	4896
834.406	4858
834.544	4995
834.682	4957
834.821	4976
834.959	5121
835.097	4946
835.235	5143
835.373	5060
835.511	5098
835.65	5025
835.788	4987
835.926	4881
836.064	4839
836.202	4877
836.34	5143
836.478	5193
836.615	5185
836.753	5189
836.891	5223
837.029	5242
837.167	5166
837.305	5170
837.443	5162
837.58	5067
837.718	5227
837.856	5162
837.993	5105
838.131	5227
838.269	5212
838.406	5185
838.544	5204
838.681	5048
838.819	5041
838.956	4911
839.094	4892
839.231	4934
839.369	5102
839.506	5395
839.643	5277
839.781	5048
839.918	5006
840.055	5079
840.193	5098
840.33	5128
840.467	5132
840.604	5174
840.742	5444
840.879	5098
841.016	5041
841.153	5204
841.29	5353
841.427	5353
841.564	5334
841.701	5330
841.838	5307
841.975	5212
842.112	5261
842.249	5140
842.385	5071
842.522	5303
842.659	5197
842.796	5140
842.933	5189
843.069	5113
843.206	5113
843.343	5322
843.479	5284
843.616	5280
843.752	5010
843.889	4965
844.025	5178
844.162	4927
844.298	5197
844.435	5033
844.571	5098
844.708	5227
844.844	5280
844.98	5284
845.117	5322
845.253	5124
845.389	5067
845.525	5117
845.661	5128
845.798	4984
845.934	5067
846.07	5006
846.206	5178
846.342	5273
846.478	5155
846.614	5029
846.75	4957
846.886	4896
847.022	5143
847.158	4999
847.294	5060
847.429	5086
847.565	5018
847.701	5337
847.837	4843
847.972	4774
848.108	4949
848.244	4942
848.379	4797
848.515	4763
848.65	4698
848.786	4691
848.921	4744
849.057	4858
849.192	4870
849.328	4774
849.463	4873
849.598	4748
849.734	4782
849.869	4645
850.004	4546
850.14	4672
850.275	4607
850.41	4519
850.545	4516
850.68	4596
850.815	4561
850.95	4634
851.085	4797
851.22	4698
851.355	4691
851.49	4656
851.625	4596
851.76	4637
851.895	4546
852.03	4516
852.165	4626
852.299	4717
852.434	4801
852.569	4717
852.703	4725
852.838	4774
852.973	4949
853.107	4923
853.242	4752
853.376	4660
853.511	4531
853.645	4630
853.78	4824
853.914	4733
854.048	4702
854.183	4630
854.317	4698
854.451	4862
854.585	4626
854.72	4634
854.854	4721
854.988	4618
855.122	4596
855.256	4531
855.39	4634
855.524	4786
855.658	4740
855.792	4706
855.926	4687
856.06	4752
856.194	4759
856.327	4710
856.461	4596
856.595	4599
856.729	4626
856.862	4740
856.996	4736
857.13	4714
857.263	4744
857.397	4755
857.53	4626
857.664	4725
857.797	4725
857.931	4736
858.064	4653
858.197	4729
858.331	4675
858.464	4618
858.597	4527
858.731	4622
858.864	4656
858.997	4588
859.13	4664
859.263	4702
859.396	4744
859.529	4584
859.662	4573
859.795	4535
859.928	4656
860.061	4805
860.194	4793
860.327	4615
860.46	4554
860.592	4710
860.725	4744
860.858	4702
860.99	4561
861.123	4485
861.256	4508
861.388	4626
861.521	5402
861.653	4447
861.786	4478
861.918	4455
862.05	4535
862.183	4535
862.315	4588
862.447	4637
862.58	4546
862.712	4394
862.844	4367
862.976	4451
863.108	4500
863.24	4873
863.372	4303
863.504	4405
863.636	4390
863.768	4466
863.9	4386
864.032	4356
864.164	4356
864.296	4481
864.428	4512
864.559	4554
864.691	4527
864.823	4519
864.954	4500
865.086	4478
865.217	4474
865.349	4402
865.48	4447
865.612	4485
865.743	4626
865.875	4424
866.006	4394
866.137	4447
866.269	4451
866.4	4424
866.531	4405
866.662	4402
866.793	4383
866.924	4386
867.055	4440
867.186	4447
867.317	4371
867.448	4348
867.579	4413
867.71	4375
867.841	4363
867.972	4447
868.103	4432
868.233	4428
868.364	4402
868.495	4523
868.625	4637
868.756	4790
868.886	4542
869.017	4622
869.147	4835
869.278	4809
869.408	4622
869.539	4580
869.669	4691
869.799	4668
869.929	4786
870.06	4687
870.19	4927
870.32	4949
870.45	4892
870.58	5025
870.71	5090
870.84	5075
870.97	4911
871.1	4885
871.23	5162
871.36	5155
871.489	4991
871.619	5060
871.749	5121
871.879	5102
872.008	5136
872.138	5037
872.267	4961
872.397	4820
872.526	4755
872.656	4672
872.785	4763
872.915	4923
873.044	5029
873.173	4919
873.303	4946
873.432	4900
873.561	4965
873.69	4904
873.819	4843
873.948	4927
874.077	4816
874.206	4748
874.335	4752
874.464	4896
874.593	5079
874.722	4968
874.851	5140
874.979	5064
875.108	4999
875.237	4923
875.365	4870
875.494	4862
875.623	4957
875.751	4828
875.88	4858
876.008	4968
876.136	4999
876.265	5216
876.393	5277
876.521	5269
876.65	5193
876.778	5159
876.906	5075
877.034	5048
877.162	5045
877.29	5010
877.418	5048
877.546	5003
877.674	5006
877.802	5003
877.93	5014
878.058	4927
878.185	4850
878.313	4949
878.441	4915
878.568	4771
878.696	4870
878.824	4942
878.951	4946
879.079	5140
879.206	5261
879.333	5136
879.461	4965
879.588	5014
879.715	5132
879.842	5185
879.97	5022
880.097	4809
880.224	4725
880.351	4835
880.478	4828
880.605	4755
880.732	4759
880.859	5029
880.986	4915
881.112	4915
881.239	4782
881.366	4645
881.493	4592
881.619	4569
881.746	4626
881.872	4637
881.999	4691
882.125	4717
882.252	4755
882.378	4812
882.505	4934
882.631	4748
882.757	4668
882.883	4755
883.01	4683
883.136	4645
883.262	4573
883.388	4607
883.514	4790
883.64	4839
883.766	4793
883.892	4645
884.018	4710
884.143	4843
884.269	4980
884.395	4599
884.52	4653
884.646	4641
884.772	4561
884.897	4546
885.023	4641
885.148	4767
885.274	4809
885.399	4831
885.524	4782
885.65	4729
885.775	4679
885.9	4675
886.025	4885
886.15	4797
886.275	4683
886.4	4641
886.525	4763
886.65	4721
886.775	4660
886.9	4904
887.025	5014
887.149	4801
887.274	4637
887.399	4546
887.523	4615
887.648	4622
887.773	4561
887.897	4725
888.021	4797
888.146	4672
888.27	4828
888.395	4934
888.519	4782
888.643	4797
888.767	4862
888.891	4675
889.015	4637
889.139	4645
889.263	4603
889.387	4755
889.511	4870
889.635	4805
889.759	4622
889.883	4656
890.006	4759
890.13	4847
890.254	4637
890.377	4691
890.501	4546
890.624	4508
890.748	4603
890.871	4516
890.995	4462
891.118	4398
891.241	4478
891.364	4542
891.488	4645
891.611	4424
891.734	4550
891.857	4599
891.98	4542
892.103	4668
892.226	4512
892.349	4497
892.471	4432
892.594	4565
892.717	4588
892.839	4569
892.962	4596
893.085	4637
893.207	4546
893.33	4451
893.452	4485
893.575	4698
893.697	4577
893.819	4805
893.941	4850
894.064	4793
894.186	4554
894.308	4573
894.43	4714
894.552	4854
894.674	4812
894.796	4592
894.918	4573
895.04	4523
895.161	4672
895.283	4626
895.405	4596
895.526	4622
895.648	4668
895.769	4645
895.891	4687
896.012	4717
896.134	4710
896.255	4656
896.376	4645
896.498	4588
896.619	4675
896.74	4622
896.861	4596
896.982	4919
897.103	5090
897.224	4816
897.345	4721
897.466	4653
897.587	4714
897.708	4839
897.828	4763
897.949	4634
898.07	4561
898.19	4607
898.311	4877
898.431	4660
898.552	4717
898.672	4797
898.792	4812
898.913	4729
899.033	4592
899.153	4508
899.273	4474
899.393	4516
899.513	4538
899.633	4493
899.753	4538
899.873	4500
899.993	4531
900.113	4538
900.232	4607
900.352	4531
900.472	4440
900.591	4356
900.711	4447
900.83	4443
900.95	4660
901.069	4664
901.189	4508
901.308	4363
901.427	4299
901.546	4405
901.665	4455
901.784	4508
901.904	4371
902.023	4325
902.141	4154
902.26	4124
902.379	4268
902.498	4284
902.617	4242
902.735	4371
902.854	4383
902.973	4318
903.091	4188
903.21	4200
903.328	4261
903.446	4261
903.565	4219
903.683	4352
903.801	4291
903.919	4383
904.038	4440
904.156	4322
904.274	4428
904.392	4398
904.51	4424
904.627	4481
904.745	4516
904.863	4603
904.981	4402
905.098	4295
905.216	4375
905.334	4428
905.451	4440
905.569	4390
905.686	4523
905.803	4584
905.921	4417
906.038	4519
906.155	4447
906.272	4436
906.389	4478
906.506	4360
906.623	4375
906.74	4363
906.857	4318
906.974	4371
907.091	4508
907.208	4679
907.324	4584
907.441	4451
907.557	4341
907.674	4356
907.79	4306
907.907	4356
908.023	4481
908.139	4512
908.256	4440
908.372	4424
908.488	4428
908.604	4363
908.72	4322
908.836	4379
908.952	4322
909.068	4409
909.184	4527
909.3	4493
909.415	4527
909.531	4542
909.647	4360
909.762	4367
909.878	4322
909.993	4432
910.108	4386
910.224	4432
910.339	4493
910.454	4379
910.57	4386
910.685	4276
910.8	4664
910.915	4596
911.03	4504
911.145	4295
911.259	4348
911.374	4409
911.489	4291
911.604	4268
911.718	4181
911.833	4257
911.947	4082
912.062	4074
912.176	4177
912.291	4234
912.405	4246
912.519	4440
912.633	4523
912.748	4333
912.862	4333
912.976	4207
913.09	4097
913.204	4177
913.318	4291
913.431	4322
913.545	4337
913.659	4405
913.772	4356
913.886	4261
914	4227
914.113	4371
914.226	4462
914.34	4405
914.453	4204
914.566	4413
914.68	4276
914.793	4379
914.906	4181
915.019	4139
915.132	4044
915.245	4173
915.358	4200
915.47	4196
915.583	4242
915.696	4276
915.809	4383
915.921	4398
916.034	4227
916.146	4257
916.259	4219
916.371	4390
916.483	4356
916.595	4238
916.708	4341
916.82	4318
916.932	4325
917.044	4322
917.156	4322
917.268	4211
917.38	4265
917.491	4253
917.603	4306
917.715	4424
917.826	4402
917.938	4352
918.049	4246
918.161	4398
918.272	4550
918.384	4493
918.495	4462
918.606	4265
918.717	4204
918.828	4337
918.939	4348
919.05	4276
919.161	4325
919.272	4128
919.383	4253
919.494	4451
919.604	4626
919.715	4421
919.826	4329
919.936	4428
920.047	4561
920.157	4485
920.267	4664
920.378	4538
920.488	4508
920.598	4717
920.708	4881
920.818	4805
920.928	4767
921.038	4968
921.148	4923
921.258	4637
921.368	4489
921.477	4497
921.587	4459
921.697	4398
921.806	4577
921.916	4386
922.025	4291
922.134	4230
922.244	4207
922.353	4310
922.462	4177
922.571	4147
922.68	4029
922.789	3979
922.898	4021
923.007	3987
923.116	4067
923.224	4086
923.333	4067
923.442	3994
923.55	3949
923.659	4082
923.767	4086
923.876	3994
923.984	4128
924.092	3987
924.201	4036
924.309	4071
924.417	4139
924.525	4029
924.633	4074
924.741	4911
924.849	3880
924.956	4074
925.064	3987
925.172	3918
925.279	3968
925.387	4025
925.494	4040
925.602	4223
925.709	4204
925.816	4032
925.924	4150
926.031	4238
926.138	4150
926.245	4207
926.352	4067
926.459	4268
926.566	4303
926.673	4147
926.779	4112
926.886	4097
926.993	4006
927.099	3953
927.206	3918
927.312	3945
927.419	4051
927.525	4010
927.631	4086
927.737	3987
927.843	3941
927.95	3812
928.056	3945
928.162	4013
928.267	4090
928.373	4641
928.479	4086
928.585	3869
928.69	4040
928.796	4032
928.901	3953
929.007	3861
929.112	4032
929.218	3930
929.323	3953
929.428	3880
929.533	4071
929.638	3896
929.743	3964
929.848	4036
929.953	3964
930.058	3915
930.163	3785
930.267	3793
930.372	3949
930.477	3789
930.581	4093
930.685	3994
930.79	3785
930.894	3865
930.998	3854
931.103	4040
931.207	3690
931.311	3713
931.415	3648
931.519	3538
931.623	3557
