Data from test_V78500241_1000.txt Node
Date: Fri Mar 25 16:55:57 CST 2022
User: usil
Spectrometer: V785-0024
Trigger mode: 0
Integration Time (sec): 4.000000E-1
Scans to average: 1
Nonlinearity correction enabled: false
Boxcar width: 0
Storing dark spectrum: false
XAxis mode: Wavelengths
Number of Pixels in Spectrum: 1024
>>>>>Begin Spectral Data<<<<<
801.071	8012
801.214	8058
801.356	7887
801.499	7841
801.641	7780
801.783	7795
801.926	7921
802.068	7917
802.211	7921
802.353	7871
802.496	7841
802.638	7795
802.78	7856
802.923	7890
803.065	7841
803.208	7822
803.35	7978
803.492	8138
803.635	8084
803.777	8008
803.919	8107
804.061	8431
804.204	8073
804.346	8073
804.488	7959
804.63	8100
804.773	7997
804.915	8020
805.057	8256
805.199	8115
805.341	8157
805.483	8218
805.626	8168
805.768	8046
805.91	8180
806.052	8225
806.194	8073
806.336	8191
806.478	8065
806.62	8027
806.762	8077
806.904	8275
807.046	8427
807.188	8279
807.33	8279
807.472	8294
807.614	8168
807.756	8081
807.898	7928
808.04	7879
808.182	7902
808.324	7906
808.465	7947
808.607	8077
808.749	8073
808.891	8180
809.033	8237
809.174	8164
809.316	8043
809.458	7993
809.6	7989
809.741	8043
809.883	8016
810.025	7967
810.166	8035
810.308	7974
810.45	8046
810.591	7792
810.733	7761
810.875	7636
811.016	7453
811.158	7445
811.299	7510
811.441	7677
811.582	7681
811.724	7552
811.865	7506
812.007	7601
812.148	7544
812.29	7628
812.431	7696
812.573	7799
812.714	7967
812.855	8054
812.997	8142
813.138	8332
813.279	8123
813.421	8069
813.562	7982
813.703	7811
813.845	7708
813.986	7449
814.127	7266
814.268	7190
814.41	7099
814.551	7088
814.692	7156
814.833	6993
814.974	7065
815.115	7095
815.256	6920
815.397	6954
815.539	6970
815.68	6791
815.821	6749
815.962	6863
816.103	6810
816.244	6677
816.385	6608
816.526	6646
816.666	6483
816.807	6254
816.948	6410
817.089	6456
817.23	6414
817.371	6407
817.512	6350
817.653	6426
817.793	6334
817.934	6437
818.075	6426
818.216	6384
818.356	6334
818.497	6205
818.638	6121
818.778	6117
818.919	6186
819.06	6194
819.2	6262
819.341	6266
819.481	6384
819.622	6517
819.762	6719
819.903	6745
820.043	6601
820.184	6604
820.324	6585
820.465	6684
820.605	6646
820.746	6608
820.886	6486
821.026	6722
821.167	6802
821.307	6814
821.447	6772
821.588	6677
821.728	6612
821.868	6521
822.008	6388
822.149	6429
822.289	6384
822.429	6182
822.569	6102
822.709	6159
822.849	5908
822.99	5939
823.13	5923
823.27	5916
823.41	5851
823.55	5821
823.69	5779
823.83	5786
823.97	5726
824.11	5532
824.25	5570
824.389	5547
824.529	5562
824.669	5516
824.809	5668
824.949	5680
825.089	5653
825.228	5570
825.368	5433
825.508	5357
825.648	5383
825.787	5417
825.927	5414
826.067	5288
826.206	5299
826.346	5429
826.485	5471
826.625	5440
826.765	5596
826.904	5532
827.044	5246
827.183	5189
827.323	5098
827.462	5288
827.601	5189
827.741	5212
827.88	5292
828.02	5113
828.159	5223
828.298	5357
828.437	5368
828.577	5326
828.716	5535
828.855	5330
828.994	5185
829.134	5155
829.273	5254
829.412	5132
829.551	5181
829.69	5140
829.829	5227
829.968	5402
830.107	5315
830.246	5341
830.385	5178
830.524	5140
830.663	5071
830.802	4968
830.941	4930
831.08	4938
831.219	4984
831.357	5025
831.496	5208
831.635	4934
831.774	4873
831.913	4850
832.051	4744
832.19	4782
832.329	4908
832.467	4702
832.606	4649
832.744	4710
832.883	4733
833.022	4778
833.16	4820
833.299	4854
833.437	4847
833.576	4850
833.714	4889
833.852	4900
833.991	4911
834.129	4991
834.267	5003
834.406	4927
834.544	4991
834.682	4987
834.821	4995
834.959	5193
835.097	5079
835.235	5132
835.373	5071
835.511	5083
835.65	5094
835.788	5048
835.926	4942
836.064	4850
836.202	4938
836.34	5136
836.478	5220
836.615	5136
836.753	5220
836.891	5318
837.029	5235
837.167	5261
837.305	5178
837.443	5140
837.58	5132
837.718	5235
837.856	5239
837.993	5174
838.131	5258
838.269	5216
838.406	5166
838.544	5197
838.681	5048
838.819	5090
838.956	4930
839.094	4911
839.231	4987
839.369	5121
839.506	5417
839.643	5277
839.781	5060
839.918	5041
840.055	5124
840.193	5029
840.33	5117
840.467	5121
840.604	5193
840.742	5414
840.879	5113
841.016	5094
841.153	5189
841.29	5368
841.427	5345
841.564	5379
841.701	5402
841.838	5311
841.975	5273
842.112	5212
842.249	5159
842.385	5121
842.522	5368
842.659	5261
842.796	5162
842.933	5242
843.069	5159
843.206	5155
843.343	5330
843.479	5246
843.616	5231
843.752	5064
843.889	5037
844.025	5235
844.162	5010
844.298	5181
844.435	5064
844.571	5067
844.708	5212
844.844	5337
844.98	5357
845.117	5311
845.253	5159
845.389	5075
845.525	5166
845.661	5166
845.798	5075
845.934	5201
846.07	5067
846.206	5212
846.342	5296
846.478	5121
846.614	5090
846.75	5003
846.886	4991
847.022	5185
847.158	5041
847.294	5098
847.429	5117
847.565	5067
847.701	5337
847.837	4858
847.972	4847
848.108	4984
848.244	4900
848.379	4786
848.515	4714
848.65	4759
848.786	4748
848.921	4748
849.057	4858
849.192	4949
849.328	4824
849.463	4850
849.598	4809
849.734	4752
849.869	4675
850.004	4645
850.14	4729
850.275	4641
850.41	4523
850.545	4577
850.68	4649
850.815	4679
850.95	4664
851.085	4854
851.22	4755
851.355	4641
851.49	4626
851.625	4664
851.76	4649
851.895	4527
852.03	4573
852.165	4649
852.299	4752
852.434	4805
852.569	4782
852.703	4771
852.838	4843
852.973	4984
853.107	4968
853.242	4786
853.376	4717
853.511	4542
853.645	4630
853.78	4835
853.914	4725
854.048	4687
854.183	4630
854.317	4702
854.451	4889
854.585	4714
854.72	4672
854.854	4755
854.988	4630
855.122	4618
855.256	4554
855.39	4698
855.524	4797
855.658	4725
855.792	4656
855.926	4755
856.06	4725
856.194	4801
856.327	4702
856.461	4649
856.595	4668
856.729	4584
856.862	4763
856.996	4687
857.13	4729
857.263	4767
857.397	4797
857.53	4694
857.664	4725
857.797	4786
857.931	4801
858.064	4691
858.197	4752
858.331	4675
858.464	4637
858.597	4577
858.731	4626
858.864	4630
858.997	4596
859.13	4702
859.263	4687
859.396	4714
859.529	4607
859.662	4622
859.795	4516
859.928	4611
860.061	4759
860.194	4820
860.327	4626
860.46	4599
860.592	4706
860.725	4691
860.858	4714
860.99	4561
861.123	4493
861.256	4512
861.388	4615
861.521	5239
861.653	4531
861.786	4424
861.918	4459
862.05	4523
862.183	4573
862.315	4599
862.447	4679
862.58	4622
862.712	4462
862.844	4348
862.976	4531
863.108	4474
863.24	4923
863.372	4314
863.504	4455
863.636	4432
863.768	4497
863.9	4478
864.032	4360
864.164	4428
864.296	4481
864.428	4542
864.559	4485
864.691	4550
864.823	4527
864.954	4512
865.086	4516
865.217	4485
865.349	4443
865.48	4447
865.612	4512
865.743	4656
865.875	4470
866.006	4440
866.137	4478
866.269	4409
866.4	4459
866.531	4421
866.662	4375
866.793	4424
866.924	4451
867.055	4512
867.186	4481
867.317	4432
867.448	4363
867.579	4383
867.71	4390
867.841	4405
867.972	4481
868.103	4481
868.233	4508
868.364	4485
868.495	4424
868.625	4668
868.756	4755
868.886	4588
869.017	4630
869.147	4782
869.278	4782
869.408	4683
869.539	4660
869.669	4721
869.799	4691
869.929	4782
870.06	4774
870.19	4923
870.32	4919
870.45	4930
870.58	4980
870.71	5170
870.84	5056
870.97	4938
871.1	4911
871.23	5162
871.36	5162
871.489	5048
871.619	5067
871.749	5083
871.879	5143
872.008	5136
872.138	5064
872.267	4999
872.397	4896
872.526	4816
872.656	4736
872.785	4820
872.915	4930
873.044	5048
873.173	4934
873.303	4972
873.432	4949
873.561	4999
873.69	4900
873.819	4873
873.948	4923
874.077	4835
874.206	4755
874.335	4839
874.464	4949
874.593	5045
874.722	4942
874.851	5136
874.979	5075
875.108	5071
875.237	4923
875.365	4908
875.494	4877
875.623	4968
875.751	4847
875.88	4866
876.008	4984
876.136	5064
876.265	5216
876.393	5307
876.521	5216
876.65	5235
876.778	5117
876.906	5056
877.034	5037
877.162	5071
877.29	4987
877.418	5025
877.546	5029
877.674	5010
877.802	4991
877.93	4999
878.058	4866
878.185	4835
878.313	4980
878.441	4934
878.568	4809
878.696	4839
878.824	4972
878.951	5045
879.079	5113
879.206	5284
879.333	5113
879.461	4972
879.588	4995
879.715	5140
879.842	5231
879.97	5025
880.097	4797
880.224	4744
880.351	4831
880.478	4820
880.605	4812
880.732	4805
880.859	5090
880.986	4847
881.112	4892
881.239	4778
881.366	4672
881.493	4603
881.619	4592
881.746	4675
881.872	4668
881.999	4653
882.125	4714
882.252	4812
882.378	4835
882.505	4976
882.631	4835
882.757	4702
882.883	4710
883.01	4736
883.136	4694
883.262	4580
883.388	4577
883.514	4805
883.64	4850
883.766	4797
883.892	4683
884.018	4706
884.143	4881
884.269	5003
884.395	4656
884.52	4603
884.646	4672
884.772	4580
884.897	4535
885.023	4691
885.148	4801
885.274	4877
885.399	4854
885.524	4736
885.65	4691
885.775	4763
885.9	4717
886.025	4847
886.15	4805
886.275	4740
886.4	4656
886.525	4774
886.65	4698
886.775	4687
886.9	4934
887.025	5056
887.149	4839
887.274	4649
887.399	4569
887.523	4675
887.648	4573
887.773	4615
887.897	4752
888.021	4771
888.146	4733
888.27	4771
888.395	4908
888.519	4763
888.643	4835
888.767	4812
888.891	4691
889.015	4622
889.139	4653
889.263	4622
889.387	4809
889.511	4873
889.635	4816
889.759	4630
889.883	4675
890.006	4729
890.13	4850
890.254	4577
890.377	4710
890.501	4580
890.624	4519
890.748	4615
890.871	4531
890.995	4432
891.118	4371
891.241	4535
891.364	4565
891.488	4615
891.611	4500
891.734	4565
891.857	4584
891.98	4523
892.103	4668
892.226	4588
892.349	4512
892.471	4417
892.594	4584
892.717	4615
892.839	4569
892.962	4558
893.085	4634
893.207	4588
893.33	4493
893.452	4554
893.575	4672
893.697	4584
893.819	4812
893.941	4885
894.064	4771
894.186	4577
894.308	4558
894.43	4698
894.552	4774
894.674	4733
894.796	4561
894.918	4546
895.04	4554
895.161	4733
895.283	4664
895.405	4599
895.526	4664
895.648	4717
895.769	4698
895.891	4698
896.012	4755
896.134	4733
896.255	4706
896.376	4580
896.498	4599
896.619	4691
896.74	4592
896.861	4626
896.982	4923
897.103	5067
897.224	4828
897.345	4763
897.466	4649
897.587	4740
897.708	4900
897.828	4809
897.949	4710
898.07	4546
898.19	4683
898.311	4797
898.431	4634
898.552	4786
898.672	4809
898.792	4824
898.913	4744
899.033	4615
899.153	4508
899.273	4417
899.393	4519
899.513	4603
899.633	4504
899.753	4535
899.873	4512
899.993	4592
900.113	4512
900.232	4580
900.352	4512
900.472	4516
900.591	4424
900.711	4466
900.83	4459
900.95	4592
901.069	4637
901.189	4596
901.308	4394
901.427	4329
901.546	4398
901.665	4459
901.784	4512
901.904	4352
902.023	4291
902.141	4162
902.26	4181
902.379	4306
902.498	4257
902.617	4219
902.735	4356
902.854	4356
902.973	4394
903.091	4185
903.21	4253
903.328	4265
903.446	4306
903.565	4261
903.683	4322
903.801	4257
903.919	4360
904.038	4409
904.156	4303
904.274	4417
904.392	4428
904.51	4417
904.627	4413
904.745	4558
904.863	4630
904.981	4341
905.098	4325
905.216	4333
905.334	4409
905.451	4459
905.569	4436
905.686	4603
905.803	4596
905.921	4424
906.038	4527
906.155	4497
906.272	4363
906.389	4432
906.506	4337
906.623	4383
906.74	4394
906.857	4337
906.974	4402
907.091	4550
907.208	4694
907.324	4611
907.441	4497
907.557	4348
907.674	4371
907.79	4314
907.907	4379
908.023	4508
908.139	4489
908.256	4413
908.372	4489
908.488	4440
908.604	4371
908.72	4318
908.836	4363
908.952	4386
909.068	4367
909.184	4573
909.3	4424
909.415	4554
909.531	4569
909.647	4341
909.762	4356
909.878	4337
909.993	4421
910.108	4413
910.224	4417
910.339	4474
910.454	4402
910.57	4360
910.685	4287
910.8	4668
910.915	4622
911.03	4478
911.145	4310
911.259	4299
911.374	4375
911.489	4287
911.604	4291
911.718	4185
911.833	4173
911.947	4105
912.062	4017
912.176	4211
912.291	4223
912.405	4253
912.519	4436
912.633	4500
912.748	4383
912.862	4314
912.976	4215
913.09	4116
913.204	4207
913.318	4272
913.431	4344
913.545	4352
913.659	4428
913.772	4344
913.886	4280
914	4223
914.113	4390
914.226	4421
914.34	4386
914.453	4261
914.566	4474
914.68	4325
914.793	4291
914.906	4150
915.019	4139
915.132	4082
915.245	4192
915.358	4230
915.47	4242
915.583	4246
915.696	4303
915.809	4383
915.921	4424
916.034	4284
916.146	4238
916.259	4227
916.371	4383
916.483	4379
916.595	4253
916.708	4322
916.82	4337
916.932	4299
917.044	4341
917.156	4310
917.268	4196
917.38	4268
917.491	4352
917.603	4325
917.715	4413
917.826	4447
917.938	4329
918.049	4257
918.161	4421
918.272	4527
918.384	4561
918.495	4417
918.606	4284
918.717	4238
918.828	4291
918.939	4398
919.05	4215
919.161	4299
919.272	4120
919.383	4219
919.494	4421
919.604	4580
919.715	4440
919.826	4363
919.936	4402
920.047	4527
920.157	4485
920.267	4694
920.378	4546
920.488	4466
920.598	4683
920.708	4908
920.818	4755
920.928	4771
921.038	4984
921.148	4919
921.258	4668
921.368	4519
921.477	4474
921.587	4413
921.697	4405
921.806	4531
921.916	4417
922.025	4299
922.134	4284
922.244	4249
922.353	4383
922.462	4090
922.571	4131
922.68	4010
922.789	3975
922.898	4044
923.007	3991
923.116	4116
923.224	4082
923.333	4059
923.442	3968
923.55	3994
923.659	4002
923.767	4059
923.876	4048
923.984	4120
924.092	4044
924.201	4101
924.309	4067
924.417	4101
924.525	4036
924.633	4139
924.741	5064
924.849	3937
924.956	4116
925.064	4017
925.172	3884
925.279	3941
925.387	4078
925.494	4067
925.602	4185
925.709	4207
925.816	4051
925.924	4097
926.031	4185
926.138	4196
926.245	4204
926.352	4059
926.459	4246
926.566	4295
926.673	4158
926.779	4067
926.886	4078
926.993	3994
927.099	3956
927.206	3949
927.312	3937
927.419	4059
927.525	4055
927.631	4071
927.737	3964
927.843	3968
927.95	3819
928.056	3945
928.162	3975
928.267	4040
928.373	4675
928.479	4116
928.585	3918
928.69	3991
928.796	4032
928.901	3949
929.007	3861
929.112	3964
929.218	3972
929.323	3964
929.428	3926
929.533	4124
929.638	3934
929.743	3956
929.848	4067
929.953	3983
930.058	3903
930.163	3728
930.267	3812
930.372	3945
930.477	3819
930.581	4074
930.685	3918
930.79	3823
930.894	3915
930.998	3850
931.103	4032
931.207	3709
931.311	3682
931.415	3663
931.519	3519
931.623	3553
