Data from test_V78500241_2186.txt Node
Date: Fri Mar 25 17:04:12 CST 2022
User: usil
Spectrometer: V785-0024
Trigger mode: 0
Integration Time (sec): 4.000000E-1
Scans to average: 1
Nonlinearity correction enabled: false
Boxcar width: 0
Storing dark spectrum: false
XAxis mode: Wavelengths
Number of Pixels in Spectrum: 1024
>>>>>Begin Spectral Data<<<<<
801.071	7993
801.214	8058
801.356	7902
801.499	7955
801.641	7826
801.783	7856
801.926	8012
802.068	7947
802.211	7982
802.353	8039
802.496	7852
802.638	7837
802.78	7913
802.923	7852
803.065	7932
803.208	7913
803.35	7947
803.492	8088
803.635	8138
803.777	7947
803.919	8168
804.061	8434
804.204	8172
804.346	8073
804.488	8001
804.63	8081
804.773	8054
804.915	8073
805.057	8389
805.199	8172
805.341	8256
805.483	8286
805.626	8256
805.768	8161
805.91	8210
806.052	8294
806.194	8115
806.336	8328
806.478	8107
806.62	8138
806.762	8153
806.904	8275
807.046	8419
807.188	8385
807.33	8305
807.472	8301
807.614	8210
807.756	8134
807.898	8039
808.04	7879
808.182	7887
808.324	7887
808.465	7837
808.607	8100
808.749	8161
808.891	8248
809.033	8343
809.174	8218
809.316	8138
809.458	8119
809.6	7997
809.741	8016
809.883	8062
810.025	8149
810.166	8138
810.308	8065
810.45	8054
810.591	7852
810.733	7788
810.875	7666
811.016	7480
811.158	7400
811.299	7575
811.441	7727
811.582	7693
811.724	7590
811.865	7510
812.007	7632
812.148	7578
812.29	7655
812.431	7742
812.573	7902
812.714	8058
812.855	8092
812.997	8202
813.138	8355
813.279	8172
813.421	8081
813.562	8073
813.703	7868
813.845	7750
813.986	7487
814.127	7270
814.268	7312
814.41	7187
814.551	7190
814.692	7289
814.833	7084
814.974	7084
815.115	7202
815.256	6966
815.397	6932
815.539	6958
815.68	6814
815.821	6726
815.962	6825
816.103	6837
816.244	6749
816.385	6616
816.526	6616
816.666	6540
816.807	6311
816.948	6498
817.089	6441
817.23	6475
817.371	6437
817.512	6399
817.653	6388
817.793	6342
817.934	6399
818.075	6471
818.216	6429
818.356	6433
818.497	6323
818.638	6133
818.778	6171
818.919	6140
819.06	6175
819.2	6399
819.341	6285
819.481	6426
819.622	6593
819.762	6719
819.903	6711
820.043	6582
820.184	6544
820.324	6604
820.465	6719
820.605	6715
820.746	6665
820.886	6506
821.026	6707
821.167	6806
821.307	6787
821.447	6779
821.588	6688
821.728	6585
821.868	6483
822.008	6361
822.149	6429
822.289	6353
822.429	6235
822.569	6117
822.709	6140
822.849	5977
822.99	5920
823.13	5923
823.27	5927
823.41	5813
823.55	5817
823.69	5836
823.83	5847
823.97	5691
824.11	5577
824.25	5558
824.389	5551
824.529	5600
824.669	5570
824.809	5611
824.949	5665
825.089	5684
825.228	5573
825.368	5410
825.508	5391
825.648	5349
825.787	5383
825.927	5391
826.067	5315
826.206	5303
826.346	5345
826.485	5421
826.625	5471
826.765	5570
826.904	5558
827.044	5204
827.183	5231
827.323	5147
827.462	5223
827.601	5197
827.741	5223
827.88	5227
828.02	5124
828.159	5239
828.298	5345
828.437	5395
828.577	5265
828.716	5539
828.855	5406
828.994	5151
829.134	5136
829.273	5197
829.412	5170
829.551	5143
829.69	5197
829.829	5216
829.968	5357
830.107	5315
830.246	5239
830.385	5181
830.524	5098
830.663	5067
830.802	5022
830.941	4896
831.08	4923
831.219	4995
831.357	5025
831.496	5181
831.635	4946
831.774	4885
831.913	4881
832.051	4763
832.19	4797
832.329	4870
832.467	4710
832.606	4660
832.744	4763
832.883	4767
833.022	4706
833.16	4805
833.299	4835
833.437	4835
833.576	4892
833.714	4900
833.852	4896
833.991	4923
834.129	4957
834.267	4946
834.406	4870
834.544	5010
834.682	4961
834.821	4976
834.959	5208
835.097	4961
835.235	5239
835.373	5105
835.511	5124
835.65	5029
835.788	5079
835.926	4953
836.064	4915
836.202	5006
836.34	5147
836.478	5265
836.615	5124
836.753	5197
836.891	5334
837.029	5250
837.167	5223
837.305	5208
837.443	5204
837.58	5113
837.718	5261
837.856	5261
837.993	5242
838.131	5261
838.269	5235
838.406	5246
838.544	5216
838.681	5033
838.819	5056
838.956	4911
839.094	4965
839.231	4961
839.369	5090
839.506	5429
839.643	5296
839.781	5117
839.918	5014
840.055	5094
840.193	5102
840.33	5128
840.467	5208
840.604	5197
840.742	5452
840.879	5075
841.016	5147
841.153	5193
841.29	5398
841.427	5353
841.564	5337
841.701	5383
841.838	5322
841.975	5303
842.112	5246
842.249	5185
842.385	5155
842.522	5349
842.659	5201
842.796	5162
842.933	5197
843.069	5124
843.206	5166
843.343	5292
843.479	5220
843.616	5307
843.752	5010
843.889	5045
844.025	5254
844.162	5064
844.298	5254
844.435	5113
844.571	5079
844.708	5204
844.844	5326
844.98	5395
845.117	5341
845.253	5166
845.389	5060
845.525	5151
845.661	5159
845.798	5105
845.934	5178
846.07	5045
846.206	5193
846.342	5307
846.478	5246
846.614	5052
846.75	4968
846.886	4949
847.022	5143
847.158	5022
847.294	5048
847.429	5056
847.565	5067
847.701	5315
847.837	4900
847.972	4839
848.108	4984
848.244	4946
848.379	4835
848.515	4744
848.65	4733
848.786	4759
848.921	4774
849.057	4885
849.192	4923
849.328	4744
849.463	4866
849.598	4835
849.734	4843
849.869	4694
850.004	4649
850.14	4675
850.275	4618
850.41	4561
850.545	4592
850.68	4618
850.815	4603
850.95	4630
851.085	4866
851.22	4790
851.355	4710
851.49	4649
851.625	4626
851.76	4645
851.895	4550
852.03	4558
852.165	4679
852.299	4706
852.434	4793
852.569	4755
852.703	4786
852.838	4831
852.973	4965
853.107	4892
853.242	4752
853.376	4656
853.511	4573
853.645	4626
853.78	4790
853.914	4668
854.048	4664
854.183	4653
854.317	4698
854.451	4847
854.585	4710
854.72	4634
854.854	4797
854.988	4573
855.122	4664
855.256	4504
855.39	4634
855.524	4801
855.658	4710
855.792	4729
855.926	4740
856.06	4767
856.194	4809
856.327	4691
856.461	4656
856.595	4588
856.729	4626
856.862	4786
856.996	4714
857.13	4763
857.263	4771
857.397	4778
857.53	4649
857.664	4706
857.797	4717
857.931	4793
858.064	4725
858.197	4759
858.331	4675
858.464	4584
858.597	4584
858.731	4698
858.864	4626
858.997	4611
859.13	4691
859.263	4634
859.396	4729
859.529	4592
859.662	4592
859.795	4558
859.928	4653
860.061	4763
860.194	4771
860.327	4592
860.46	4615
860.592	4744
860.725	4706
860.858	4744
860.99	4554
861.123	4527
861.256	4508
861.388	4634
861.521	5406
861.653	4516
861.786	4436
861.918	4470
862.05	4497
862.183	4550
862.315	4580
862.447	4653
862.58	4554
862.712	4451
862.844	4337
862.976	4432
863.108	4424
863.24	4763
863.372	4352
863.504	4462
863.636	4432
863.768	4481
863.9	4428
864.032	4394
864.164	4379
864.296	4451
864.428	4573
864.559	4535
864.691	4493
864.823	4569
864.954	4481
865.086	4542
865.217	4447
865.349	4394
865.48	4500
865.612	4504
865.743	4626
865.875	4421
866.006	4462
866.137	4485
866.269	4405
866.4	4447
866.531	4421
866.662	4466
866.793	4436
866.924	4402
867.055	4459
867.186	4504
867.317	4409
867.448	4394
867.579	4398
867.71	4428
867.841	4379
867.972	4466
868.103	4466
868.233	4478
868.364	4455
868.495	4519
868.625	4611
868.756	4782
868.886	4538
869.017	4641
869.147	4759
869.278	4763
869.408	4679
869.539	4592
869.669	4717
869.799	4656
869.929	4733
870.06	4759
870.19	4968
870.32	4927
870.45	4972
870.58	5003
870.71	5056
870.84	5079
870.97	4987
871.1	4919
871.23	5162
871.36	5159
871.489	5022
871.619	5098
871.749	5098
871.879	5109
872.008	5140
872.138	5071
872.267	4991
872.397	4793
872.526	4778
872.656	4767
872.785	4847
872.915	4934
873.044	5056
873.173	4953
873.303	4923
873.432	5010
873.561	4953
873.69	4877
873.819	4850
873.948	4984
874.077	4831
874.206	4767
874.335	4847
874.464	4900
874.593	5083
874.722	5018
874.851	5109
874.979	5037
875.108	5060
875.237	4965
875.365	4870
875.494	4934
875.623	4987
875.751	4824
875.88	4919
876.008	5014
876.136	5052
876.265	5208
876.393	5341
876.521	5292
876.65	5254
876.778	5159
876.906	5064
877.034	5048
877.162	5018
877.29	5052
877.418	5064
877.546	5060
877.674	5067
877.802	5048
877.93	5056
878.058	4965
878.185	4885
878.313	4961
878.441	4927
878.568	4812
878.696	4881
878.824	5006
878.951	5003
879.079	5128
879.206	5265
879.333	5098
879.461	4949
879.588	4953
879.715	5117
879.842	5181
879.97	4999
880.097	4767
880.224	4763
880.351	4820
880.478	4778
880.605	4782
880.732	4782
880.859	5124
880.986	4843
881.112	4877
881.239	4748
881.366	4702
881.493	4573
881.619	4580
881.746	4675
881.872	4679
881.999	4630
882.125	4668
882.252	4748
882.378	4820
882.505	4957
882.631	4816
882.757	4691
882.883	4729
883.01	4767
883.136	4733
883.262	4584
883.388	4588
883.514	4801
883.64	4881
883.766	4797
883.892	4618
884.018	4740
884.143	4930
884.269	5033
884.395	4710
884.52	4660
884.646	4618
884.772	4641
884.897	4599
885.023	4637
885.148	4771
885.274	4858
885.399	4763
885.524	4710
885.65	4691
885.775	4733
885.9	4679
886.025	4835
886.15	4759
886.275	4694
886.4	4656
886.525	4721
886.65	4660
886.775	4706
886.9	4889
887.025	5029
887.149	4847
887.274	4675
887.399	4565
887.523	4599
887.648	4569
887.773	4618
887.897	4755
888.021	4729
888.146	4668
888.27	4847
888.395	4892
888.519	4774
888.643	4790
888.767	4908
888.891	4694
889.015	4550
889.139	4664
889.263	4554
889.387	4786
889.511	4881
889.635	4801
889.759	4637
889.883	4634
890.006	4710
890.13	4809
890.254	4561
890.377	4679
890.501	4565
890.624	4527
890.748	4630
890.871	4535
890.995	4440
891.118	4383
891.241	4493
891.364	4569
891.488	4660
891.611	4500
891.734	4546
891.857	4611
891.98	4580
892.103	4618
892.226	4611
892.349	4535
892.471	4375
892.594	4565
892.717	4569
892.839	4569
892.962	4603
893.085	4630
893.207	4588
893.33	4481
893.452	4542
893.575	4649
893.697	4584
893.819	4782
893.941	4847
894.064	4752
894.186	4592
894.308	4542
894.43	4733
894.552	4793
894.674	4706
894.796	4561
894.918	4596
895.04	4637
895.161	4717
895.283	4656
895.405	4531
895.526	4577
895.648	4698
895.769	4710
895.891	4717
896.012	4714
896.134	4675
896.255	4649
896.376	4645
896.498	4630
896.619	4618
896.74	4599
896.861	4641
896.982	4938
897.103	5075
897.224	4850
897.345	4714
897.466	4656
897.587	4717
897.708	4927
897.828	4786
897.949	4653
898.07	4538
898.19	4599
898.311	4820
898.431	4641
898.552	4736
898.672	4778
898.792	4797
898.913	4755
899.033	4592
899.153	4474
899.273	4409
899.393	4489
899.513	4538
899.633	4527
899.753	4565
899.873	4538
899.993	4599
900.113	4512
900.232	4573
900.352	4554
900.472	4470
900.591	4394
900.711	4489
900.83	4443
900.95	4565
901.069	4679
901.189	4573
901.308	4390
901.427	4322
901.546	4352
901.665	4459
901.784	4481
901.904	4383
902.023	4280
902.141	4177
902.26	4173
902.379	4325
902.498	4238
902.617	4215
902.735	4348
902.854	4383
902.973	4375
903.091	4177
903.21	4238
903.328	4325
903.446	4257
903.565	4261
903.683	4329
903.801	4249
903.919	4398
904.038	4409
904.156	4280
904.274	4405
904.392	4344
904.51	4390
904.627	4459
904.745	4550
904.863	4607
904.981	4405
905.098	4291
905.216	4356
905.334	4421
905.451	4440
905.569	4459
905.686	4558
905.803	4569
905.921	4405
906.038	4546
906.155	4443
906.272	4360
906.389	4470
906.506	4352
906.623	4352
906.74	4402
906.857	4287
906.974	4375
907.091	4573
907.208	4702
907.324	4573
907.441	4565
907.557	4348
907.674	4383
907.79	4329
907.907	4417
908.023	4481
908.139	4455
908.256	4432
908.372	4478
908.488	4409
908.604	4337
908.72	4329
908.836	4360
908.952	4402
909.068	4405
909.184	4573
909.3	4527
909.415	4538
909.531	4569
909.647	4329
909.762	4337
909.878	4314
909.993	4421
910.108	4386
910.224	4417
910.339	4474
910.454	4413
910.57	4352
910.685	4360
910.8	4653
910.915	4607
911.03	4436
911.145	4318
911.259	4299
911.374	4390
911.489	4303
911.604	4261
911.718	4173
911.833	4223
911.947	4071
912.062	4040
912.176	4181
912.291	4211
912.405	4238
912.519	4474
912.633	4516
912.748	4394
912.862	4295
912.976	4234
913.09	4086
913.204	4185
913.318	4246
913.431	4325
913.545	4348
913.659	4432
913.772	4390
913.886	4227
914	4284
914.113	4375
914.226	4421
914.34	4390
914.453	4257
914.566	4379
914.68	4295
914.793	4348
914.906	4147
915.019	4120
915.132	4093
915.245	4177
915.358	4238
915.47	4227
915.583	4261
915.696	4352
915.809	4436
915.921	4398
916.034	4253
916.146	4234
916.259	4238
916.371	4375
916.483	4402
916.595	4253
916.708	4337
916.82	4295
916.932	4360
917.044	4318
917.156	4280
917.268	4230
917.38	4295
917.491	4272
917.603	4333
917.715	4367
917.826	4424
917.938	4363
918.049	4227
918.161	4367
918.272	4550
918.384	4489
918.495	4432
918.606	4299
918.717	4230
918.828	4375
918.939	4386
919.05	4238
919.161	4333
919.272	4131
919.383	4268
919.494	4394
919.604	4626
919.715	4432
919.826	4329
919.936	4337
920.047	4535
920.157	4508
920.267	4683
920.378	4542
920.488	4474
920.598	4744
920.708	4862
920.818	4763
920.928	4717
921.038	4900
921.148	4896
921.258	4618
921.368	4500
921.477	4462
921.587	4428
921.697	4348
921.806	4550
921.916	4424
922.025	4246
922.134	4265
922.244	4181
922.353	4329
922.462	4185
922.571	4150
922.68	3994
922.789	3915
922.898	4002
923.007	3949
923.116	4158
923.224	4063
923.333	4078
923.442	3968
923.55	3964
923.659	3987
923.767	4067
923.876	3998
923.984	4112
924.092	3930
924.201	4105
924.309	4101
924.417	4105
924.525	4055
924.633	4131
924.741	5033
924.849	3956
924.956	4154
925.064	3975
925.172	3899
925.279	3930
925.387	4078
925.494	4071
925.602	4238
925.709	4169
925.816	4025
925.924	4105
926.031	4181
926.138	4150
926.245	4139
926.352	4078
926.459	4207
926.566	4291
926.673	4154
926.779	4082
926.886	4082
926.993	3945
927.099	3964
927.206	3953
927.312	3907
927.419	4059
927.525	4025
927.631	4063
927.737	3956
927.843	3918
927.95	3838
928.056	3934
928.162	3994
928.267	4051
928.373	4721
928.479	4071
928.585	3838
928.69	4021
928.796	4078
928.901	3975
929.007	3823
929.112	4002
929.218	3945
929.323	3941
929.428	3934
929.533	4120
929.638	3926
929.743	3941
929.848	3998
929.953	3937
930.058	3941
930.163	3728
930.267	3804
930.372	3972
930.477	3804
930.581	4051
930.685	3918
930.79	3762
930.894	3835
930.998	3838
931.103	3991
931.207	3694
931.311	3633
931.415	3633
931.519	3534
931.623	3538
