Data from test_V78500241_2398.txt Node
Date: Fri Mar 25 17:05:40 CST 2022
User: usil
Spectrometer: V785-0024
Trigger mode: 0
Integration Time (sec): 4.000000E-1
Scans to average: 1
Nonlinearity correction enabled: false
Boxcar width: 0
Storing dark spectrum: false
XAxis mode: Wavelengths
Number of Pixels in Spectrum: 1024
>>>>>Begin Spectral Data<<<<<
801.071	8031
801.214	8073
801.356	7883
801.499	7879
801.641	7750
801.783	7833
801.926	7967
802.068	7928
802.211	7925
802.353	7909
802.496	7860
802.638	7890
802.78	7936
802.923	7944
803.065	7894
803.208	7887
803.35	7963
803.492	8111
803.635	8202
803.777	8096
803.919	8145
804.061	8450
804.204	8218
804.346	7970
804.488	7986
804.63	8145
804.773	8043
804.915	8153
805.057	8286
805.199	8172
805.341	8256
805.483	8259
805.626	8221
805.768	8168
805.91	8259
806.052	8157
806.194	8111
806.336	8286
806.478	8123
806.62	8062
806.762	8142
806.904	8324
807.046	8495
807.188	8294
807.33	8324
807.472	8275
807.614	8199
807.756	8157
807.898	8050
808.04	7879
808.182	7898
808.324	7849
808.465	7879
808.607	8073
808.749	8164
808.891	8202
809.033	8362
809.174	8176
809.316	8073
809.458	8092
809.6	8001
809.741	8050
809.883	8035
810.025	8107
810.166	8088
810.308	8039
810.45	8050
810.591	7860
810.733	7769
810.875	7731
811.016	7537
811.158	7468
811.299	7597
811.441	7704
811.582	7628
811.724	7582
811.865	7556
812.007	7643
812.148	7586
812.29	7586
812.431	7780
812.573	7890
812.714	7932
812.855	8119
812.997	8256
813.138	8320
813.279	8123
813.421	8046
813.562	7963
813.703	7795
813.845	7719
813.986	7445
814.127	7274
814.268	7274
814.41	7206
814.551	7152
814.692	7240
814.833	7084
814.974	7099
815.115	7107
815.256	6935
815.397	6958
815.539	7023
815.68	6829
815.821	6753
815.962	6932
816.103	6795
816.244	6749
816.385	6650
816.526	6593
816.666	6490
816.807	6315
816.948	6433
817.089	6471
817.23	6445
817.371	6456
817.512	6365
817.653	6422
817.793	6376
817.934	6403
818.075	6475
818.216	6486
818.356	6456
818.497	6262
818.638	6140
818.778	6178
818.919	6201
819.06	6148
819.2	6331
819.341	6353
819.481	6319
819.622	6483
819.762	6753
819.903	6688
820.043	6673
820.184	6589
820.324	6646
820.465	6662
820.605	6692
820.746	6688
820.886	6597
821.026	6669
821.167	6692
821.307	6772
821.447	6757
821.588	6753
821.728	6589
821.868	6483
822.008	6296
822.149	6391
822.289	6422
822.429	6182
822.569	6102
822.709	6091
822.849	5912
822.99	5935
823.13	5984
823.27	5904
823.41	5824
823.55	5813
823.69	5760
823.83	5817
823.97	5691
824.11	5558
824.25	5463
824.389	5562
824.529	5558
824.669	5547
824.809	5649
824.949	5688
825.089	5600
825.228	5585
825.368	5360
825.508	5357
825.648	5357
825.787	5417
825.927	5334
826.067	5296
826.206	5307
826.346	5429
826.485	5379
826.625	5364
826.765	5543
826.904	5505
827.044	5280
827.183	5185
827.323	5128
827.462	5265
827.601	5166
827.741	5212
827.88	5166
828.02	5075
828.159	5231
828.298	5318
828.437	5337
828.577	5284
828.716	5520
828.855	5311
828.994	5155
829.134	5151
829.273	5147
829.412	5102
829.551	5117
829.69	5121
829.829	5265
829.968	5421
830.107	5311
830.246	5197
830.385	5166
830.524	5117
830.663	5060
830.802	5029
830.941	4896
831.08	4850
831.219	5037
831.357	4976
831.496	5105
831.635	4961
831.774	4877
831.913	4915
832.051	4755
832.19	4752
832.329	4824
832.467	4725
832.606	4645
832.744	4683
832.883	4733
833.022	4717
833.16	4797
833.299	4782
833.437	4858
833.576	4816
833.714	4843
833.852	4877
833.991	4885
834.129	4949
834.267	4908
834.406	4873
834.544	4961
834.682	4934
834.821	5029
834.959	5193
835.097	5022
835.235	5124
835.373	5037
835.511	5067
835.65	5037
835.788	4984
835.926	4949
836.064	4870
836.202	4904
836.34	5162
836.478	5227
836.615	5162
836.753	5204
836.891	5315
837.029	5151
837.167	5178
837.305	5189
837.443	5121
837.58	5056
837.718	5288
837.856	5155
837.993	5159
838.131	5227
838.269	5242
838.406	5239
838.544	5178
838.681	5045
838.819	5029
838.956	4885
839.094	4881
839.231	4987
839.369	5098
839.506	5410
839.643	5280
839.781	5090
839.918	5003
840.055	5128
840.193	5109
840.33	5109
840.467	5098
840.604	5151
840.742	5448
840.879	5064
841.016	5098
841.153	5143
841.29	5364
841.427	5311
841.564	5349
841.701	5383
841.838	5303
841.975	5246
842.112	5292
842.249	5117
842.385	5098
842.522	5322
842.659	5181
842.796	5121
842.933	5235
843.069	5132
843.206	5140
843.343	5311
843.479	5288
843.616	5307
843.752	5079
843.889	5018
844.025	5212
844.162	5075
844.298	5159
844.435	5098
844.571	5071
844.708	5250
844.844	5315
844.98	5345
845.117	5284
845.253	5159
845.389	5052
845.525	5094
845.661	5147
845.798	5037
845.934	5124
846.07	5048
846.206	5174
846.342	5277
846.478	5220
846.614	5006
846.75	5003
846.886	4927
847.022	5166
847.158	4987
847.294	5071
847.429	5109
847.565	5052
847.701	5349
847.837	4812
847.972	4801
848.108	4953
848.244	4953
848.379	4774
848.515	4702
848.65	4721
848.786	4702
848.921	4774
849.057	4850
849.192	4908
849.328	4843
849.463	4839
849.598	4793
849.734	4717
849.869	4683
850.004	4615
850.14	4675
850.275	4592
850.41	4531
850.545	4565
850.68	4592
850.815	4592
850.95	4626
851.085	4816
851.22	4740
851.355	4691
851.49	4607
851.625	4615
851.76	4664
851.895	4542
852.03	4516
852.165	4637
852.299	4698
852.434	4782
852.569	4729
852.703	4782
852.838	4839
852.973	4919
853.107	4919
853.242	4725
853.376	4615
853.511	4580
853.645	4675
853.78	4812
853.914	4649
854.048	4664
854.183	4634
854.317	4752
854.451	4870
854.585	4668
854.72	4653
854.854	4763
854.988	4592
855.122	4641
855.256	4538
855.39	4630
855.524	4771
855.658	4729
855.792	4717
855.926	4793
856.06	4740
856.194	4820
856.327	4721
856.461	4630
856.595	4653
856.729	4653
856.862	4759
856.996	4698
857.13	4698
857.263	4755
857.397	4782
857.53	4660
857.664	4717
857.797	4729
857.931	4786
858.064	4694
858.197	4748
858.331	4641
858.464	4596
858.597	4542
858.731	4664
858.864	4637
858.997	4599
859.13	4675
859.263	4679
859.396	4668
859.529	4569
859.662	4573
859.795	4531
859.928	4675
860.061	4774
860.194	4759
860.327	4592
860.46	4554
860.592	4710
860.725	4702
860.858	4698
860.99	4599
861.123	4519
861.256	4561
861.388	4664
861.521	5303
861.653	4462
861.786	4402
861.918	4432
862.05	4519
862.183	4561
862.315	4611
862.447	4622
862.58	4542
862.712	4383
862.844	4280
862.976	4470
863.108	4451
863.24	4744
863.372	4383
863.504	4409
863.636	4390
863.768	4470
863.9	4455
864.032	4371
864.164	4421
864.296	4512
864.428	4527
864.559	4603
864.691	4512
864.823	4481
864.954	4478
865.086	4497
865.217	4493
865.349	4432
865.48	4474
865.612	4481
865.743	4607
865.875	4436
866.006	4440
866.137	4462
866.269	4447
866.4	4443
866.531	4417
866.662	4409
866.793	4462
866.924	4405
867.055	4493
867.186	4481
867.317	4421
867.448	4352
867.579	4379
867.71	4402
867.841	4337
867.972	4455
868.103	4466
868.233	4459
868.364	4436
868.495	4474
868.625	4664
868.756	4729
868.886	4527
869.017	4637
869.147	4816
869.278	4759
869.408	4668
869.539	4637
869.669	4714
869.799	4664
869.929	4774
870.06	4729
870.19	4991
870.32	4987
870.45	4934
870.58	4987
870.71	5071
870.84	5105
870.97	4980
871.1	4870
871.23	5166
871.36	5109
871.489	5045
871.619	5060
871.749	5064
871.879	5071
872.008	5181
872.138	5006
872.267	4976
872.397	4877
872.526	4793
872.656	4767
872.785	4877
872.915	4965
873.044	5025
873.173	4995
873.303	4984
873.432	4957
873.561	4942
873.69	4858
873.819	4873
873.948	4889
874.077	4839
874.206	4752
874.335	4786
874.464	4892
874.593	5014
874.722	4911
874.851	5155
874.979	5060
875.108	5029
875.237	4957
875.365	4900
875.494	4866
875.623	5014
875.751	4824
875.88	4911
876.008	4953
876.136	5075
876.265	5223
876.393	5345
876.521	5235
876.65	5235
876.778	5113
876.906	5102
877.034	5025
877.162	5052
877.29	5010
877.418	5109
877.546	5033
877.674	5045
877.802	5090
877.93	5022
878.058	4953
878.185	4923
878.313	4949
878.441	4984
878.568	4774
878.696	4911
878.824	4995
878.951	4995
879.079	5143
879.206	5322
879.333	5113
879.461	4972
879.588	5048
879.715	5079
879.842	5254
879.97	5071
880.097	4797
880.224	4759
880.351	4805
880.478	4877
880.605	4767
880.732	4847
880.859	5109
880.986	4877
881.112	4980
881.239	4755
881.366	4691
881.493	4630
881.619	4542
881.746	4634
881.872	4645
881.999	4645
882.125	4710
882.252	4744
882.378	4831
882.505	4961
882.631	4820
882.757	4649
882.883	4683
883.01	4706
883.136	4691
883.262	4607
883.388	4653
883.514	4850
883.64	4885
883.766	4820
883.892	4630
884.018	4683
884.143	4885
884.269	4987
884.395	4649
884.52	4634
884.646	4592
884.772	4584
884.897	4561
885.023	4694
885.148	4706
885.274	4847
885.399	4793
885.524	4736
885.65	4698
885.775	4748
885.9	4710
886.025	4858
886.15	4782
886.275	4706
886.4	4687
886.525	4706
886.65	4656
886.775	4725
886.9	4946
887.025	5022
887.149	4828
887.274	4641
887.399	4584
887.523	4626
887.648	4584
887.773	4523
887.897	4755
888.021	4774
888.146	4645
888.27	4839
888.395	4881
888.519	4812
888.643	4790
888.767	4831
888.891	4679
889.015	4588
889.139	4679
889.263	4584
889.387	4736
889.511	4862
889.635	4816
889.759	4622
889.883	4660
890.006	4733
890.13	4835
890.254	4622
890.377	4679
890.501	4558
890.624	4580
890.748	4611
890.871	4497
890.995	4440
891.118	4371
891.241	4527
891.364	4527
891.488	4645
891.611	4466
891.734	4493
891.857	4580
891.98	4542
892.103	4637
892.226	4607
892.349	4531
892.471	4455
892.594	4592
892.717	4615
892.839	4573
892.962	4558
893.085	4672
893.207	4641
893.33	4443
893.452	4550
893.575	4668
893.697	4592
893.819	4755
893.941	4831
894.064	4763
894.186	4554
894.308	4580
894.43	4729
894.552	4843
894.674	4714
894.796	4558
894.918	4554
895.04	4558
895.161	4694
895.283	4653
895.405	4565
895.526	4603
895.648	4645
895.769	4675
895.891	4649
896.012	4786
896.134	4702
896.255	4687
896.376	4607
896.498	4630
896.619	4687
896.74	4668
896.861	4683
896.982	4923
897.103	5086
897.224	4812
897.345	4714
897.466	4634
897.587	4755
897.708	4824
897.828	4771
897.949	4664
898.07	4561
898.19	4618
898.311	4805
898.431	4637
898.552	4706
898.672	4820
898.792	4748
898.913	4710
899.033	4611
899.153	4504
899.273	4440
899.393	4440
899.513	4474
899.633	4500
899.753	4565
899.873	4481
899.993	4565
900.113	4531
900.232	4573
900.352	4527
900.472	4516
900.591	4424
900.711	4493
900.83	4440
900.95	4626
901.069	4698
901.189	4550
901.308	4379
901.427	4325
901.546	4344
901.665	4504
901.784	4455
901.904	4375
902.023	4322
902.141	4215
902.26	4158
902.379	4306
902.498	4272
902.617	4234
902.735	4394
902.854	4443
902.973	4341
903.091	4253
903.21	4188
903.328	4287
903.446	4318
903.565	4268
903.683	4390
903.801	4310
903.919	4432
904.038	4413
904.156	4325
904.274	4443
904.392	4394
904.51	4432
904.627	4451
904.745	4577
904.863	4592
904.981	4413
905.098	4272
905.216	4371
905.334	4436
905.451	4489
905.569	4421
905.686	4535
905.803	4584
905.921	4462
906.038	4584
906.155	4455
906.272	4424
906.389	4474
906.506	4352
906.623	4352
906.74	4402
906.857	4329
906.974	4363
907.091	4523
907.208	4668
907.324	4596
907.441	4466
907.557	4375
907.674	4333
907.79	4337
907.907	4375
908.023	4474
908.139	4466
908.256	4470
908.372	4417
908.488	4405
908.604	4322
908.72	4363
908.836	4386
908.952	4383
909.068	4432
909.184	4554
909.3	4497
909.415	4554
909.531	4588
909.647	4402
909.762	4398
909.878	4386
909.993	4409
910.108	4360
910.224	4428
910.339	4455
910.454	4432
910.57	4325
910.685	4303
910.8	4630
910.915	4569
911.03	4508
911.145	4348
911.259	4337
911.374	4383
911.489	4268
911.604	4261
911.718	4120
911.833	4223
911.947	4078
912.062	4036
912.176	4265
912.291	4253
912.405	4230
912.519	4447
912.633	4538
912.748	4333
912.862	4280
912.976	4219
913.09	4059
913.204	4150
913.318	4280
913.431	4352
913.545	4325
913.659	4481
913.772	4348
913.886	4223
914	4204
914.113	4375
914.226	4451
914.34	4432
914.453	4230
914.566	4443
914.68	4303
914.793	4322
914.906	4169
915.019	4181
915.132	4051
915.245	4166
915.358	4234
915.47	4181
915.583	4261
915.696	4276
915.809	4367
915.921	4440
916.034	4276
916.146	4310
916.259	4188
916.371	4394
916.483	4360
916.595	4265
916.708	4299
916.82	4333
916.932	4295
917.044	4303
917.156	4352
917.268	4215
917.38	4257
917.491	4291
917.603	4310
917.715	4409
917.826	4398
917.938	4348
918.049	4295
918.161	4375
918.272	4580
918.384	4554
918.495	4470
918.606	4341
918.717	4215
918.828	4341
918.939	4352
919.05	4227
919.161	4344
919.272	4101
919.383	4204
919.494	4405
919.604	4622
919.715	4424
919.826	4367
919.936	4413
920.047	4538
920.157	4462
920.267	4740
920.378	4531
920.488	4527
920.598	4668
920.708	4889
920.818	4729
920.928	4717
921.038	4927
921.148	4870
921.258	4592
921.368	4531
921.477	4485
921.587	4516
921.697	4417
921.806	4554
921.916	4451
922.025	4291
922.134	4280
922.244	4188
922.353	4329
922.462	4185
922.571	4120
922.68	4013
922.789	3960
922.898	4044
923.007	3991
923.116	4067
923.224	4055
923.333	4090
923.442	3994
923.55	4029
923.659	4036
923.767	4067
923.876	3975
923.984	4143
924.092	3968
924.201	4074
924.309	4055
924.417	4090
924.525	4078
924.633	4055
924.741	5090
924.849	3934
924.956	4150
925.064	3926
925.172	3926
925.279	3975
925.387	4025
925.494	4013
925.602	4200
925.709	4166
925.816	4029
925.924	4128
926.031	4261
926.138	4207
926.245	4204
926.352	4048
926.459	4253
926.566	4337
926.673	4086
926.779	4032
926.886	4025
926.993	3983
927.099	3975
927.206	3880
927.312	3983
927.419	4082
927.525	4010
927.631	4078
927.737	3953
927.843	3983
927.95	3846
928.056	3907
928.162	4002
928.267	4036
928.373	4710
928.479	4097
928.585	3876
928.69	3979
928.796	4086
928.901	3956
929.007	3873
929.112	4048
929.218	3998
929.323	3884
929.428	3918
929.533	4124
929.638	3926
929.743	3911
929.848	4067
929.953	4040
930.058	3907
930.163	3762
930.267	3835
930.372	4013
930.477	3812
930.581	4086
930.685	3934
930.79	3781
930.894	3934
930.998	3842
931.103	4006
931.207	3686
931.311	3690
931.415	3622
931.519	3507
931.623	3542
