Data from test_V78500241_133.txt Node
Date: Fri Mar 25 16:49:55 CST 2022
User: usil
Spectrometer: V785-0024
Trigger mode: 0
Integration Time (sec): 4.000000E-1
Scans to average: 1
Nonlinearity correction enabled: false
Boxcar width: 0
Storing dark spectrum: false
XAxis mode: Wavelengths
Number of Pixels in Spectrum: 1024
>>>>>Begin Spectral Data<<<<<
801.071	8046
801.214	8001
801.356	7875
801.499	7875
801.641	7841
801.783	7852
801.926	8016
802.068	7921
802.211	7970
802.353	8031
802.496	7909
802.638	7902
802.78	8016
802.923	7951
803.065	7841
803.208	7856
803.35	7970
803.492	8107
803.635	8119
803.777	7982
803.919	8107
804.061	8408
804.204	8134
804.346	8016
804.488	7887
804.63	8142
804.773	7940
804.915	8103
805.057	8252
805.199	8088
805.341	8237
805.483	8282
805.626	8172
805.768	8050
805.91	8168
806.052	8149
806.194	8103
806.336	8336
806.478	8180
806.62	8073
806.762	8214
806.904	8248
807.046	8412
807.188	8309
807.33	8214
807.472	8301
807.614	8157
807.756	8096
807.898	8012
808.04	7909
808.182	7913
808.324	7837
808.465	7868
808.607	8058
808.749	8073
808.891	8202
809.033	8271
809.174	8172
809.316	8024
809.458	7982
809.6	7951
809.741	8031
809.883	8092
810.025	8134
810.166	8103
810.308	8100
810.45	8008
810.591	7906
810.733	7734
810.875	7677
811.016	7525
811.158	7483
811.299	7597
811.441	7750
811.582	7784
811.724	7590
811.865	7590
812.007	7693
812.148	7632
812.29	7658
812.431	7887
812.573	7959
812.714	7997
812.855	8225
812.997	8263
813.138	8438
813.279	8313
813.421	8172
813.562	8062
813.703	7925
813.845	7734
813.986	7499
814.127	7285
814.268	7149
814.41	7343
814.551	7232
814.692	7255
814.833	7072
814.974	7187
815.115	7156
815.256	7034
815.397	6863
815.539	6977
815.68	6871
815.821	6795
815.962	6878
816.103	6844
816.244	6772
816.385	6654
816.526	6593
816.666	6566
816.807	6350
816.948	6464
817.089	6494
817.23	6452
817.371	6467
817.512	6460
817.653	6460
817.793	6429
817.934	6357
818.075	6433
818.216	6418
818.356	6464
818.497	6273
818.638	6159
818.778	6178
818.919	6163
819.06	6197
819.2	6304
819.341	6304
819.481	6456
819.622	6498
819.762	6764
819.903	6715
820.043	6604
820.184	6627
820.324	6582
820.465	6696
820.605	6650
820.746	6654
820.886	6536
821.026	6795
821.167	6772
821.307	6806
821.447	6776
821.588	6684
821.728	6604
821.868	6544
822.008	6369
822.149	6441
822.289	6384
822.429	6136
822.569	6136
822.709	6125
822.849	5950
822.99	5908
823.13	5954
823.27	5999
823.41	5824
823.55	5832
823.69	5771
823.83	5832
823.97	5737
824.11	5558
824.25	5490
824.389	5619
824.529	5608
824.669	5554
824.809	5680
824.949	5737
825.089	5668
825.228	5566
825.368	5402
825.508	5376
825.648	5337
825.787	5383
825.927	5414
826.067	5353
826.206	5307
826.346	5337
826.485	5406
826.625	5395
826.765	5520
826.904	5459
827.044	5307
827.183	5269
827.323	5109
827.462	5265
827.601	5201
827.741	5140
827.88	5277
828.02	5109
828.159	5239
828.298	5265
828.437	5402
828.577	5326
828.716	5505
828.855	5391
828.994	5181
829.134	5181
829.273	5193
829.412	5166
829.551	5166
829.69	5227
829.829	5197
829.968	5372
830.107	5326
830.246	5261
830.385	5227
830.524	5155
830.663	5025
830.802	4946
830.941	4889
831.08	4862
831.219	4968
831.357	5010
831.496	5193
831.635	4942
831.774	4892
831.913	4873
832.051	4725
832.19	4755
832.329	4843
832.467	4729
832.606	4702
832.744	4694
832.883	4790
833.022	4755
833.16	4790
833.299	4862
833.437	4824
833.576	4870
833.714	4866
833.852	4873
833.991	4946
834.129	4957
834.267	4972
834.406	4934
834.544	4995
834.682	5006
834.821	5033
834.959	5174
835.097	4949
835.235	5151
835.373	5113
835.511	5102
835.65	5014
835.788	5041
835.926	4991
836.064	4862
836.202	4946
836.34	5220
836.478	5220
836.615	5147
836.753	5235
836.891	5273
837.029	5208
837.167	5174
837.305	5155
837.443	5189
837.58	5075
837.718	5254
837.856	5193
837.993	5220
838.131	5246
838.269	5204
838.406	5250
838.544	5185
838.681	5037
838.819	5048
838.956	4919
839.094	4976
839.231	4965
839.369	5052
839.506	5433
839.643	5288
839.781	5109
839.918	5022
840.055	5132
840.193	5147
840.33	5132
840.467	5162
840.604	5151
840.742	5425
840.879	5075
841.016	5071
841.153	5159
841.29	5410
841.427	5360
841.564	5299
841.701	5383
841.838	5258
841.975	5269
842.112	5258
842.249	5109
842.385	5143
842.522	5383
842.659	5227
842.796	5136
842.933	5204
843.069	5181
843.206	5132
843.343	5261
843.479	5246
843.616	5265
843.752	5052
843.889	5033
844.025	5273
844.162	5022
844.298	5220
844.435	5105
844.571	5052
844.708	5197
844.844	5311
844.98	5299
845.117	5303
845.253	5185
845.389	5083
845.525	5181
845.661	5166
845.798	5045
845.934	5109
846.07	5060
846.206	5212
846.342	5311
846.478	5181
846.614	5025
846.75	4999
846.886	4965
847.022	5166
847.158	4980
847.294	5079
847.429	5147
847.565	5056
847.701	5261
847.837	4877
847.972	4820
848.108	4980
848.244	4930
848.379	4782
848.515	4755
848.65	4717
848.786	4736
848.921	4782
849.057	4904
849.192	4987
849.328	4786
849.463	4881
849.598	4759
849.734	4755
849.869	4759
850.004	4660
850.14	4710
850.275	4599
850.41	4550
850.545	4569
850.68	4645
850.815	4607
850.95	4626
851.085	4862
851.22	4721
851.355	4664
851.49	4599
851.625	4622
851.76	4656
851.895	4588
852.03	4527
852.165	4702
852.299	4714
852.434	4721
852.569	4752
852.703	4790
852.838	4877
852.973	4949
853.107	4904
853.242	4748
853.376	4679
853.511	4618
853.645	4599
853.78	4809
853.914	4698
854.048	4714
854.183	4710
854.317	4733
854.451	4850
854.585	4714
854.72	4656
854.854	4786
854.988	4569
855.122	4691
855.256	4527
855.39	4660
855.524	4774
855.658	4733
855.792	4702
855.926	4729
856.06	4759
856.194	4797
856.327	4714
856.461	4630
856.595	4656
856.729	4630
856.862	4793
856.996	4656
857.13	4744
857.263	4729
857.397	4828
857.53	4645
857.664	4763
857.797	4782
857.931	4774
858.064	4660
858.197	4774
858.331	4675
858.464	4653
858.597	4603
858.731	4626
858.864	4645
858.997	4653
859.13	4626
859.263	4679
859.396	4691
859.529	4554
859.662	4546
859.795	4592
859.928	4626
860.061	4786
860.194	4767
860.327	4615
860.46	4641
860.592	4687
860.725	4691
860.858	4736
860.99	4596
861.123	4550
861.256	4546
861.388	4630
861.521	5383
861.653	4489
861.786	4527
861.918	4470
862.05	4500
862.183	4542
862.315	4603
862.447	4691
862.58	4565
862.712	4459
862.844	4344
862.976	4481
863.108	4493
863.24	4870
863.372	4333
863.504	4436
863.636	4451
863.768	4481
863.9	4459
864.032	4413
864.164	4462
864.296	4474
864.428	4565
864.559	4538
864.691	4504
864.823	4523
864.954	4569
865.086	4493
865.217	4466
865.349	4489
865.48	4462
865.612	4512
865.743	4679
865.875	4489
866.006	4440
866.137	4489
866.269	4489
866.4	4440
866.531	4424
866.662	4421
866.793	4447
866.924	4428
867.055	4538
867.186	4440
867.317	4443
867.448	4367
867.579	4413
867.71	4390
867.841	4402
867.972	4497
868.103	4447
868.233	4413
868.364	4459
868.495	4500
868.625	4622
868.756	4820
868.886	4607
869.017	4626
869.147	4793
869.278	4790
869.408	4672
869.539	4592
869.669	4706
869.799	4694
869.929	4835
870.06	4736
870.19	4972
870.32	4904
870.45	4949
870.58	4995
870.71	5121
870.84	5113
870.97	4919
871.1	4946
871.23	5159
871.36	5143
871.489	5006
871.619	5136
871.749	5064
871.879	5147
872.008	5204
872.138	5094
872.267	4991
872.397	4847
872.526	4854
872.656	4744
872.785	4831
872.915	4972
873.044	5056
873.173	4991
873.303	4980
873.432	4987
873.561	4968
873.69	4934
873.819	4892
873.948	4942
874.077	4801
874.206	4759
874.335	4854
874.464	4919
874.593	5075
874.722	4953
874.851	5174
874.979	5071
875.108	5060
875.237	4930
875.365	4923
875.494	4900
875.623	4946
875.751	4847
875.88	4866
876.008	4980
876.136	5025
876.265	5216
876.393	5334
876.521	5322
876.65	5246
876.778	5159
876.906	5113
877.034	5045
877.162	5037
877.29	5033
877.418	5079
877.546	5048
877.674	5014
877.802	5025
877.93	5060
878.058	4934
878.185	4873
878.313	4987
878.441	4953
878.568	4801
878.696	4877
878.824	4968
878.951	4972
879.079	5140
879.206	5307
879.333	5136
879.461	4972
879.588	4987
879.715	5117
879.842	5197
879.97	5071
880.097	4843
880.224	4767
880.351	4862
880.478	4835
880.605	4843
880.732	4828
880.859	5079
880.986	4911
881.112	4972
881.239	4790
881.366	4698
881.493	4656
881.619	4622
881.746	4637
881.872	4675
881.999	4603
882.125	4725
882.252	4801
882.378	4835
882.505	4923
882.631	4797
882.757	4694
882.883	4710
883.01	4774
883.136	4721
883.262	4645
883.388	4611
883.514	4847
883.64	4866
883.766	4801
883.892	4706
884.018	4736
884.143	4900
884.269	5029
884.395	4694
884.52	4668
884.646	4687
884.772	4596
884.897	4584
885.023	4683
885.148	4782
885.274	4881
885.399	4809
885.524	4717
885.65	4691
885.775	4786
885.9	4767
886.025	4866
886.15	4835
886.275	4733
886.4	4656
886.525	4702
886.65	4763
886.775	4698
886.9	4949
887.025	5060
887.149	4767
887.274	4653
887.399	4603
887.523	4626
887.648	4561
887.773	4538
887.897	4771
888.021	4812
888.146	4691
888.27	4809
888.395	4934
888.519	4748
888.643	4809
888.767	4854
888.891	4660
889.015	4569
889.139	4630
889.263	4626
889.387	4801
889.511	4850
889.635	4854
889.759	4660
889.883	4668
890.006	4725
890.13	4854
890.254	4660
890.377	4736
890.501	4561
890.624	4550
890.748	4630
890.871	4554
890.995	4443
891.118	4421
891.241	4535
891.364	4535
891.488	4664
891.611	4497
891.734	4603
891.857	4603
891.98	4550
892.103	4691
892.226	4584
892.349	4538
892.471	4405
892.594	4550
892.717	4607
892.839	4618
892.962	4622
893.085	4706
893.207	4577
893.33	4474
893.452	4542
893.575	4653
893.697	4611
893.819	4816
893.941	4850
894.064	4782
894.186	4603
894.308	4618
894.43	4736
894.552	4843
894.674	4740
894.796	4516
894.918	4573
895.04	4641
895.161	4759
895.283	4668
895.405	4592
895.526	4641
895.648	4729
895.769	4672
895.891	4698
896.012	4725
896.134	4710
896.255	4675
896.376	4702
896.498	4637
896.619	4660
896.74	4592
896.861	4687
896.982	4923
897.103	5079
897.224	4812
897.345	4801
897.466	4672
897.587	4774
897.708	4866
897.828	4828
897.949	4702
898.07	4588
898.19	4660
898.311	4828
898.431	4675
898.552	4717
898.672	4831
898.792	4812
898.913	4729
899.033	4611
899.153	4516
899.273	4440
899.393	4500
899.513	4554
899.633	4535
899.753	4592
899.873	4535
899.993	4611
900.113	4542
900.232	4611
900.352	4558
900.472	4493
900.591	4386
900.711	4531
900.83	4489
900.95	4584
901.069	4698
901.189	4535
901.308	4451
901.427	4371
901.546	4394
901.665	4508
901.784	4504
901.904	4409
902.023	4322
902.141	4169
902.26	4169
902.379	4356
902.498	4276
902.617	4249
902.735	4356
902.854	4424
902.973	4409
903.091	4173
903.21	4230
903.328	4363
903.446	4284
903.565	4284
903.683	4394
903.801	4322
903.919	4352
904.038	4440
904.156	4367
904.274	4455
904.392	4337
904.51	4402
904.627	4478
904.745	4573
904.863	4664
904.981	4390
905.098	4310
905.216	4325
905.334	4421
905.451	4443
905.569	4459
905.686	4531
905.803	4569
905.921	4447
906.038	4569
906.155	4451
906.272	4424
906.389	4436
906.506	4371
906.623	4386
906.74	4421
906.857	4295
906.974	4402
907.091	4622
907.208	4649
907.324	4637
907.441	4512
907.557	4379
907.674	4352
907.79	4310
907.907	4405
908.023	4516
908.139	4497
908.256	4466
908.372	4489
908.488	4451
908.604	4352
908.72	4333
908.836	4424
908.952	4383
909.068	4424
909.184	4615
909.3	4531
909.415	4679
909.531	4603
909.647	4390
909.762	4447
909.878	4337
909.993	4481
910.108	4466
910.224	4455
910.339	4497
910.454	4428
910.57	4451
910.685	4390
910.8	4763
910.915	4664
911.03	4550
911.145	4405
911.259	4341
911.374	4481
911.489	4329
911.604	4341
911.718	4219
911.833	4287
911.947	4169
912.062	4105
912.176	4284
912.291	4284
912.405	4333
912.519	4542
912.633	4554
912.748	4413
912.862	4383
912.976	4272
913.09	4166
913.204	4230
913.318	4299
913.431	4386
913.545	4394
913.659	4493
913.772	4375
913.886	4299
914	4318
914.113	4443
914.226	4489
914.34	4508
914.453	4333
914.566	4516
914.68	4390
914.793	4402
914.906	4192
915.019	4223
915.132	4147
915.245	4246
915.358	4265
915.47	4318
915.583	4314
915.696	4348
915.809	4527
915.921	4466
916.034	4352
916.146	4322
916.259	4276
916.371	4409
916.483	4413
916.595	4325
916.708	4329
916.82	4375
916.932	4413
917.044	4413
917.156	4394
917.268	4261
917.38	4318
917.491	4379
917.603	4409
917.715	4508
917.826	4470
917.938	4421
918.049	4295
918.161	4470
918.272	4649
918.384	4550
918.495	4538
918.606	4367
918.717	4287
918.828	4390
918.939	4413
919.05	4299
919.161	4405
919.272	4204
919.383	4284
919.494	4500
919.604	4714
919.715	4485
919.826	4421
919.936	4485
920.047	4577
920.157	4531
920.267	4744
920.378	4611
920.488	4554
920.598	4786
920.708	4911
920.818	4801
920.928	4889
921.038	5033
921.148	4934
921.258	4672
921.368	4634
921.477	4569
921.587	4478
921.697	4394
921.806	4645
921.916	4478
922.025	4314
922.134	4329
922.244	4310
922.353	4360
922.462	4242
922.571	4177
922.68	4071
922.789	3994
922.898	4097
923.007	4002
923.116	4131
923.224	4090
923.333	4101
923.442	4032
923.55	4002
923.659	4093
923.767	4154
923.876	4002
923.984	4169
924.092	4017
924.201	4086
924.309	4128
924.417	4177
924.525	4090
924.633	4166
924.741	4930
924.849	3998
924.956	4185
925.064	3991
925.172	3937
925.279	4029
925.387	4128
925.494	4078
925.602	4253
925.709	4211
925.816	4074
925.924	4124
926.031	4295
926.138	4246
926.245	4238
926.352	4154
926.459	4268
926.566	4383
926.673	4143
926.779	4150
926.886	4162
926.993	4036
927.099	4021
927.206	3991
927.312	3972
927.419	4071
927.525	4086
927.631	4124
927.737	4010
927.843	3975
927.95	3907
928.056	3937
928.162	4040
928.267	4162
928.373	4656
928.479	4166
928.585	3937
928.69	4093
928.796	4131
928.901	4006
929.007	3918
929.112	4044
929.218	4010
929.323	4013
929.428	3998
929.533	4169
929.638	3941
929.743	4040
929.848	4071
929.953	4071
930.058	3983
930.163	3911
930.267	3892
930.372	4044
930.477	3838
930.581	4124
930.685	3975
930.79	3888
930.894	3945
930.998	3896
931.103	4044
931.207	3762
931.311	3728
931.415	3736
931.519	3606
931.623	3622
