Data from test_V78500241_1074.txt Node
Date: Fri Mar 25 16:56:28 CST 2022
User: usil
Spectrometer: V785-0024
Trigger mode: 0
Integration Time (sec): 4.000000E-1
Scans to average: 1
Nonlinearity correction enabled: false
Boxcar width: 0
Storing dark spectrum: false
XAxis mode: Wavelengths
Number of Pixels in Spectrum: 1024
>>>>>Begin Spectral Data<<<<<
801.071	8062
801.214	7970
801.356	7925
801.499	7830
801.641	7803
801.783	7826
801.926	7875
802.068	7898
802.211	7928
802.353	7955
802.496	7799
802.638	7795
802.78	7913
802.923	7906
803.065	7864
803.208	7814
803.35	7970
803.492	8073
803.635	8130
803.777	8046
803.919	8115
804.061	8438
804.204	8069
804.346	7997
804.488	7997
804.63	8005
804.773	8043
804.915	8062
805.057	8309
805.199	8111
805.341	8248
805.483	8324
805.626	8138
805.768	8103
805.91	8233
806.052	8199
806.194	8115
806.336	8252
806.478	8115
806.62	7993
806.762	8149
806.904	8157
807.046	8473
807.188	8256
807.33	8290
807.472	8191
807.614	8149
807.756	8077
807.898	8012
808.04	7890
808.182	7887
808.324	7898
808.465	7909
808.607	7986
808.749	8123
808.891	8218
809.033	8294
809.174	8138
809.316	7986
809.458	8039
809.6	8001
809.741	7997
809.883	7978
810.025	8077
810.166	8005
810.308	8005
810.45	8050
810.591	7921
810.733	7742
810.875	7628
811.016	7464
811.158	7441
811.299	7518
811.441	7704
811.582	7655
811.724	7548
811.865	7567
812.007	7628
812.148	7567
812.29	7594
812.431	7715
812.573	7849
812.714	7947
812.855	8092
812.997	8214
813.138	8328
813.279	8199
813.421	8157
813.562	7970
813.703	7871
813.845	7799
813.986	7434
814.127	7194
814.268	7202
814.41	7206
814.551	7164
814.692	7145
814.833	7038
814.974	7114
815.115	7080
815.256	7000
815.397	6867
815.539	6867
815.68	6783
815.821	6768
815.962	6890
816.103	6779
816.244	6715
816.385	6604
816.526	6608
816.666	6448
816.807	6319
816.948	6422
817.089	6441
817.23	6388
817.371	6395
817.512	6403
817.653	6376
817.793	6388
817.934	6388
818.075	6426
818.216	6365
818.356	6414
818.497	6232
818.638	6121
818.778	6194
818.919	6117
819.06	6136
819.2	6308
819.341	6300
819.481	6350
819.622	6483
819.762	6757
819.903	6654
820.043	6551
820.184	6536
820.324	6585
820.465	6650
820.605	6715
820.746	6662
820.886	6475
821.026	6677
821.167	6692
821.307	6821
821.447	6719
821.588	6677
821.728	6578
821.868	6460
822.008	6281
822.149	6361
822.289	6327
822.429	6140
822.569	6083
822.709	6117
822.849	5870
822.99	5946
823.13	5912
823.27	5912
823.41	5783
823.55	5828
823.69	5764
823.83	5756
823.97	5608
824.11	5535
824.25	5455
824.389	5448
824.529	5558
824.669	5501
824.809	5611
824.949	5577
825.089	5619
825.228	5608
825.368	5414
825.508	5318
825.648	5288
825.787	5383
825.927	5334
826.067	5246
826.206	5269
826.346	5376
826.485	5372
826.625	5398
826.765	5528
826.904	5436
827.044	5231
827.183	5181
827.323	5086
827.462	5212
827.601	5136
827.741	5166
827.88	5162
828.02	5056
828.159	5212
828.298	5261
828.437	5311
828.577	5261
828.716	5482
828.855	5284
828.994	5147
829.134	5090
829.273	5197
829.412	5071
829.551	5124
829.69	5155
829.829	5239
829.968	5330
830.107	5235
830.246	5315
830.385	5128
830.524	5124
830.663	5048
830.802	4946
830.941	4908
831.08	4831
831.219	5029
831.357	4946
831.496	5124
831.635	4915
831.774	4824
831.913	4809
832.051	4717
832.19	4733
832.329	4786
832.467	4694
832.606	4687
832.744	4752
832.883	4717
833.022	4748
833.16	4774
833.299	4835
833.437	4771
833.576	4828
833.714	4854
833.852	4809
833.991	4942
834.129	4930
834.267	4881
834.406	4892
834.544	4946
834.682	4949
834.821	4995
834.959	5128
835.097	4965
835.235	5162
835.373	5052
835.511	5086
835.65	5003
835.788	5014
835.926	4881
836.064	4904
836.202	4930
836.34	5140
836.478	5212
836.615	5109
836.753	5220
836.891	5258
837.029	5280
837.167	5227
837.305	5109
837.443	5136
837.58	5090
837.718	5246
837.856	5189
837.993	5155
838.131	5185
838.269	5197
838.406	5151
838.544	5178
838.681	5029
838.819	4987
838.956	4911
839.094	4847
839.231	4976
839.369	5071
839.506	5425
839.643	5322
839.781	5033
839.918	5003
840.055	5079
840.193	5094
840.33	5128
840.467	5136
840.604	5170
840.742	5486
840.879	5064
841.016	5083
841.153	5159
841.29	5387
841.427	5292
841.564	5303
841.701	5357
841.838	5273
841.975	5258
842.112	5254
842.249	5117
842.385	5071
842.522	5246
842.659	5193
842.796	5193
842.933	5143
843.069	5159
843.206	5083
843.343	5273
843.479	5185
843.616	5254
843.752	4972
843.889	4965
844.025	5159
844.162	5022
844.298	5174
844.435	5056
844.571	5014
844.708	5170
844.844	5280
844.98	5280
845.117	5311
845.253	5086
845.389	5128
845.525	5178
845.661	5079
845.798	5029
845.934	5090
846.07	5022
846.206	5166
846.342	5204
846.478	5151
846.614	4961
846.75	4908
846.886	4919
847.022	5102
847.158	4984
847.294	5075
847.429	5079
847.565	5041
847.701	5296
847.837	4889
847.972	4771
848.108	4987
848.244	4915
848.379	4767
848.515	4698
848.65	4710
848.786	4736
848.921	4786
849.057	4858
849.192	4885
849.328	4774
849.463	4797
849.598	4740
849.734	4752
849.869	4691
850.004	4603
850.14	4649
850.275	4546
850.41	4508
850.545	4554
850.68	4641
850.815	4580
850.95	4596
851.085	4767
851.22	4744
851.355	4637
851.49	4588
851.625	4603
851.76	4592
851.895	4527
852.03	4497
852.165	4592
852.299	4706
852.434	4763
852.569	4668
852.703	4721
852.838	4835
852.973	4892
853.107	4889
853.242	4733
853.376	4653
853.511	4558
853.645	4645
853.78	4797
853.914	4653
854.048	4622
854.183	4630
854.317	4687
854.451	4843
854.585	4653
854.72	4660
854.854	4771
854.988	4580
855.122	4656
855.256	4508
855.39	4630
855.524	4786
855.658	4736
855.792	4710
855.926	4702
856.06	4752
856.194	4778
856.327	4679
856.461	4565
856.595	4626
856.729	4615
856.862	4721
856.996	4679
857.13	4710
857.263	4786
857.397	4771
857.53	4687
857.664	4668
857.797	4767
857.931	4812
858.064	4656
858.197	4702
858.331	4641
858.464	4554
858.597	4531
858.731	4584
858.864	4641
858.997	4565
859.13	4645
859.263	4679
859.396	4672
859.529	4554
859.662	4497
859.795	4508
859.928	4603
860.061	4771
860.194	4755
860.327	4611
860.46	4565
860.592	4736
860.725	4694
860.858	4679
860.99	4577
861.123	4497
861.256	4500
861.388	4596
861.521	5273
861.653	4466
861.786	4402
861.918	4466
862.05	4512
862.183	4504
862.315	4599
862.447	4660
862.58	4565
862.712	4352
862.844	4337
862.976	4443
863.108	4432
863.24	4889
863.372	4280
863.504	4451
863.636	4383
863.768	4466
863.9	4421
864.032	4341
864.164	4379
864.296	4462
864.428	4554
864.559	4546
864.691	4519
864.823	4512
864.954	4485
865.086	4527
865.217	4459
865.349	4409
865.48	4432
865.612	4455
865.743	4596
865.875	4451
866.006	4451
866.137	4440
866.269	4443
866.4	4409
866.531	4436
866.662	4451
866.793	4379
866.924	4417
867.055	4466
867.186	4455
867.317	4451
867.448	4325
867.579	4363
867.71	4367
867.841	4306
867.972	4417
868.103	4459
868.233	4455
868.364	4405
868.495	4489
868.625	4622
868.756	4748
868.886	4554
869.017	4618
869.147	4721
869.278	4733
869.408	4645
869.539	4615
869.669	4725
869.799	4675
869.929	4694
870.06	4729
870.19	4938
870.32	4915
870.45	4900
870.58	5010
870.71	5140
870.84	5048
870.97	4904
871.1	4900
871.23	5102
871.36	5143
871.489	4980
871.619	5086
871.749	5090
871.879	5098
872.008	5121
872.138	5010
872.267	4976
872.397	4835
872.526	4793
872.656	4698
872.785	4767
872.915	4900
873.044	5045
873.173	4866
873.303	4919
873.432	4911
873.561	4965
873.69	4873
873.819	4847
873.948	4942
874.077	4805
874.206	4733
874.335	4774
874.464	4915
874.593	5014
874.722	4968
874.851	5067
874.979	5010
875.108	5003
875.237	4896
875.365	4847
875.494	4847
875.623	4927
875.751	4790
875.88	4889
876.008	4930
876.136	4987
876.265	5181
876.393	5246
876.521	5242
876.65	5208
876.778	5159
876.906	5045
877.034	4984
877.162	4999
877.29	4946
877.418	5056
877.546	5056
877.674	5037
877.802	4968
877.93	4976
878.058	4995
878.185	4828
878.313	4911
878.441	4930
878.568	4774
878.696	4831
878.824	4934
878.951	5025
879.079	5113
879.206	5246
879.333	5060
879.461	4908
879.588	5010
879.715	5109
879.842	5181
879.97	5014
880.097	4797
880.224	4729
880.351	4774
880.478	4847
880.605	4816
880.732	4790
880.859	5056
880.986	4854
881.112	4904
881.239	4812
881.366	4656
881.493	4603
881.619	4618
881.746	4649
881.872	4637
881.999	4626
882.125	4641
882.252	4809
882.378	4816
882.505	4892
882.631	4790
882.757	4641
882.883	4759
883.01	4752
883.136	4660
883.262	4634
883.388	4615
883.514	4778
883.64	4873
883.766	4736
883.892	4641
884.018	4717
884.143	4892
884.269	5006
884.395	4607
884.52	4584
884.646	4634
884.772	4535
884.897	4569
885.023	4656
885.148	4752
885.274	4812
885.399	4778
885.524	4710
885.65	4656
885.775	4706
885.9	4630
886.025	4820
886.15	4752
886.275	4672
886.4	4634
886.525	4694
886.65	4679
886.775	4694
886.9	4854
887.025	4984
887.149	4797
887.274	4615
887.399	4550
887.523	4596
887.648	4554
887.773	4565
887.897	4771
888.021	4801
888.146	4694
888.27	4771
888.395	4934
888.519	4767
888.643	4843
888.767	4782
888.891	4618
889.015	4596
889.139	4675
889.263	4603
889.387	4717
889.511	4850
889.635	4805
889.759	4634
889.883	4592
890.006	4675
890.13	4805
890.254	4622
890.377	4656
890.501	4516
890.624	4508
890.748	4649
890.871	4531
890.995	4436
891.118	4436
891.241	4531
891.364	4512
891.488	4607
891.611	4481
891.734	4607
891.857	4592
891.98	4512
892.103	4656
892.226	4588
892.349	4485
892.471	4443
892.594	4516
892.717	4607
892.839	4603
892.962	4584
893.085	4653
893.207	4569
893.33	4466
893.452	4485
893.575	4668
893.697	4516
893.819	4755
893.941	4782
894.064	4733
894.186	4550
894.308	4580
894.43	4744
894.552	4820
894.674	4733
894.796	4523
894.918	4546
895.04	4531
895.161	4679
895.283	4668
895.405	4573
895.526	4641
895.648	4691
895.769	4679
895.891	4683
896.012	4694
896.134	4706
896.255	4649
896.376	4618
896.498	4596
896.619	4679
896.74	4618
896.861	4645
896.982	4953
897.103	5064
897.224	4805
897.345	4725
897.466	4603
897.587	4729
897.708	4870
897.828	4733
897.949	4649
898.07	4569
898.19	4630
898.311	4816
898.431	4653
898.552	4710
898.672	4801
898.792	4778
898.913	4714
899.033	4656
899.153	4500
899.273	4421
899.393	4470
899.513	4504
899.633	4500
899.753	4558
899.873	4500
899.993	4588
900.113	4519
900.232	4580
900.352	4546
900.472	4481
900.591	4375
900.711	4519
900.83	4459
900.95	4603
901.069	4664
901.189	4535
901.308	4344
901.427	4344
901.546	4341
901.665	4436
901.784	4481
901.904	4394
902.023	4341
902.141	4211
902.26	4185
902.379	4291
902.498	4238
902.617	4188
902.735	4341
902.854	4405
902.973	4314
903.091	4150
903.21	4234
903.328	4265
903.446	4238
903.565	4230
903.683	4356
903.801	4272
903.919	4413
904.038	4424
904.156	4367
904.274	4455
904.392	4398
904.51	4405
904.627	4447
904.745	4542
904.863	4603
904.981	4379
905.098	4322
905.216	4386
905.334	4386
905.451	4459
905.569	4386
905.686	4558
905.803	4592
905.921	4390
906.038	4516
906.155	4481
906.272	4383
906.389	4447
906.506	4329
906.623	4348
906.74	4318
906.857	4280
906.974	4329
907.091	4538
907.208	4729
907.324	4535
907.441	4478
907.557	4318
907.674	4306
907.79	4291
907.907	4367
908.023	4432
908.139	4455
908.256	4436
908.372	4443
908.488	4424
908.604	4363
908.72	4337
908.836	4363
908.952	4341
909.068	4421
909.184	4519
909.3	4508
909.415	4485
909.531	4527
909.647	4379
909.762	4348
909.878	4344
909.993	4405
910.108	4398
910.224	4394
910.339	4386
910.454	4424
910.57	4379
910.685	4306
910.8	4649
910.915	4592
911.03	4443
911.145	4265
911.259	4265
911.374	4341
911.489	4268
911.604	4265
911.718	4147
911.833	4173
911.947	4059
912.062	4013
912.176	4173
912.291	4169
912.405	4196
912.519	4432
912.633	4508
912.748	4356
912.862	4287
912.976	4181
913.09	4109
913.204	4177
913.318	4242
913.431	4360
913.545	4325
913.659	4386
913.772	4333
913.886	4215
914	4150
914.113	4352
914.226	4386
914.34	4398
914.453	4234
914.566	4417
914.68	4268
914.793	4356
914.906	4158
915.019	4105
915.132	4071
915.245	4169
915.358	4185
915.47	4207
915.583	4253
915.696	4272
915.809	4390
915.921	4421
916.034	4276
916.146	4227
916.259	4246
916.371	4348
916.483	4352
916.595	4215
916.708	4360
916.82	4329
916.932	4341
917.044	4287
917.156	4322
917.268	4215
917.38	4265
917.491	4306
917.603	4356
917.715	4474
917.826	4436
917.938	4375
918.049	4207
918.161	4341
918.272	4569
918.384	4535
918.495	4451
918.606	4291
918.717	4287
918.828	4314
918.939	4379
919.05	4280
919.161	4348
919.272	4169
919.383	4249
919.494	4470
919.604	4641
919.715	4481
919.826	4348
919.936	4409
920.047	4538
920.157	4580
920.267	4687
920.378	4618
920.488	4554
920.598	4733
920.708	4904
920.818	4755
920.928	4740
921.038	4980
921.148	4938
921.258	4634
921.368	4607
921.477	4527
921.587	4504
921.697	4436
921.806	4577
921.916	4470
922.025	4276
922.134	4280
922.244	4219
922.353	4375
922.462	4246
922.571	4204
922.68	4032
922.789	3979
922.898	4071
923.007	4025
923.116	4128
923.224	4124
923.333	4082
923.442	4010
923.55	4051
923.659	4059
923.767	4150
923.876	4021
923.984	4097
924.092	3991
924.201	4150
924.309	4112
924.417	4173
924.525	4067
924.633	4143
924.741	5083
924.849	3903
924.956	4150
925.064	3964
925.172	3930
925.279	3994
925.387	4101
925.494	4112
925.602	4253
925.709	4215
925.816	4112
925.924	4185
926.031	4291
926.138	4215
926.245	4234
926.352	4139
926.459	4265
926.566	4341
926.673	4188
926.779	4116
926.886	4101
926.993	3994
927.099	3991
927.206	3983
927.312	3975
927.419	4078
927.525	4051
927.631	4128
927.737	4025
927.843	3979
927.95	3869
928.056	3911
928.162	3994
928.267	4078
928.373	4683
928.479	4135
928.585	3892
928.69	4044
928.796	4109
928.901	4013
929.007	3896
929.112	4002
929.218	3998
929.323	3983
929.428	3987
929.533	4143
929.638	3953
929.743	3960
929.848	4029
929.953	4032
930.058	3934
930.163	3854
930.267	3869
930.372	4036
930.477	3804
930.581	4086
930.685	3979
930.79	3854
930.894	3896
930.998	3915
931.103	4082
931.207	3732
931.311	3724
931.415	3709
931.519	3553
931.623	3572
