Data from test_V78500241_471.txt Node
Date: Fri Mar 25 16:52:16 CST 2022
User: usil
Spectrometer: V785-0024
Trigger mode: 0
Integration Time (sec): 4.000000E-1
Scans to average: 1
Nonlinearity correction enabled: false
Boxcar width: 0
Storing dark spectrum: false
XAxis mode: Wavelengths
Number of Pixels in Spectrum: 1024
>>>>>Begin Spectral Data<<<<<
801.071	8130
801.214	8024
801.356	7963
801.499	7811
801.641	7799
801.783	7913
801.926	8065
802.068	8020
802.211	8043
802.353	7989
802.496	7925
802.638	7959
802.78	7917
802.923	7944
803.065	7925
803.208	7879
803.35	7944
803.492	8111
803.635	8187
803.777	7982
803.919	8138
804.061	8454
804.204	8149
804.346	8073
804.488	7944
804.63	8054
804.773	8081
804.915	8062
805.057	8309
805.199	8168
805.341	8267
805.483	8336
805.626	8134
805.768	8111
805.91	8153
806.052	8279
806.194	8130
806.336	8404
806.478	8195
806.62	8115
806.762	8244
806.904	8305
807.046	8431
807.188	8423
807.33	8294
807.472	8301
807.614	8145
807.756	8286
807.898	8054
808.04	7883
808.182	7982
808.324	7967
808.465	7947
808.607	8031
808.749	8107
808.891	8225
809.033	8351
809.174	8233
809.316	8077
809.458	8046
809.6	7989
809.741	8069
809.883	8054
810.025	8134
810.166	8111
810.308	7986
810.45	8035
810.591	7951
810.733	7700
810.875	7719
811.016	7578
811.158	7510
811.299	7666
811.441	7784
811.582	7708
811.724	7643
811.865	7540
812.007	7647
812.148	7597
812.29	7647
812.431	7822
812.573	7925
812.714	8043
812.855	8267
812.997	8324
813.138	8461
813.279	8282
813.421	8210
813.562	8058
813.703	7963
813.845	7852
813.986	7525
814.127	7392
814.268	7293
814.41	7236
814.551	7160
814.692	7240
814.833	7129
814.974	7198
815.115	7107
815.256	6951
815.397	6935
815.539	6913
815.68	6837
815.821	6859
815.962	6905
816.103	6890
816.244	6741
816.385	6696
816.526	6722
816.666	6540
816.807	6357
816.948	6490
817.089	6509
817.23	6448
817.371	6437
817.512	6445
817.653	6475
817.793	6445
817.934	6490
818.075	6513
818.216	6456
818.356	6433
818.497	6292
818.638	6144
818.778	6136
818.919	6167
819.06	6175
819.2	6361
819.341	6338
819.481	6369
819.622	6544
819.762	6722
819.903	6738
820.043	6665
820.184	6551
820.324	6566
820.465	6749
820.605	6726
820.746	6639
820.886	6563
821.026	6589
821.167	6662
821.307	6840
821.447	6791
821.588	6646
821.728	6544
821.868	6426
822.008	6357
822.149	6410
822.289	6365
822.429	6213
822.569	6155
822.709	6117
822.849	5958
822.99	5961
823.13	5961
823.27	5931
823.41	5813
823.55	5813
823.69	5790
823.83	5805
823.97	5703
824.11	5589
824.25	5528
824.389	5608
824.529	5585
824.669	5600
824.809	5638
824.949	5653
825.089	5642
825.228	5634
825.368	5387
825.508	5376
825.648	5349
825.787	5376
825.927	5459
826.067	5364
826.206	5311
826.346	5425
826.485	5440
826.625	5410
826.765	5600
826.904	5528
827.044	5246
827.183	5250
827.323	5174
827.462	5269
827.601	5178
827.741	5185
827.88	5258
828.02	5159
828.159	5242
828.298	5345
828.437	5402
828.577	5337
828.716	5509
828.855	5357
828.994	5193
829.134	5212
829.273	5197
829.412	5208
829.551	5212
829.69	5239
829.829	5273
829.968	5455
830.107	5280
830.246	5231
830.385	5143
830.524	5162
830.663	5090
830.802	4999
830.941	4930
831.08	4892
831.219	5006
831.357	5060
831.496	5162
831.635	4881
831.774	4870
831.913	4904
832.051	4725
832.19	4793
832.329	4892
832.467	4755
832.606	4694
832.744	4782
832.883	4774
833.022	4752
833.16	4778
833.299	4843
833.437	4805
833.576	4812
833.714	4870
833.852	4900
833.991	4904
834.129	4984
834.267	4980
834.406	4915
834.544	5022
834.682	5003
834.821	5010
834.959	5162
835.097	5025
835.235	5185
835.373	5132
835.511	5136
835.65	5079
835.788	5094
835.926	4957
836.064	4923
836.202	4946
836.34	5162
836.478	5246
836.615	5174
836.753	5299
836.891	5337
837.029	5296
837.167	5231
837.305	5166
837.443	5136
837.58	5140
837.718	5296
837.856	5242
837.993	5193
838.131	5246
838.269	5197
838.406	5212
838.544	5231
838.681	5037
838.819	5033
838.956	4908
839.094	4866
839.231	5010
839.369	5136
839.506	5425
839.643	5288
839.781	5075
839.918	5018
840.055	5075
840.193	5113
840.33	5147
840.467	5185
840.604	5174
840.742	5471
840.879	5147
841.016	5170
841.153	5204
841.29	5410
841.427	5379
841.564	5360
841.701	5414
841.838	5254
841.975	5307
842.112	5235
842.249	5140
842.385	5140
842.522	5387
842.659	5185
842.796	5178
842.933	5227
843.069	5098
843.206	5170
843.343	5296
843.479	5254
843.616	5280
843.752	5003
843.889	5052
844.025	5193
844.162	5098
844.298	5261
844.435	5098
844.571	5105
844.708	5201
844.844	5307
844.98	5368
845.117	5368
845.253	5178
845.389	5113
845.525	5204
845.661	5197
845.798	5048
845.934	5166
846.07	5060
846.206	5193
846.342	5318
846.478	5193
846.614	5102
846.75	5006
846.886	4987
847.022	5136
847.158	5052
847.294	5136
847.429	5166
847.565	5048
847.701	5326
847.837	4908
847.972	4812
848.108	4980
848.244	4972
848.379	4820
848.515	4736
848.65	4714
848.786	4744
848.921	4816
849.057	4892
849.192	4934
849.328	4858
849.463	4885
849.598	4820
849.734	4801
849.869	4755
850.004	4668
850.14	4683
850.275	4649
850.41	4577
850.545	4580
850.68	4611
850.815	4641
850.95	4645
851.085	4900
851.22	4752
851.355	4717
851.49	4615
851.625	4634
851.76	4607
851.895	4630
852.03	4558
852.165	4706
852.299	4702
852.434	4809
852.569	4752
852.703	4797
852.838	4889
852.973	4934
853.107	4927
853.242	4771
853.376	4725
853.511	4584
853.645	4599
853.78	4801
853.914	4694
854.048	4664
854.183	4668
854.317	4664
854.451	4919
854.585	4660
854.72	4634
854.854	4812
854.988	4588
855.122	4611
855.256	4531
855.39	4649
855.524	4752
855.658	4698
855.792	4729
855.926	4763
856.06	4717
856.194	4831
856.327	4729
856.461	4599
856.595	4660
856.729	4634
856.862	4767
856.996	4736
857.13	4714
857.263	4786
857.397	4850
857.53	4687
857.664	4797
857.797	4774
857.931	4831
858.064	4679
858.197	4774
858.331	4687
858.464	4603
858.597	4558
858.731	4573
858.864	4698
858.997	4653
859.13	4694
859.263	4683
859.396	4702
859.529	4615
859.662	4599
859.795	4580
859.928	4637
860.061	4736
860.194	4774
860.327	4634
860.46	4596
860.592	4725
860.725	4786
860.858	4755
860.99	4596
861.123	4478
861.256	4531
861.388	4649
861.521	5357
861.653	4478
861.786	4485
861.918	4497
862.05	4523
862.183	4531
862.315	4622
862.447	4668
862.58	4573
862.712	4436
862.844	4363
862.976	4493
863.108	4485
863.24	4774
863.372	4318
863.504	4466
863.636	4413
863.768	4470
863.9	4470
864.032	4424
864.164	4402
864.296	4466
864.428	4500
864.559	4580
864.691	4561
864.823	4565
864.954	4535
865.086	4519
865.217	4417
865.349	4485
865.48	4485
865.612	4542
865.743	4641
865.875	4500
866.006	4455
866.137	4485
866.269	4451
866.4	4424
866.531	4470
866.662	4409
866.793	4421
866.924	4432
867.055	4493
867.186	4500
867.317	4443
867.448	4417
867.579	4424
867.71	4398
867.841	4383
867.972	4478
868.103	4481
868.233	4459
868.364	4466
868.495	4546
868.625	4675
868.756	4786
868.886	4626
869.017	4668
869.147	4748
869.278	4797
869.408	4691
869.539	4656
869.669	4672
869.799	4721
869.929	4752
870.06	4733
870.19	4927
870.32	4972
870.45	4942
870.58	5045
870.71	5064
870.84	5159
870.97	4953
871.1	4919
871.23	5174
871.36	5105
871.489	5037
871.619	5045
871.749	5075
871.879	5140
872.008	5147
872.138	5102
872.267	4991
872.397	4854
872.526	4782
872.656	4729
872.785	4866
872.915	4919
873.044	5052
873.173	4919
873.303	4930
873.432	4961
873.561	4995
873.69	4877
873.819	4889
873.948	4896
874.077	4858
874.206	4736
874.335	4820
874.464	4972
874.593	5071
874.722	5006
874.851	5090
874.979	5083
875.108	5060
875.237	4900
875.365	4892
875.494	4858
875.623	4968
875.751	4877
875.88	4889
876.008	4999
876.136	5064
876.265	5193
876.393	5368
876.521	5242
876.65	5250
876.778	5174
876.906	5090
877.034	5037
877.162	5067
877.29	4999
877.418	5086
877.546	5048
877.674	5067
877.802	5094
877.93	5067
878.058	4999
878.185	4889
878.313	4991
878.441	4953
878.568	4809
878.696	4896
878.824	4987
878.951	5025
879.079	5201
879.206	5277
879.333	5075
879.461	4995
879.588	5060
879.715	5159
879.842	5239
879.97	4987
880.097	4831
880.224	4797
880.351	4854
880.478	4820
880.605	4782
880.732	4774
880.859	5117
880.986	4923
881.112	4900
881.239	4793
881.366	4694
881.493	4615
881.619	4641
881.746	4664
881.872	4630
881.999	4622
882.125	4679
882.252	4763
882.378	4805
882.505	4980
882.631	4771
882.757	4710
882.883	4748
883.01	4786
883.136	4672
883.262	4580
883.388	4584
883.514	4824
883.64	4881
883.766	4820
883.892	4706
884.018	4736
884.143	4896
884.269	4991
884.395	4698
884.52	4653
884.646	4664
884.772	4596
884.897	4592
885.023	4668
885.148	4767
885.274	4889
885.399	4812
885.524	4698
885.65	4698
885.775	4786
885.9	4691
886.025	4877
886.15	4778
886.275	4736
886.4	4641
886.525	4687
886.65	4664
886.775	4706
886.9	4915
887.025	5071
887.149	4778
887.274	4645
887.399	4588
887.523	4634
887.648	4573
887.773	4580
887.897	4824
888.021	4752
888.146	4683
888.27	4824
888.395	4934
888.519	4786
888.643	4889
888.767	4812
888.891	4714
889.015	4592
889.139	4668
889.263	4592
889.387	4729
889.511	4839
889.635	4812
889.759	4664
889.883	4618
890.006	4706
890.13	4839
890.254	4634
890.377	4679
890.501	4531
890.624	4504
890.748	4615
890.871	4519
890.995	4424
891.118	4383
891.241	4550
891.364	4535
891.488	4641
891.611	4481
891.734	4516
891.857	4615
891.98	4550
892.103	4622
892.226	4577
892.349	4527
892.471	4443
892.594	4569
892.717	4615
892.839	4596
892.962	4641
893.085	4672
893.207	4645
893.33	4474
893.452	4478
893.575	4675
893.697	4588
893.819	4797
893.941	4843
894.064	4790
894.186	4615
894.308	4569
894.43	4752
894.552	4759
894.674	4801
894.796	4550
894.918	4668
895.04	4542
895.161	4698
895.283	4679
895.405	4561
895.526	4672
895.648	4672
895.769	4645
895.891	4725
896.012	4714
896.134	4729
896.255	4702
896.376	4706
896.498	4573
896.619	4675
896.74	4599
896.861	4668
896.982	4904
897.103	5109
897.224	4797
897.345	4714
897.466	4672
897.587	4744
897.708	4828
897.828	4801
897.949	4687
898.07	4535
898.19	4637
898.311	4824
898.431	4710
898.552	4729
898.672	4824
898.792	4809
898.913	4733
899.033	4641
899.153	4500
899.273	4367
899.393	4493
899.513	4542
899.633	4550
899.753	4527
899.873	4542
899.993	4603
900.113	4580
900.232	4626
900.352	4542
900.472	4546
900.591	4383
900.711	4470
900.83	4459
900.95	4569
901.069	4645
901.189	4523
901.308	4352
901.427	4337
901.546	4390
901.665	4497
901.784	4542
901.904	4379
902.023	4325
902.141	4188
902.26	4196
902.379	4344
902.498	4276
902.617	4227
902.735	4386
902.854	4417
902.973	4383
903.091	4200
903.21	4238
903.328	4295
903.446	4287
903.565	4234
903.683	4303
903.801	4299
903.919	4413
904.038	4443
904.156	4287
904.274	4462
904.392	4375
904.51	4436
904.627	4504
904.745	4554
904.863	4679
904.981	4421
905.098	4337
905.216	4363
905.334	4398
905.451	4432
905.569	4428
905.686	4599
905.803	4622
905.921	4413
906.038	4592
906.155	4466
906.272	4352
906.389	4462
906.506	4352
906.623	4379
906.74	4398
906.857	4276
906.974	4436
907.091	4580
907.208	4679
907.324	4626
907.441	4493
907.557	4356
907.674	4360
907.79	4303
907.907	4379
908.023	4493
908.139	4462
908.256	4409
908.372	4512
908.488	4455
908.604	4398
908.72	4356
908.836	4371
908.952	4363
909.068	4500
909.184	4580
909.3	4455
909.415	4573
909.531	4569
909.647	4348
909.762	4386
909.878	4318
909.993	4417
910.108	4428
910.224	4421
910.339	4497
910.454	4447
910.57	4344
910.685	4337
910.8	4683
910.915	4573
911.03	4493
911.145	4337
911.259	4348
911.374	4379
911.489	4291
911.604	4291
911.718	4173
911.833	4227
911.947	4116
912.062	4059
912.176	4219
912.291	4234
912.405	4272
912.519	4459
912.633	4500
912.748	4409
912.862	4322
912.976	4196
913.09	4101
913.204	4173
913.318	4249
913.431	4375
913.545	4367
913.659	4424
913.772	4360
913.886	4230
914	4238
914.113	4360
914.226	4409
914.34	4352
914.453	4200
914.566	4478
914.68	4291
914.793	4287
914.906	4181
915.019	4124
915.132	4067
915.245	4200
915.358	4204
915.47	4272
915.583	4261
915.696	4284
915.809	4417
915.921	4409
916.034	4238
916.146	4253
916.259	4215
916.371	4348
916.483	4371
916.595	4219
916.708	4329
916.82	4341
916.932	4360
917.044	4333
917.156	4333
917.268	4211
917.38	4280
917.491	4284
917.603	4318
917.715	4440
917.826	4421
917.938	4314
918.049	4246
918.161	4436
918.272	4573
918.384	4512
918.495	4447
918.606	4299
918.717	4249
918.828	4375
918.939	4417
919.05	4276
919.161	4318
919.272	4128
919.383	4246
919.494	4470
919.604	4618
919.715	4424
919.826	4329
919.936	4386
920.047	4504
920.157	4535
920.267	4702
920.378	4554
920.488	4466
920.598	4744
920.708	4904
920.818	4748
920.928	4774
921.038	4953
921.148	4968
921.258	4634
921.368	4512
921.477	4478
921.587	4451
921.697	4443
921.806	4569
921.916	4432
922.025	4268
922.134	4306
922.244	4188
922.353	4337
922.462	4196
922.571	4120
922.68	4029
922.789	3979
922.898	3998
923.007	4006
923.116	4105
923.224	4074
923.333	4055
923.442	4006
923.55	3994
923.659	4013
923.767	4105
923.876	4021
923.984	4120
924.092	3964
924.201	4074
924.309	4074
924.417	4154
924.525	4067
924.633	4067
924.741	5083
924.849	3934
924.956	4093
925.064	4002
925.172	3907
925.279	3972
925.387	4032
925.494	4051
925.602	4181
925.709	4158
925.816	4021
925.924	4154
926.031	4223
926.138	4147
926.245	4211
926.352	4120
926.459	4238
926.566	4348
926.673	4188
926.779	4051
926.886	4067
926.993	3983
927.099	3911
927.206	3972
927.312	3922
927.419	4063
927.525	4029
927.631	4097
927.737	3979
927.843	3968
927.95	3880
928.056	3968
928.162	3979
928.267	4097
928.373	4752
928.479	4116
928.585	3903
928.69	4017
928.796	4074
928.901	3937
929.007	3816
929.112	3987
929.218	3987
929.323	3968
929.428	3915
929.533	4082
929.638	3918
929.743	3941
929.848	4010
929.953	4006
930.058	3918
930.163	3789
930.267	3831
930.372	3983
930.477	3842
930.581	4067
930.685	3934
930.79	3797
930.894	3869
930.998	3884
931.103	4025
931.207	3690
931.311	3648
931.415	3641
931.519	3545
931.623	3553
