Data from test_V78500241_2388.txt Node
Date: Fri Mar 25 17:05:36 CST 2022
User: usil
Spectrometer: V785-0024
Trigger mode: 0
Integration Time (sec): 4.000000E-1
Scans to average: 1
Nonlinearity correction enabled: false
Boxcar width: 0
Storing dark spectrum: false
XAxis mode: Wavelengths
Number of Pixels in Spectrum: 1024
>>>>>Begin Spectral Data<<<<<
801.071	8005
801.214	7902
801.356	7849
801.499	7833
801.641	7742
801.783	7795
801.926	7978
802.068	7928
802.211	7955
802.353	8016
802.496	7856
802.638	7871
802.78	7906
802.923	7860
803.065	7890
803.208	7906
803.35	7989
803.492	8119
803.635	8183
803.777	7963
803.919	8187
804.061	8488
804.204	8244
804.346	8035
804.488	7940
804.63	8058
804.773	7993
804.915	8111
805.057	8358
805.199	8161
805.341	8267
805.483	8279
805.626	8191
805.768	8103
805.91	8134
806.052	8153
806.194	8142
806.336	8305
806.478	8077
806.62	8062
806.762	8161
806.904	8225
807.046	8415
807.188	8343
807.33	8366
807.472	8336
807.614	8206
807.756	8123
807.898	8008
808.04	7898
808.182	7864
808.324	7860
808.465	7883
808.607	8119
808.749	8161
808.891	8195
809.033	8336
809.174	8210
809.316	8111
809.458	8092
809.6	8008
809.741	7997
809.883	8012
810.025	8134
810.166	8069
810.308	8027
810.45	7970
810.591	7925
810.733	7719
810.875	7666
811.016	7491
811.158	7468
811.299	7597
811.441	7719
811.582	7567
811.724	7567
811.865	7460
812.007	7628
812.148	7525
812.29	7609
812.431	7742
812.573	7795
812.714	7978
812.855	8183
812.997	8176
813.138	8244
813.279	8138
813.421	8157
813.562	7928
813.703	7856
813.845	7731
813.986	7381
814.127	7285
814.268	7194
814.41	7122
814.551	7183
814.692	7168
814.833	7095
814.974	7118
815.115	7141
815.256	7015
815.397	6928
815.539	6962
815.68	6791
815.821	6791
815.962	6920
816.103	6787
816.244	6688
816.385	6635
816.526	6623
816.666	6445
816.807	6247
816.948	6460
817.089	6502
817.23	6486
817.371	6433
817.512	6388
817.653	6369
817.793	6384
817.934	6380
818.075	6483
818.216	6464
818.356	6429
818.497	6247
818.638	6076
818.778	6178
818.919	6175
819.06	6163
819.2	6346
819.341	6304
819.481	6376
819.622	6498
819.762	6821
819.903	6673
820.043	6608
820.184	6536
820.324	6551
820.465	6688
820.605	6642
820.746	6692
820.886	6532
821.026	6711
821.167	6665
821.307	6791
821.447	6787
821.588	6669
821.728	6589
821.868	6475
822.008	6334
822.149	6361
822.289	6319
822.429	6205
822.569	6114
822.709	6136
822.849	5931
822.99	5942
823.13	5999
823.27	5969
823.41	5798
823.55	5817
823.69	5798
823.83	5741
823.97	5649
824.11	5509
824.25	5516
824.389	5611
824.529	5573
824.669	5543
824.809	5623
824.949	5623
825.089	5608
825.228	5547
825.368	5398
825.508	5337
825.648	5318
825.787	5337
825.927	5364
826.067	5239
826.206	5307
826.346	5353
826.485	5414
826.625	5459
826.765	5547
826.904	5448
827.044	5246
827.183	5159
827.323	5105
827.462	5246
827.601	5174
827.741	5193
827.88	5246
828.02	5086
828.159	5235
828.298	5307
828.437	5345
828.577	5273
828.716	5490
828.855	5326
828.994	5155
829.134	5159
829.273	5223
829.412	5132
829.551	5136
829.69	5155
829.829	5258
829.968	5387
830.107	5284
830.246	5261
830.385	5162
830.524	5124
830.663	5105
830.802	5037
830.941	4919
831.08	4892
831.219	4972
831.357	4961
831.496	5136
831.635	4904
831.774	4850
831.913	4824
832.051	4710
832.19	4748
832.329	4835
832.467	4660
832.606	4668
832.744	4679
832.883	4721
833.022	4736
833.16	4820
833.299	4835
833.437	4797
833.576	4793
833.714	4847
833.852	4835
833.991	4900
834.129	4942
834.267	4949
834.406	4911
834.544	4972
834.682	4991
834.821	4965
834.959	5147
835.097	4987
835.235	5151
835.373	5075
835.511	5064
835.65	5037
835.788	5025
835.926	4854
836.064	4889
836.202	4930
836.34	5155
836.478	5174
836.615	5086
836.753	5193
836.891	5303
837.029	5235
837.167	5178
837.305	5185
837.443	5162
837.58	5037
837.718	5204
837.856	5159
837.993	5151
838.131	5201
838.269	5166
838.406	5197
838.544	5216
838.681	5060
838.819	4968
838.956	4881
839.094	4930
839.231	4930
839.369	5086
839.506	5429
839.643	5235
839.781	5010
839.918	4987
840.055	5109
840.193	5128
840.33	5064
840.467	5105
840.604	5212
840.742	5410
840.879	5090
841.016	5064
841.153	5166
841.29	5406
841.427	5364
841.564	5322
841.701	5379
841.838	5258
841.975	5239
842.112	5269
842.249	5109
842.385	5094
842.522	5307
842.659	5136
842.796	5143
842.933	5197
843.069	5201
843.206	5147
843.343	5269
843.479	5216
843.616	5197
843.752	5045
843.889	4976
844.025	5155
844.162	5006
844.298	5235
844.435	5102
844.571	5098
844.708	5216
844.844	5292
844.98	5349
845.117	5307
845.253	5128
845.389	5010
845.525	5212
845.661	5155
845.798	5048
845.934	5086
846.07	5006
846.206	5193
846.342	5269
846.478	5132
846.614	5041
846.75	4915
846.886	5003
847.022	5098
847.158	5022
847.294	5090
847.429	5083
847.565	5052
847.701	5318
847.837	4805
847.972	4767
848.108	4908
848.244	5014
848.379	4786
848.515	4687
848.65	4736
848.786	4774
848.921	4714
849.057	4839
849.192	4915
849.328	4824
849.463	4881
849.598	4782
849.734	4744
849.869	4664
850.004	4588
850.14	4626
850.275	4607
850.41	4516
850.545	4535
850.68	4561
850.815	4607
850.95	4584
851.085	4831
851.22	4710
851.355	4622
851.49	4592
851.625	4637
851.76	4603
851.895	4538
852.03	4489
852.165	4611
852.299	4721
852.434	4774
852.569	4790
852.703	4752
852.838	4885
852.973	4919
853.107	4900
853.242	4748
853.376	4698
853.511	4569
853.645	4611
853.78	4771
853.914	4653
854.048	4607
854.183	4615
854.317	4675
854.451	4843
854.585	4653
854.72	4634
854.854	4809
854.988	4554
855.122	4641
855.256	4500
855.39	4634
855.524	4786
855.658	4725
855.792	4702
855.926	4736
856.06	4740
856.194	4763
856.327	4721
856.461	4580
856.595	4588
856.729	4584
856.862	4717
856.996	4710
857.13	4710
857.263	4710
857.397	4797
857.53	4592
857.664	4717
857.797	4736
857.931	4824
858.064	4714
858.197	4721
858.331	4668
858.464	4653
858.597	4497
858.731	4630
858.864	4649
858.997	4637
859.13	4660
859.263	4679
859.396	4698
859.529	4550
859.662	4538
859.795	4474
859.928	4611
860.061	4748
860.194	4702
860.327	4565
860.46	4565
860.592	4714
860.725	4721
860.858	4687
860.99	4588
861.123	4497
861.256	4516
861.388	4618
861.521	5299
861.653	4508
861.786	4481
861.918	4478
862.05	4519
862.183	4523
862.315	4584
862.447	4630
862.58	4596
862.712	4367
862.844	4287
862.976	4462
863.108	4481
863.24	4755
863.372	4341
863.504	4428
863.636	4398
863.768	4531
863.9	4413
864.032	4375
864.164	4413
864.296	4535
864.428	4565
864.559	4554
864.691	4558
864.823	4474
864.954	4493
865.086	4497
865.217	4485
865.349	4470
865.48	4447
865.612	4523
865.743	4637
865.875	4550
866.006	4447
866.137	4485
866.269	4462
866.4	4447
866.531	4451
866.662	4455
866.793	4447
866.924	4443
867.055	4531
867.186	4478
867.317	4428
867.448	4413
867.579	4432
867.71	4417
867.841	4432
867.972	4493
868.103	4538
868.233	4462
868.364	4504
868.495	4497
868.625	4687
868.756	4767
868.886	4664
869.017	4672
869.147	4774
869.278	4793
869.408	4687
869.539	4656
869.669	4782
869.799	4702
869.929	4790
870.06	4752
870.19	5033
870.32	4995
870.45	4999
870.58	5056
870.71	5136
870.84	5140
870.97	4984
871.1	4915
871.23	5178
871.36	5185
871.489	5086
871.619	5132
871.749	5143
871.879	5113
872.008	5151
872.138	5083
872.267	5060
872.397	4908
872.526	4790
872.656	4752
872.785	4847
872.915	5045
873.044	5022
873.173	4938
873.303	5006
873.432	5048
873.561	5003
873.69	4968
873.819	4904
873.948	4965
874.077	4877
874.206	4793
874.335	4771
874.464	4980
874.593	5102
874.722	4995
874.851	5132
874.979	5151
875.108	5048
875.237	4968
875.365	4949
875.494	4915
875.623	4984
875.751	4850
875.88	4911
876.008	5033
876.136	5056
876.265	5265
876.393	5398
876.521	5265
876.65	5201
876.778	5216
876.906	5109
877.034	5064
877.162	5098
877.29	5006
877.418	5090
877.546	5060
877.674	5075
877.802	5090
877.93	5048
878.058	4976
878.185	4862
878.313	5052
878.441	5003
878.568	4873
878.696	4866
878.824	5018
878.951	5006
879.079	5136
879.206	5337
879.333	5147
879.461	5045
879.588	5048
879.715	5140
879.842	5231
879.97	5033
880.097	4824
880.224	4816
880.351	4847
880.478	4854
880.605	4839
880.732	4824
880.859	5128
880.986	4934
881.112	4949
881.239	4847
881.366	4664
881.493	4626
881.619	4645
881.746	4698
881.872	4714
881.999	4664
882.125	4694
882.252	4801
882.378	4870
882.505	5018
882.631	4854
882.757	4714
882.883	4740
883.01	4759
883.136	4675
883.262	4634
883.388	4641
883.514	4858
883.64	4908
883.766	4774
883.892	4733
884.018	4778
884.143	4915
884.269	4984
884.395	4748
884.52	4721
884.646	4694
884.772	4607
884.897	4637
885.023	4706
885.148	4824
885.274	4915
885.399	4881
885.524	4755
885.65	4748
885.775	4740
885.9	4771
886.025	4885
886.15	4820
886.275	4733
886.4	4736
886.525	4778
886.65	4721
886.775	4744
886.9	4911
887.025	5098
887.149	4847
887.274	4687
887.399	4656
887.523	4558
887.648	4565
887.773	4622
887.897	4801
888.021	4805
888.146	4710
888.27	4839
888.395	4892
888.519	4790
888.643	4885
888.767	4866
888.891	4752
889.015	4584
889.139	4668
889.263	4641
889.387	4752
889.511	4915
889.635	4839
889.759	4729
889.883	4679
890.006	4786
890.13	4854
890.254	4649
890.377	4748
890.501	4546
890.624	4569
890.748	4656
890.871	4519
890.995	4451
891.118	4413
891.241	4542
891.364	4584
891.488	4717
891.611	4527
891.734	4561
891.857	4634
891.98	4603
892.103	4691
892.226	4622
892.349	4596
892.471	4447
892.594	4565
892.717	4622
892.839	4618
892.962	4611
893.085	4691
893.207	4626
893.33	4459
893.452	4577
893.575	4710
893.697	4607
893.819	4862
893.941	4820
894.064	4793
894.186	4618
894.308	4580
894.43	4706
894.552	4858
894.674	4752
894.796	4603
894.918	4603
895.04	4622
895.161	4725
895.283	4721
895.405	4645
895.526	4603
895.648	4729
895.769	4744
895.891	4763
896.012	4778
896.134	4763
896.255	4698
896.376	4675
896.498	4656
896.619	4683
896.74	4649
896.861	4710
896.982	4976
897.103	5067
897.224	4839
897.345	4793
897.466	4664
897.587	4748
897.708	4866
897.828	4854
897.949	4687
898.07	4577
898.19	4672
898.311	4885
898.431	4675
898.552	4778
898.672	4904
898.792	4854
898.913	4778
899.033	4653
899.153	4577
899.273	4413
899.393	4535
899.513	4538
899.633	4550
899.753	4569
899.873	4538
899.993	4599
900.113	4580
900.232	4634
900.352	4584
900.472	4542
900.591	4424
900.711	4577
900.83	4451
900.95	4679
901.069	4702
901.189	4554
901.308	4383
901.427	4295
901.546	4398
901.665	4531
901.784	4554
901.904	4402
902.023	4344
902.141	4188
902.26	4196
902.379	4337
902.498	4261
902.617	4291
902.735	4417
902.854	4432
902.973	4371
903.091	4207
903.21	4230
903.328	4344
903.446	4257
903.565	4299
903.683	4405
903.801	4284
903.919	4428
904.038	4466
904.156	4363
904.274	4493
904.392	4428
904.51	4443
904.627	4535
904.745	4588
904.863	4656
904.981	4409
905.098	4333
905.216	4352
905.334	4421
905.451	4459
905.569	4432
905.686	4573
905.803	4542
905.921	4440
906.038	4538
906.155	4478
906.272	4417
906.389	4481
906.506	4367
906.623	4432
906.74	4398
906.857	4280
906.974	4413
907.091	4546
907.208	4649
907.324	4607
907.441	4485
907.557	4383
907.674	4379
907.79	4318
907.907	4432
908.023	4481
908.139	4512
908.256	4428
908.372	4489
908.488	4466
908.604	4360
908.72	4325
908.836	4424
908.952	4375
909.068	4500
909.184	4588
909.3	4500
909.415	4603
909.531	4622
909.647	4367
909.762	4394
909.878	4367
909.993	4459
910.108	4413
910.224	4386
910.339	4485
910.454	4428
910.57	4402
910.685	4306
910.8	4698
910.915	4599
911.03	4500
911.145	4356
911.259	4386
911.374	4402
911.489	4333
911.604	4295
911.718	4166
911.833	4192
911.947	4074
912.062	4063
912.176	4242
912.291	4246
912.405	4246
912.519	4474
912.633	4546
912.748	4363
912.862	4341
912.976	4204
913.09	4128
913.204	4200
913.318	4265
913.431	4451
913.545	4383
913.659	4470
913.772	4363
913.886	4238
914	4265
914.113	4402
914.226	4447
914.34	4409
914.453	4276
914.566	4455
914.68	4344
914.793	4329
914.906	4143
915.019	4109
915.132	4120
915.245	4223
915.358	4238
915.47	4246
915.583	4284
915.696	4344
915.809	4451
915.921	4371
916.034	4291
916.146	4238
916.259	4238
916.371	4405
916.483	4398
916.595	4348
916.708	4325
916.82	4337
916.932	4329
917.044	4337
917.156	4306
917.268	4242
917.38	4322
917.491	4310
917.603	4333
917.715	4436
917.826	4432
917.938	4386
918.049	4287
918.161	4421
918.272	4558
918.384	4565
918.495	4447
918.606	4344
918.717	4242
918.828	4310
918.939	4371
919.05	4276
919.161	4348
919.272	4158
919.383	4192
919.494	4432
919.604	4706
919.715	4466
919.826	4363
919.936	4402
920.047	4561
920.157	4519
920.267	4740
920.378	4561
920.488	4485
920.598	4759
920.708	4866
920.818	4767
920.928	4771
921.038	4965
921.148	4946
921.258	4599
921.368	4550
921.477	4512
921.587	4481
921.697	4344
921.806	4569
921.916	4417
922.025	4284
922.134	4299
922.244	4287
922.353	4352
922.462	4188
922.571	4147
922.68	4021
922.789	3945
922.898	4082
923.007	3994
923.116	4032
923.224	4051
923.333	4082
923.442	3972
923.55	3964
923.659	4025
923.767	4120
923.876	4040
923.984	4097
924.092	4017
924.201	4048
924.309	4082
924.417	4162
924.525	4086
924.633	4128
924.741	5109
924.849	3888
924.956	4177
925.064	3941
925.172	3941
925.279	4006
925.387	4048
925.494	4029
925.602	4219
925.709	4166
925.816	4051
925.924	4101
926.031	4215
926.138	4166
926.245	4227
926.352	4135
926.459	4249
926.566	4322
926.673	4124
926.779	4082
926.886	4090
926.993	3987
927.099	3922
927.206	3918
927.312	3972
927.419	4078
927.525	4029
927.631	4086
927.737	4006
927.843	3922
927.95	3838
928.056	3960
928.162	3941
928.267	4074
928.373	4672
928.479	4135
928.585	3880
928.69	4036
928.796	4055
928.901	3983
929.007	3869
929.112	3987
929.218	3968
929.323	3960
929.428	3930
929.533	4166
929.638	3983
929.743	3968
929.848	4051
929.953	3956
930.058	3926
930.163	3816
930.267	3800
930.372	3998
930.477	3823
930.581	4116
930.685	3991
930.79	3850
930.894	3930
930.998	3850
931.103	4055
931.207	3759
931.311	3743
931.415	3671
931.519	3523
931.623	3614
