Data from test_V78500241_2310.txt Node
Date: Fri Mar 25 17:05:03 CST 2022
User: usil
Spectrometer: V785-0024
Trigger mode: 0
Integration Time (sec): 4.000000E-1
Scans to average: 1
Nonlinearity correction enabled: false
Boxcar width: 0
Storing dark spectrum: false
XAxis mode: Wavelengths
Number of Pixels in Spectrum: 1024
>>>>>Begin Spectral Data<<<<<
801.071	7959
801.214	7978
801.356	7814
801.499	7837
801.641	7818
801.783	7788
801.926	7947
802.068	7955
802.211	8027
802.353	7940
802.496	7830
802.638	7875
802.78	7849
802.923	7909
803.065	7811
803.208	7868
803.35	7986
803.492	8134
803.635	8180
803.777	8016
803.919	8210
804.061	8526
804.204	8138
804.346	8100
804.488	7986
804.63	8157
804.773	8035
804.915	8088
805.057	8313
805.199	8183
805.341	8214
805.483	8252
805.626	8244
805.768	8103
805.91	8202
806.052	8259
806.194	8142
806.336	8313
806.478	8088
806.62	8111
806.762	8183
806.904	8309
807.046	8499
807.188	8377
807.33	8282
807.472	8366
807.614	8126
807.756	8103
807.898	8054
808.04	7833
808.182	7864
808.324	7864
808.465	7913
808.607	8031
808.749	8081
808.891	8233
809.033	8256
809.174	8225
809.316	8058
809.458	8077
809.6	7963
809.741	8035
809.883	7974
810.025	8115
810.166	8012
810.308	8024
810.45	8024
810.591	7837
810.733	7738
810.875	7696
811.016	7476
811.158	7388
811.299	7620
811.441	7719
811.582	7666
811.724	7525
811.865	7537
812.007	7567
812.148	7571
812.29	7632
812.431	7784
812.573	7898
812.714	7951
812.855	8172
812.997	8263
813.138	8294
813.279	8119
813.421	8096
813.562	7894
813.703	7860
813.845	7784
813.986	7464
814.127	7282
814.268	7259
814.41	7266
814.551	7091
814.692	7221
814.833	7107
814.974	7053
815.115	7118
815.256	7027
815.397	6920
815.539	6989
815.68	6802
815.821	6806
815.962	6840
816.103	6798
816.244	6688
816.385	6654
816.526	6604
816.666	6464
816.807	6346
816.948	6445
817.089	6517
817.23	6460
817.371	6376
817.512	6391
817.653	6395
817.793	6327
817.934	6353
818.075	6498
818.216	6365
818.356	6445
818.497	6258
818.638	6125
818.778	6110
818.919	6171
819.06	6148
819.2	6319
819.341	6365
819.481	6372
819.622	6574
819.762	6760
819.903	6719
820.043	6608
820.184	6547
820.324	6544
820.465	6684
820.605	6681
820.746	6631
820.886	6540
821.026	6662
821.167	6703
821.307	6821
821.447	6806
821.588	6642
821.728	6593
821.868	6540
822.008	6319
822.149	6407
822.289	6357
822.429	6175
822.569	6049
822.709	6057
822.849	5942
822.99	5901
823.13	5958
823.27	5942
823.41	5840
823.55	5745
823.69	5798
823.83	5771
823.97	5630
824.11	5539
824.25	5482
824.389	5611
824.529	5611
824.669	5520
824.809	5642
824.949	5615
825.089	5608
825.228	5516
825.368	5379
825.508	5337
825.648	5349
825.787	5391
825.927	5372
826.067	5330
826.206	5231
826.346	5334
826.485	5376
826.625	5360
826.765	5524
826.904	5467
827.044	5265
827.183	5166
827.323	5121
827.462	5250
827.601	5166
827.741	5162
827.88	5185
828.02	5124
828.159	5181
828.298	5277
828.437	5357
828.577	5277
828.716	5440
828.855	5357
828.994	5201
829.134	5128
829.273	5223
829.412	5151
829.551	5102
829.69	5174
829.829	5269
829.968	5349
830.107	5349
830.246	5303
830.385	5132
830.524	5151
830.663	5033
830.802	4972
830.941	4862
831.08	4850
831.219	4987
831.357	4968
831.496	5105
831.635	4919
831.774	4873
831.913	4854
832.051	4736
832.19	4782
832.329	4812
832.467	4698
832.606	4660
832.744	4755
832.883	4721
833.022	4752
833.16	4793
833.299	4843
833.437	4782
833.576	4847
833.714	4843
833.852	4908
833.991	4873
834.129	4980
834.267	4896
834.406	4900
834.544	4972
834.682	4949
834.821	5018
834.959	5136
835.097	4953
835.235	5147
835.373	5052
835.511	5079
835.65	5090
835.788	5086
835.926	4965
836.064	4904
836.202	4915
836.34	5132
836.478	5193
836.615	5151
836.753	5140
836.891	5311
837.029	5227
837.167	5151
837.305	5197
837.443	5178
837.58	5079
837.718	5277
837.856	5128
837.993	5147
838.131	5197
838.269	5216
838.406	5178
838.544	5132
838.681	5010
838.819	5014
838.956	4934
839.094	4927
839.231	4976
839.369	5045
839.506	5402
839.643	5235
839.781	5086
839.918	4995
840.055	5079
840.193	5052
840.33	5102
840.467	5159
840.604	5197
840.742	5387
840.879	5105
841.016	5083
841.153	5162
841.29	5421
841.427	5345
841.564	5280
841.701	5330
841.838	5288
841.975	5178
842.112	5250
842.249	5109
842.385	5117
842.522	5353
842.659	5151
842.796	5189
842.933	5166
843.069	5166
843.206	5143
843.343	5265
843.479	5235
843.616	5284
843.752	5033
843.889	5010
844.025	5178
844.162	5003
844.298	5216
844.435	5105
844.571	5045
844.708	5216
844.844	5318
844.98	5307
845.117	5265
845.253	5079
845.389	5083
845.525	5143
845.661	5094
845.798	5045
845.934	5140
846.07	5045
846.206	5212
846.342	5299
846.478	5174
846.614	5006
846.75	4972
846.886	4987
847.022	5136
847.158	4984
847.294	5071
847.429	5052
847.565	5090
847.701	5341
847.837	4896
847.972	4809
848.108	4980
848.244	4946
848.379	4755
848.515	4748
848.65	4748
848.786	4725
848.921	4797
849.057	4866
849.192	4873
849.328	4839
849.463	4824
849.598	4820
849.734	4717
849.869	4710
850.004	4630
850.14	4641
850.275	4592
850.41	4546
850.545	4558
850.68	4607
850.815	4622
850.95	4607
851.085	4790
851.22	4748
851.355	4668
851.49	4561
851.625	4611
851.76	4653
851.895	4565
852.03	4485
852.165	4656
852.299	4744
852.434	4771
852.569	4748
852.703	4778
852.838	4831
852.973	4908
853.107	4942
853.242	4721
853.376	4698
853.511	4497
853.645	4649
853.78	4809
853.914	4698
854.048	4656
854.183	4630
854.317	4744
854.451	4816
854.585	4675
854.72	4706
854.854	4778
854.988	4630
855.122	4637
855.256	4512
855.39	4683
855.524	4767
855.658	4710
855.792	4672
855.926	4774
856.06	4729
856.194	4774
856.327	4672
856.461	4588
856.595	4611
856.729	4634
856.862	4771
856.996	4653
857.13	4725
857.263	4786
857.397	4778
857.53	4641
857.664	4710
857.797	4748
857.931	4778
858.064	4714
858.197	4714
858.331	4649
858.464	4637
858.597	4538
858.731	4668
858.864	4588
858.997	4577
859.13	4603
859.263	4683
859.396	4691
859.529	4565
859.662	4565
859.795	4462
859.928	4656
860.061	4774
860.194	4733
860.327	4596
860.46	4569
860.592	4691
860.725	4710
860.858	4752
860.99	4538
861.123	4485
861.256	4504
861.388	4577
861.521	5303
861.653	4493
861.786	4428
861.918	4417
862.05	4516
862.183	4531
862.315	4615
862.447	4664
862.58	4580
862.712	4383
862.844	4325
862.976	4421
863.108	4459
863.24	4866
863.372	4394
863.504	4386
863.636	4421
863.768	4485
863.9	4398
864.032	4367
864.164	4390
864.296	4451
864.428	4512
864.559	4519
864.691	4538
864.823	4531
864.954	4519
865.086	4523
865.217	4451
865.349	4367
865.48	4455
865.612	4436
865.743	4626
865.875	4508
866.006	4440
866.137	4447
866.269	4424
866.4	4436
866.531	4421
866.662	4394
866.793	4421
866.924	4405
867.055	4478
867.186	4447
867.317	4421
867.448	4375
867.579	4371
867.71	4402
867.841	4356
867.972	4462
868.103	4481
868.233	4455
868.364	4474
868.495	4512
868.625	4622
868.756	4763
868.886	4573
869.017	4607
869.147	4805
869.278	4797
869.408	4672
869.539	4641
869.669	4672
869.799	4618
869.929	4698
870.06	4714
870.19	4995
870.32	4911
870.45	4877
870.58	5029
870.71	5083
870.84	5037
870.97	4911
871.1	4938
871.23	5132
871.36	5136
871.489	5018
871.619	5079
871.749	5071
871.879	5083
872.008	5159
872.138	5029
872.267	4919
872.397	4850
872.526	4793
872.656	4790
872.785	4725
872.915	4999
873.044	5064
873.173	4915
873.303	4953
873.432	4946
873.561	4949
873.69	4927
873.819	4877
873.948	4900
874.077	4835
874.206	4771
874.335	4809
874.464	4908
874.593	5052
874.722	4953
874.851	5121
874.979	5056
875.108	5006
875.237	4938
875.365	4889
875.494	4908
875.623	4919
875.751	4809
875.88	4873
876.008	4995
876.136	5029
876.265	5159
876.393	5391
876.521	5197
876.65	5265
876.778	5128
876.906	5056
877.034	5033
877.162	5079
877.29	4984
877.418	5045
877.546	5025
877.674	5067
877.802	5022
877.93	5029
878.058	4938
878.185	4873
878.313	4953
878.441	4911
878.568	4774
878.696	4858
878.824	4949
878.951	4968
879.079	5140
879.206	5296
879.333	5067
879.461	5010
879.588	4972
879.715	5105
879.842	5212
879.97	4987
880.097	4778
880.224	4748
880.351	4812
880.478	4812
880.605	4820
880.732	4793
880.859	5064
880.986	4877
881.112	4911
881.239	4774
881.366	4660
881.493	4615
881.619	4519
881.746	4660
881.872	4622
881.999	4626
882.125	4679
882.252	4752
882.378	4835
882.505	4984
882.631	4816
882.757	4596
882.883	4721
883.01	4714
883.136	4683
883.262	4615
883.388	4596
883.514	4774
883.64	4870
883.766	4828
883.892	4694
884.018	4702
884.143	4908
884.269	5006
884.395	4660
884.52	4603
884.646	4630
884.772	4577
884.897	4588
885.023	4641
885.148	4752
885.274	4816
885.399	4805
885.524	4672
885.65	4660
885.775	4729
885.9	4763
886.025	4850
886.15	4805
886.275	4710
886.4	4675
886.525	4744
886.65	4675
886.775	4698
886.9	4885
887.025	4995
887.149	4797
887.274	4660
887.399	4634
887.523	4607
887.648	4580
887.773	4615
887.897	4702
888.021	4805
888.146	4683
888.27	4831
888.395	4892
888.519	4755
888.643	4854
888.767	4790
888.891	4736
889.015	4622
889.139	4611
889.263	4641
889.387	4767
889.511	4877
889.635	4843
889.759	4672
889.883	4645
890.006	4740
890.13	4797
890.254	4603
890.377	4660
890.501	4538
890.624	4508
890.748	4668
890.871	4500
890.995	4440
891.118	4398
891.241	4542
891.364	4542
891.488	4607
891.611	4459
891.734	4500
891.857	4565
891.98	4554
892.103	4626
892.226	4542
892.349	4531
892.471	4424
892.594	4592
892.717	4588
892.839	4561
892.962	4577
893.085	4679
893.207	4588
893.33	4489
893.452	4523
893.575	4634
893.697	4527
893.819	4778
893.941	4816
894.064	4774
894.186	4584
894.308	4577
894.43	4717
894.552	4828
894.674	4706
894.796	4584
894.918	4615
895.04	4516
895.161	4736
895.283	4626
895.405	4596
895.526	4656
895.648	4649
895.769	4687
895.891	4691
896.012	4744
896.134	4736
896.255	4656
896.376	4611
896.498	4615
896.619	4641
896.74	4637
896.861	4675
896.982	4919
897.103	5052
897.224	4824
897.345	4744
897.466	4656
897.587	4702
897.708	4850
897.828	4733
897.949	4664
898.07	4573
898.19	4656
898.311	4831
898.431	4653
898.552	4755
898.672	4805
898.792	4778
898.913	4736
899.033	4656
899.153	4531
899.273	4386
899.393	4493
899.513	4470
899.633	4554
899.753	4493
899.873	4527
899.993	4618
900.113	4531
900.232	4569
900.352	4584
900.472	4527
900.591	4440
900.711	4489
900.83	4424
900.95	4618
901.069	4691
901.189	4542
901.308	4356
901.427	4303
901.546	4363
901.665	4493
901.784	4523
901.904	4360
902.023	4318
902.141	4169
902.26	4158
902.379	4284
902.498	4227
902.617	4257
902.735	4371
902.854	4398
902.973	4314
903.091	4166
903.21	4207
903.328	4276
903.446	4295
903.565	4242
903.683	4344
903.801	4295
903.919	4405
904.038	4413
904.156	4375
904.274	4459
904.392	4398
904.51	4421
904.627	4455
904.745	4565
904.863	4626
904.981	4436
905.098	4325
905.216	4375
905.334	4413
905.451	4493
905.569	4451
905.686	4527
905.803	4550
905.921	4398
906.038	4504
906.155	4485
906.272	4421
906.389	4417
906.506	4371
906.623	4390
906.74	4413
906.857	4276
906.974	4363
907.091	4542
907.208	4664
907.324	4615
907.441	4493
907.557	4344
907.674	4352
907.79	4322
907.907	4367
908.023	4497
908.139	4538
908.256	4421
908.372	4459
908.488	4432
908.604	4333
908.72	4310
908.836	4303
908.952	4398
909.068	4424
909.184	4538
909.3	4470
909.415	4569
909.531	4577
909.647	4329
909.762	4383
909.878	4325
909.993	4424
910.108	4390
910.224	4363
910.339	4481
910.454	4413
910.57	4405
910.685	4322
910.8	4645
910.915	4611
911.03	4470
911.145	4348
911.259	4295
911.374	4356
911.489	4318
911.604	4223
911.718	4188
911.833	4219
911.947	4048
912.062	4029
912.176	4181
912.291	4238
912.405	4234
912.519	4466
912.633	4504
912.748	4363
912.862	4280
912.976	4173
913.09	4090
913.204	4169
913.318	4261
913.431	4383
913.545	4363
913.659	4428
913.772	4322
913.886	4257
914	4166
914.113	4348
914.226	4455
914.34	4402
914.453	4211
914.566	4402
914.68	4325
914.793	4322
914.906	4162
915.019	4154
915.132	4093
915.245	4169
915.358	4215
915.47	4234
915.583	4246
915.696	4265
915.809	4421
915.921	4394
916.034	4268
916.146	4276
916.259	4223
916.371	4360
916.483	4337
916.595	4268
916.708	4287
916.82	4325
916.932	4268
917.044	4329
917.156	4337
917.268	4211
917.38	4280
917.491	4253
917.603	4337
917.715	4432
917.826	4500
917.938	4363
918.049	4223
918.161	4436
918.272	4573
918.384	4519
918.495	4462
918.606	4318
918.717	4219
918.828	4390
918.939	4344
919.05	4272
919.161	4284
919.272	4078
919.383	4246
919.494	4436
919.604	4577
919.715	4447
919.826	4375
919.936	4371
920.047	4527
920.157	4508
920.267	4698
920.378	4489
920.488	4462
920.598	4706
920.708	4908
920.818	4778
920.928	4771
921.038	4987
921.148	4904
921.258	4664
921.368	4542
921.477	4504
921.587	4508
921.697	4348
921.806	4516
921.916	4474
922.025	4246
922.134	4265
922.244	4207
922.353	4341
922.462	4154
922.571	4082
922.68	4013
922.789	4025
922.898	4044
923.007	3998
923.116	4097
923.224	4112
923.333	4078
923.442	3998
923.55	4048
923.659	3987
923.767	4131
923.876	4040
923.984	4147
924.092	3960
924.201	4040
924.309	4090
924.417	4158
924.525	4055
924.633	4112
924.741	4999
924.849	3888
924.956	4116
925.064	3968
925.172	3884
925.279	3956
925.387	4025
925.494	4017
925.602	4223
925.709	4200
925.816	4059
925.924	4090
926.031	4223
926.138	4192
926.245	4219
926.352	4063
926.459	4200
926.566	4325
926.673	4162
926.779	4086
926.886	4055
926.993	3998
927.099	3937
927.206	3960
927.312	3937
927.419	4074
927.525	4051
927.631	4093
927.737	3953
927.843	3975
927.95	3869
928.056	3941
928.162	3956
928.267	4051
928.373	4656
928.479	4090
928.585	3865
928.69	4002
928.796	4025
928.901	3960
929.007	3816
929.112	3983
929.218	3956
929.323	3922
929.428	3949
929.533	4116
929.638	3934
929.743	3975
929.848	4025
929.953	3983
930.058	3956
930.163	3785
930.267	3850
930.372	3994
930.477	3819
930.581	4116
930.685	3930
930.79	3819
930.894	3861
930.998	3827
931.103	4074
931.207	3743
931.311	3671
931.415	3644
931.519	3519
931.623	3526
