Data from test_V78500241_1715.txt Node
Date: Fri Mar 25 17:00:55 CST 2022
User: usil
Spectrometer: V785-0024
Trigger mode: 0
Integration Time (sec): 4.000000E-1
Scans to average: 1
Nonlinearity correction enabled: false
Boxcar width: 0
Storing dark spectrum: false
XAxis mode: Wavelengths
Number of Pixels in Spectrum: 1024
>>>>>Begin Spectral Data<<<<<
801.071	7959
801.214	8039
801.356	7852
801.499	7879
801.641	7734
801.783	7841
801.926	7970
802.068	7944
802.211	7989
802.353	7967
802.496	7769
802.638	7883
802.78	7841
802.923	7887
803.065	7856
803.208	7913
803.35	7890
803.492	8039
803.635	8111
803.777	8050
803.919	8046
804.061	8427
804.204	8214
804.346	8062
804.488	7963
804.63	8062
804.773	8043
804.915	8065
805.057	8336
805.199	8123
805.341	8218
805.483	8259
805.626	8191
805.768	8130
805.91	8199
806.052	8282
806.194	8100
806.336	8294
806.478	8119
806.62	8058
806.762	8115
806.904	8282
807.046	8552
807.188	8358
807.33	8324
807.472	8309
807.614	8111
807.756	8161
807.898	8054
808.04	7925
808.182	7921
808.324	7883
808.465	7963
808.607	8088
808.749	8084
808.891	8157
809.033	8305
809.174	8195
809.316	8111
809.458	8016
809.6	8008
809.741	8005
809.883	8050
810.025	8092
810.166	8039
810.308	8024
810.45	7898
810.591	7860
810.733	7750
810.875	7613
811.016	7563
811.158	7460
811.299	7571
811.441	7723
811.582	7677
811.724	7510
811.865	7563
812.007	7632
812.148	7548
812.29	7712
812.431	7788
812.573	7849
812.714	7963
812.855	8062
812.997	8172
813.138	8336
813.279	8221
813.421	8050
813.562	7951
813.703	7837
813.845	7719
813.986	7441
814.127	7240
814.268	7247
814.41	7156
814.551	7149
814.692	7190
814.833	7095
814.974	7069
815.115	7164
815.256	6909
815.397	6901
815.539	6996
815.68	6791
815.821	6795
815.962	6844
816.103	6802
816.244	6753
816.385	6582
816.526	6582
816.666	6517
816.807	6315
816.948	6464
817.089	6452
817.23	6437
817.371	6289
817.512	6399
817.653	6372
817.793	6353
817.934	6479
818.075	6346
818.216	6365
818.356	6445
818.497	6247
818.638	6190
818.778	6140
818.919	6072
819.06	6197
819.2	6327
819.341	6323
819.481	6391
819.622	6525
819.762	6715
819.903	6654
820.043	6559
820.184	6563
820.324	6559
820.465	6677
820.605	6681
820.746	6658
820.886	6517
821.026	6665
821.167	6688
821.307	6745
821.447	6818
821.588	6669
821.728	6585
821.868	6483
822.008	6285
822.149	6388
822.289	6308
822.429	6171
822.569	6098
822.709	6076
822.849	5904
822.99	5855
823.13	5908
823.27	5859
823.41	5779
823.55	5786
823.69	5775
823.83	5699
823.97	5657
824.11	5467
824.25	5482
824.389	5497
824.529	5566
824.669	5524
824.809	5600
824.949	5672
825.089	5638
825.228	5570
825.368	5395
825.508	5372
825.648	5322
825.787	5368
825.927	5341
826.067	5242
826.206	5250
826.346	5433
826.485	5368
826.625	5395
826.765	5505
826.904	5402
827.044	5292
827.183	5189
827.323	5086
827.462	5231
827.601	5140
827.741	5201
827.88	5151
828.02	5109
828.159	5239
828.298	5284
828.437	5414
828.577	5246
828.716	5455
828.855	5341
828.994	5166
829.134	5147
829.273	5193
829.412	5113
829.551	5170
829.69	5128
829.829	5242
829.968	5345
830.107	5261
830.246	5269
830.385	5136
830.524	5094
830.663	5041
830.802	4987
830.941	4854
831.08	4847
831.219	4995
831.357	5022
831.496	5128
831.635	4946
831.774	4839
831.913	4820
832.051	4698
832.19	4740
832.329	4866
832.467	4702
832.606	4683
832.744	4717
832.883	4721
833.022	4725
833.16	4706
833.299	4809
833.437	4850
833.576	4790
833.714	4828
833.852	4854
833.991	4892
834.129	4934
834.267	4919
834.406	4889
834.544	4961
834.682	4972
834.821	4968
834.959	5113
835.097	4949
835.235	5128
835.373	5075
835.511	5105
835.65	5014
835.788	5014
835.926	4877
836.064	4820
836.202	4885
836.34	5162
836.478	5227
836.615	5075
836.753	5231
836.891	5273
837.029	5220
837.167	5204
837.305	5140
837.443	5117
837.58	5056
837.718	5231
837.856	5147
837.993	5151
838.131	5296
838.269	5223
838.406	5155
838.544	5132
838.681	4961
838.819	4991
838.956	4915
839.094	4862
839.231	4938
839.369	5045
839.506	5353
839.643	5265
839.781	5045
839.918	5071
840.055	5079
840.193	5052
840.33	5113
840.467	5159
840.604	5208
840.742	5444
840.879	5003
841.016	5067
841.153	5102
841.29	5383
841.427	5261
841.564	5307
841.701	5315
841.838	5273
841.975	5223
842.112	5227
842.249	5151
842.385	5064
842.522	5353
842.659	5170
842.796	5117
842.933	5189
843.069	5132
843.206	5178
843.343	5337
843.479	5208
843.616	5315
843.752	4999
843.889	4991
844.025	5242
844.162	4995
844.298	5242
844.435	5098
844.571	5052
844.708	5132
844.844	5292
844.98	5364
845.117	5273
845.253	5132
845.389	5083
845.525	5124
845.661	5151
845.798	5025
845.934	5124
846.07	5025
846.206	5189
846.342	5280
846.478	5147
846.614	5014
846.75	4972
846.886	4915
847.022	5067
847.158	4957
847.294	5052
847.429	5105
847.565	5052
847.701	5296
847.837	4835
847.972	4790
848.108	4904
848.244	4915
848.379	4793
848.515	4782
848.65	4683
848.786	4710
848.921	4714
849.057	4889
849.192	4839
849.328	4744
849.463	4858
849.598	4801
849.734	4782
849.869	4679
850.004	4580
850.14	4603
850.275	4607
850.41	4527
850.545	4565
850.68	4588
850.815	4596
850.95	4607
851.085	4820
851.22	4729
851.355	4687
851.49	4626
851.625	4592
851.76	4611
851.895	4573
852.03	4519
852.165	4615
852.299	4691
852.434	4717
852.569	4771
852.703	4733
852.838	4790
852.973	4896
853.107	4889
853.242	4710
853.376	4668
853.511	4516
853.645	4599
853.78	4771
853.914	4687
854.048	4653
854.183	4679
854.317	4717
854.451	4812
854.585	4687
854.72	4679
854.854	4786
854.988	4599
855.122	4645
855.256	4523
855.39	4694
855.524	4774
855.658	4702
855.792	4679
855.926	4771
856.06	4782
856.194	4812
856.327	4660
856.461	4668
856.595	4634
856.729	4656
856.862	4778
856.996	4656
857.13	4744
857.263	4778
857.397	4847
857.53	4706
857.664	4733
857.797	4820
857.931	4809
858.064	4698
858.197	4740
858.331	4698
858.464	4630
858.597	4531
858.731	4637
858.864	4721
858.997	4626
859.13	4691
859.263	4714
859.396	4755
859.529	4561
859.662	4584
859.795	4596
859.928	4672
860.061	4793
860.194	4809
860.327	4641
860.46	4580
860.592	4714
860.725	4759
860.858	4786
860.99	4645
861.123	4573
861.256	4561
861.388	4710
861.521	5273
861.653	4599
861.786	4493
861.918	4519
862.05	4573
862.183	4588
862.315	4596
862.447	4694
862.58	4603
862.712	4417
862.844	4363
862.976	4535
863.108	4478
863.24	4889
863.372	4363
863.504	4455
863.636	4470
863.768	4489
863.9	4500
864.032	4394
864.164	4417
864.296	4481
864.428	4580
864.559	4596
864.691	4596
864.823	4527
864.954	4531
865.086	4546
865.217	4485
865.349	4443
865.48	4508
865.612	4493
865.743	4656
865.875	4512
866.006	4466
866.137	4508
866.269	4519
866.4	4466
866.531	4447
866.662	4462
866.793	4489
866.924	4466
867.055	4577
867.186	4481
867.317	4485
867.448	4398
867.579	4386
867.71	4428
867.841	4402
867.972	4500
868.103	4474
868.233	4436
868.364	4500
868.495	4504
868.625	4672
868.756	4801
868.886	4615
869.017	4592
869.147	4786
869.278	4778
869.408	4660
869.539	4679
869.669	4797
869.799	4683
869.929	4790
870.06	4725
870.19	4965
870.32	4976
870.45	4965
870.58	5003
870.71	5136
870.84	5121
870.97	4934
871.1	4873
871.23	5204
871.36	5128
871.489	5010
871.619	5052
871.749	5178
871.879	5132
872.008	5242
872.138	5045
872.267	4980
872.397	4877
872.526	4812
872.656	4733
872.785	4835
872.915	4976
873.044	5025
873.173	4930
873.303	4980
873.432	4972
873.561	4987
873.69	4881
873.819	4908
873.948	4919
874.077	4862
874.206	4767
874.335	4816
874.464	4927
874.593	5086
874.722	4976
874.851	5121
874.979	5045
875.108	5079
875.237	4968
875.365	4934
875.494	4854
875.623	5029
875.751	4870
875.88	4885
876.008	4987
876.136	5075
876.265	5231
876.393	5337
876.521	5277
876.65	5246
876.778	5178
876.906	5079
877.034	5025
877.162	5029
877.29	4995
877.418	5128
877.546	5056
877.674	5045
877.802	5060
877.93	5025
878.058	4938
878.185	4877
878.313	5018
878.441	4999
878.568	4809
878.696	4911
878.824	5041
878.951	5071
879.079	5197
879.206	5322
879.333	5151
879.461	5029
879.588	5006
879.715	5201
879.842	5269
879.97	5033
880.097	4805
880.224	4752
880.351	4820
880.478	4839
880.605	4812
880.732	4774
880.859	5067
880.986	4919
881.112	4923
881.239	4797
881.366	4714
881.493	4687
881.619	4641
881.746	4698
881.872	4710
881.999	4675
882.125	4702
882.252	4843
882.378	4850
882.505	4995
882.631	4858
882.757	4702
882.883	4763
883.01	4717
883.136	4683
883.262	4626
883.388	4656
883.514	4843
883.64	4892
883.766	4797
883.892	4672
884.018	4790
884.143	4889
884.269	5045
884.395	4668
884.52	4622
884.646	4717
884.772	4569
884.897	4569
885.023	4691
885.148	4805
885.274	4896
885.399	4786
885.524	4793
885.65	4706
885.775	4790
885.9	4774
886.025	4919
886.15	4774
886.275	4733
886.4	4675
886.525	4763
886.65	4675
886.775	4683
886.9	4968
887.025	5067
887.149	4816
887.274	4683
887.399	4592
887.523	4596
887.648	4580
887.773	4584
887.897	4801
888.021	4812
888.146	4702
888.27	4824
888.395	4927
888.519	4847
888.643	4805
888.767	4866
888.891	4691
889.015	4622
889.139	4668
889.263	4626
889.387	4748
889.511	4908
889.635	4801
889.759	4653
889.883	4672
890.006	4748
890.13	4850
890.254	4641
890.377	4702
890.501	4535
890.624	4508
890.748	4660
890.871	4516
890.995	4443
891.118	4432
891.241	4565
891.364	4527
891.488	4645
891.611	4554
891.734	4561
891.857	4649
891.98	4550
892.103	4672
892.226	4607
892.349	4569
892.471	4432
892.594	4538
892.717	4618
892.839	4577
892.962	4630
893.085	4683
893.207	4588
893.33	4508
893.452	4565
893.575	4637
893.697	4622
893.819	4854
893.941	4885
894.064	4774
894.186	4634
894.308	4565
894.43	4740
894.552	4847
894.674	4767
894.796	4546
894.918	4596
895.04	4592
895.161	4763
895.283	4664
895.405	4596
895.526	4641
895.648	4702
895.769	4691
895.891	4725
896.012	4725
896.134	4790
896.255	4653
896.376	4626
896.498	4637
896.619	4694
896.74	4664
896.861	4675
896.982	4976
897.103	5121
897.224	4828
897.345	4786
897.466	4714
897.587	4759
897.708	4892
897.828	4812
897.949	4634
898.07	4569
898.19	4660
898.311	4839
898.431	4687
898.552	4706
898.672	4881
898.792	4824
898.913	4721
899.033	4645
899.153	4504
899.273	4432
899.393	4478
899.513	4546
899.633	4550
899.753	4561
899.873	4508
899.993	4615
900.113	4584
900.232	4588
900.352	4592
900.472	4466
900.591	4417
900.711	4550
900.83	4470
900.95	4603
901.069	4683
901.189	4607
901.308	4333
901.427	4379
901.546	4413
901.665	4504
901.784	4512
901.904	4447
902.023	4352
902.141	4188
902.26	4223
902.379	4333
902.498	4261
902.617	4249
902.735	4383
902.854	4405
902.973	4436
903.091	4284
903.21	4211
903.328	4280
903.446	4253
903.565	4268
903.683	4390
903.801	4291
903.919	4459
904.038	4424
904.156	4344
904.274	4455
904.392	4413
904.51	4440
904.627	4508
904.745	4603
904.863	4615
904.981	4428
905.098	4341
905.216	4390
905.334	4436
905.451	4447
905.569	4455
905.686	4573
905.803	4558
905.921	4367
906.038	4519
906.155	4489
906.272	4428
906.389	4508
906.506	4329
906.623	4386
906.74	4363
906.857	4318
906.974	4424
907.091	4558
907.208	4698
907.324	4592
907.441	4565
907.557	4356
907.674	4371
907.79	4341
907.907	4455
908.023	4481
908.139	4500
908.256	4485
908.372	4462
908.488	4455
908.604	4417
908.72	4322
908.836	4379
908.952	4409
909.068	4470
909.184	4550
909.3	4531
909.415	4588
909.531	4611
909.647	4379
909.762	4341
909.878	4344
909.993	4424
910.108	4440
910.224	4405
910.339	4493
910.454	4383
910.57	4390
910.685	4306
910.8	4691
910.915	4596
911.03	4504
911.145	4310
911.259	4390
911.374	4409
911.489	4314
911.604	4276
911.718	4204
911.833	4215
911.947	4135
912.062	4013
912.176	4249
912.291	4200
912.405	4314
912.519	4474
912.633	4516
912.748	4352
912.862	4344
912.976	4227
913.09	4177
913.204	4227
913.318	4295
913.431	4386
913.545	4394
913.659	4443
913.772	4394
913.886	4291
914	4215
914.113	4394
914.226	4459
914.34	4356
914.453	4234
914.566	4424
914.68	4318
914.793	4333
914.906	4147
915.019	4109
915.132	4131
915.245	4223
915.358	4207
915.47	4219
915.583	4261
915.696	4322
915.809	4428
915.921	4405
916.034	4306
916.146	4249
916.259	4257
916.371	4341
916.483	4363
916.595	4242
916.708	4337
916.82	4337
916.932	4344
917.044	4314
917.156	4337
917.268	4276
917.38	4268
917.491	4306
917.603	4375
917.715	4409
917.826	4447
917.938	4360
918.049	4223
918.161	4398
918.272	4599
918.384	4565
918.495	4428
918.606	4280
918.717	4268
918.828	4356
918.939	4428
919.05	4268
919.161	4352
919.272	4128
919.383	4196
919.494	4428
919.604	4622
919.715	4455
919.826	4325
919.936	4443
920.047	4538
920.157	4497
920.267	4736
920.378	4527
920.488	4478
920.598	4755
920.708	4870
920.818	4767
920.928	4782
921.038	4949
921.148	4885
921.258	4592
921.368	4599
921.477	4516
921.587	4451
921.697	4424
921.806	4527
921.916	4417
922.025	4276
922.134	4284
922.244	4234
922.353	4299
922.462	4223
922.571	4162
922.68	4021
922.789	3975
922.898	4017
923.007	4059
923.116	4147
923.224	4093
923.333	4139
923.442	4017
923.55	3994
923.659	4044
923.767	4139
923.876	4029
923.984	4147
924.092	4021
924.201	4150
924.309	4097
924.417	4204
924.525	4131
924.633	4173
924.741	4919
924.849	3884
924.956	4158
925.064	4025
925.172	3930
925.279	3975
925.387	4086
925.494	4078
925.602	4211
925.709	4242
925.816	4086
925.924	4188
926.031	4246
926.138	4177
926.245	4246
926.352	4135
926.459	4306
926.566	4360
926.673	4181
926.779	4105
926.886	4116
926.993	4006
927.099	4025
927.206	4006
927.312	3964
927.419	4097
927.525	4109
927.631	4143
927.737	4029
927.843	3972
927.95	3873
928.056	3983
928.162	4040
928.267	4090
928.373	4717
928.479	4131
928.585	3987
928.69	4086
928.796	4112
928.901	3998
929.007	3873
929.112	4063
929.218	4013
929.323	4040
929.428	3972
929.533	4105
929.638	3987
929.743	4006
929.848	4074
929.953	4048
930.058	3915
930.163	3831
930.267	3888
930.372	4025
930.477	3854
930.581	4169
930.685	4013
930.79	3892
930.894	3941
930.998	3857
931.103	4044
931.207	3774
931.311	3724
931.415	3701
931.519	3534
931.623	3599
