Data from test_V78500241_2634.txt Node
Date: Fri Mar 25 17:07:19 CST 2022
User: usil
Spectrometer: V785-0024
Trigger mode: 0
Integration Time (sec): 4.000000E-1
Scans to average: 1
Nonlinearity correction enabled: false
Boxcar width: 0
Storing dark spectrum: false
XAxis mode: Wavelengths
Number of Pixels in Spectrum: 1024
>>>>>Begin Spectral Data<<<<<
801.071	8126
801.214	8062
801.356	7841
801.499	7849
801.641	7753
801.783	7807
801.926	8008
802.068	7959
802.211	7974
802.353	7997
802.496	7818
802.638	7883
802.78	7871
802.923	7944
803.065	7902
803.208	7830
803.35	7955
803.492	8100
803.635	8191
803.777	8062
803.919	8149
804.061	8438
804.204	8092
804.346	8092
804.488	7997
804.63	8115
804.773	8027
804.915	8069
805.057	8309
805.199	8202
805.341	8233
805.483	8206
805.626	8221
805.768	8195
805.91	8183
806.052	8229
806.194	8069
806.336	8259
806.478	8054
806.62	8077
806.762	8073
806.904	8130
807.046	8419
807.188	8324
807.33	8279
807.472	8259
807.614	8195
807.756	8119
807.898	8035
808.04	7887
808.182	7963
808.324	7875
808.465	7955
808.607	8103
808.749	8084
808.891	8229
809.033	8347
809.174	8202
809.316	8039
809.458	8081
809.6	7974
809.741	8046
809.883	8054
810.025	8134
810.166	8119
810.308	7982
810.45	8005
810.591	7856
810.733	7689
810.875	7651
811.016	7518
811.158	7453
811.299	7525
811.441	7742
811.582	7655
811.724	7521
811.865	7499
812.007	7613
812.148	7578
812.29	7594
812.431	7750
812.573	7814
812.714	8027
812.855	8123
812.997	8237
813.138	8339
813.279	8176
813.421	8058
813.562	8031
813.703	7875
813.845	7792
813.986	7449
814.127	7217
814.268	7183
814.41	7206
814.551	7187
814.692	7228
814.833	7084
814.974	7126
815.115	7118
815.256	6939
815.397	6993
815.539	6924
815.68	6814
815.821	6791
815.962	6798
816.103	6802
816.244	6673
816.385	6639
816.526	6639
816.666	6486
816.807	6292
816.948	6460
817.089	6483
817.23	6437
817.371	6410
817.512	6445
817.653	6437
817.793	6388
817.934	6372
818.075	6464
818.216	6464
818.356	6388
818.497	6304
818.638	6083
818.778	6144
818.919	6148
819.06	6148
819.2	6308
819.341	6380
819.481	6384
819.622	6582
819.762	6776
819.903	6738
820.043	6593
820.184	6620
820.324	6642
820.465	6692
820.605	6681
820.746	6646
820.886	6566
821.026	6692
821.167	6696
821.307	6772
821.447	6764
821.588	6715
821.728	6593
821.868	6528
822.008	6369
822.149	6365
822.289	6338
822.429	6209
822.569	6125
822.709	6205
822.849	5893
822.99	5904
823.13	5927
823.27	5927
823.41	5802
823.55	5851
823.69	5775
823.83	5748
823.97	5653
824.11	5604
824.25	5509
824.389	5604
824.529	5585
824.669	5547
824.809	5653
824.949	5714
825.089	5573
825.228	5512
825.368	5421
825.508	5326
825.648	5303
825.787	5368
825.927	5383
826.067	5292
826.206	5269
826.346	5414
826.485	5410
826.625	5391
826.765	5543
826.904	5486
827.044	5235
827.183	5193
827.323	5166
827.462	5280
827.601	5136
827.741	5201
827.88	5227
828.02	5113
828.159	5254
828.298	5337
828.437	5360
828.577	5307
828.716	5497
828.855	5360
828.994	5181
829.134	5121
829.273	5208
829.412	5143
829.551	5113
829.69	5170
829.829	5239
829.968	5402
830.107	5311
830.246	5288
830.385	5212
830.524	5162
830.663	5079
830.802	5018
830.941	4908
831.08	4835
831.219	4942
831.357	4980
831.496	5143
831.635	4908
831.774	4889
831.913	4820
832.051	4752
832.19	4752
832.329	4797
832.467	4714
832.606	4656
832.744	4733
832.883	4706
833.022	4744
833.16	4763
833.299	4839
833.437	4843
833.576	4824
833.714	4885
833.852	4847
833.991	4904
834.129	4968
834.267	4904
834.406	4877
834.544	4961
834.682	4984
834.821	4980
834.959	5178
835.097	4927
835.235	5174
835.373	5079
835.511	5094
835.65	4984
835.788	5083
835.926	4927
836.064	4908
836.202	4877
836.34	5136
836.478	5197
836.615	5132
836.753	5250
836.891	5265
837.029	5284
837.167	5197
837.305	5204
837.443	5155
837.58	5086
837.718	5269
837.856	5166
837.993	5136
838.131	5208
838.269	5227
838.406	5204
838.544	5178
838.681	5033
838.819	5045
838.956	4892
839.094	4915
839.231	4972
839.369	5071
839.506	5414
839.643	5254
839.781	5109
839.918	4991
840.055	5079
840.193	5090
840.33	5128
840.467	5136
840.604	5151
840.742	5410
840.879	5083
841.016	5003
841.153	5147
841.29	5345
841.427	5330
841.564	5299
841.701	5307
841.838	5315
841.975	5231
842.112	5288
842.249	5124
842.385	5113
842.522	5284
842.659	5174
842.796	5140
842.933	5174
843.069	5140
843.206	5178
843.343	5311
843.479	5277
843.616	5273
843.752	5056
843.889	5018
844.025	5178
844.162	5037
844.298	5189
844.435	5086
844.571	5048
844.708	5235
844.844	5250
844.98	5303
845.117	5277
845.253	5105
845.389	5079
845.525	5121
845.661	5121
845.798	5056
845.934	5174
846.07	5052
846.206	5235
846.342	5242
846.478	5166
846.614	5045
846.75	4991
846.886	4957
847.022	5132
847.158	5033
847.294	5083
847.429	5056
847.565	5109
847.701	5334
847.837	4839
847.972	4820
848.108	4949
848.244	4896
848.379	4824
848.515	4752
848.65	4714
848.786	4691
848.921	4778
849.057	4885
849.192	4919
849.328	4843
849.463	4847
849.598	4786
849.734	4774
849.869	4668
850.004	4599
850.14	4679
850.275	4626
850.41	4573
850.545	4516
850.68	4649
850.815	4641
850.95	4618
851.085	4843
851.22	4725
851.355	4660
851.49	4607
851.625	4656
851.76	4607
851.895	4538
852.03	4580
852.165	4626
852.299	4691
852.434	4710
852.569	4748
852.703	4801
852.838	4843
852.973	4877
853.107	4908
853.242	4710
853.376	4618
853.511	4558
853.645	4573
853.78	4755
853.914	4714
854.048	4660
854.183	4683
854.317	4687
854.451	4835
854.585	4687
854.72	4637
854.854	4805
854.988	4554
855.122	4675
855.256	4523
855.39	4656
855.524	4729
855.658	4736
855.792	4702
855.926	4744
856.06	4759
856.194	4801
856.327	4668
856.461	4630
856.595	4588
856.729	4580
856.862	4790
856.996	4691
857.13	4694
857.263	4771
857.397	4812
857.53	4653
857.664	4717
857.797	4763
857.931	4797
858.064	4672
858.197	4793
858.331	4592
858.464	4603
858.597	4516
858.731	4626
858.864	4672
858.997	4607
859.13	4637
859.263	4675
859.396	4759
859.529	4516
859.662	4584
859.795	4550
859.928	4626
860.061	4748
860.194	4786
860.327	4573
860.46	4603
860.592	4710
860.725	4702
860.858	4702
860.99	4558
861.123	4512
861.256	4546
861.388	4584
861.521	5463
861.653	4538
861.786	4451
861.918	4470
862.05	4535
862.183	4607
862.315	4607
862.447	4706
862.58	4516
862.712	4409
862.844	4318
862.976	4474
863.108	4462
863.24	4717
863.372	4333
863.504	4459
863.636	4421
863.768	4554
863.9	4371
864.032	4424
864.164	4443
864.296	4470
864.428	4535
864.559	4577
864.691	4523
864.823	4546
864.954	4519
865.086	4512
865.217	4462
865.349	4390
865.48	4443
865.612	4508
865.743	4641
865.875	4421
866.006	4436
866.137	4470
866.269	4436
866.4	4432
866.531	4363
866.662	4443
866.793	4409
866.924	4363
867.055	4504
867.186	4451
867.317	4428
867.448	4386
867.579	4390
867.71	4390
867.841	4405
867.972	4432
868.103	4466
868.233	4417
868.364	4417
868.495	4481
868.625	4637
868.756	4748
868.886	4573
869.017	4630
869.147	4725
869.278	4767
869.408	4630
869.539	4656
869.669	4717
869.799	4672
869.929	4774
870.06	4702
870.19	4923
870.32	4923
870.45	4953
870.58	5010
870.71	5041
870.84	5121
870.97	4957
871.1	4927
871.23	5132
871.36	5143
871.489	5033
871.619	5064
871.749	5075
871.879	5117
872.008	5193
872.138	5014
872.267	4980
872.397	4805
872.526	4820
872.656	4729
872.785	4824
872.915	4995
873.044	4957
873.173	4930
873.303	4957
873.432	4942
873.561	4946
873.69	4824
873.819	4828
873.948	4896
874.077	4889
874.206	4755
874.335	4755
874.464	4946
874.593	5056
874.722	4965
874.851	5075
874.979	5064
875.108	5006
875.237	4927
875.365	4850
875.494	4900
875.623	5022
875.751	4797
875.88	4904
876.008	4965
876.136	5010
876.265	5197
876.393	5345
876.521	5254
876.65	5258
876.778	5201
876.906	5086
877.034	5045
877.162	5029
877.29	4991
877.418	5083
877.546	5025
877.674	5079
877.802	5056
877.93	4995
878.058	4984
878.185	4904
878.313	4965
878.441	4938
878.568	4828
878.696	4843
878.824	4965
878.951	4972
879.079	5143
879.206	5299
879.333	5143
879.461	5010
879.588	5022
879.715	5067
879.842	5220
879.97	5029
880.097	4824
880.224	4752
880.351	4828
880.478	4786
880.605	4755
880.732	4797
880.859	5079
880.986	4831
881.112	4923
881.239	4774
881.366	4645
881.493	4611
881.619	4622
881.746	4592
881.872	4615
881.999	4618
882.125	4687
882.252	4755
882.378	4873
882.505	4957
882.631	4820
882.757	4641
882.883	4733
883.01	4683
883.136	4664
883.262	4615
883.388	4656
883.514	4854
883.64	4797
883.766	4801
883.892	4687
884.018	4656
884.143	4915
884.269	5052
884.395	4660
884.52	4615
884.646	4649
884.772	4580
884.897	4546
885.023	4668
885.148	4797
885.274	4892
885.399	4790
885.524	4778
885.65	4675
885.775	4717
885.9	4706
886.025	4854
886.15	4793
886.275	4710
886.4	4588
886.525	4786
886.65	4706
886.775	4694
886.9	4927
887.025	5014
887.149	4809
887.274	4645
887.399	4580
887.523	4668
887.648	4546
887.773	4603
887.897	4752
888.021	4752
888.146	4656
888.27	4797
888.395	4881
888.519	4839
888.643	4778
888.767	4843
888.891	4649
889.015	4588
889.139	4645
889.263	4588
889.387	4672
889.511	4885
889.635	4782
889.759	4584
889.883	4675
890.006	4801
890.13	4767
890.254	4634
890.377	4691
890.501	4580
890.624	4512
890.748	4653
890.871	4459
890.995	4417
891.118	4333
891.241	4546
891.364	4588
891.488	4649
891.611	4512
891.734	4565
891.857	4592
891.98	4561
892.103	4584
892.226	4569
892.349	4542
892.471	4421
892.594	4573
892.717	4637
892.839	4561
892.962	4535
893.085	4698
893.207	4615
893.33	4451
893.452	4573
893.575	4691
893.697	4542
893.819	4778
893.941	4786
894.064	4729
894.186	4603
894.308	4516
894.43	4702
894.552	4820
894.674	4729
894.796	4546
894.918	4637
895.04	4588
895.161	4740
895.283	4618
895.405	4596
895.526	4615
895.648	4672
895.769	4679
895.891	4714
896.012	4717
896.134	4717
896.255	4679
896.376	4618
896.498	4615
896.619	4660
896.74	4561
896.861	4656
896.982	4904
897.103	5056
897.224	4828
897.345	4733
897.466	4694
897.587	4748
897.708	4870
897.828	4771
897.949	4675
898.07	4523
898.19	4630
898.311	4812
898.431	4660
898.552	4698
898.672	4797
898.792	4797
898.913	4706
899.033	4626
899.153	4455
899.273	4424
899.393	4493
899.513	4493
899.633	4535
899.753	4531
899.873	4508
899.993	4577
900.113	4512
900.232	4607
900.352	4546
900.472	4519
900.591	4440
900.711	4481
900.83	4398
900.95	4622
901.069	4664
901.189	4527
901.308	4341
901.427	4322
901.546	4341
901.665	4481
901.784	4497
901.904	4390
902.023	4310
902.141	4154
902.26	4135
902.379	4284
902.498	4192
902.617	4230
902.735	4375
902.854	4360
902.973	4360
903.091	4238
903.21	4219
903.328	4295
903.446	4207
903.565	4280
903.683	4344
903.801	4280
903.919	4409
904.038	4386
904.156	4306
904.274	4383
904.392	4394
904.51	4413
904.627	4478
904.745	4550
904.863	4656
904.981	4432
905.098	4287
905.216	4344
905.334	4447
905.451	4447
905.569	4413
905.686	4561
905.803	4558
905.921	4424
906.038	4523
906.155	4455
906.272	4375
906.389	4440
906.506	4348
906.623	4348
906.74	4447
906.857	4325
906.974	4360
907.091	4546
907.208	4691
907.324	4569
907.441	4481
907.557	4356
907.674	4337
907.79	4344
907.907	4337
908.023	4459
908.139	4478
908.256	4363
908.372	4451
908.488	4440
908.604	4314
908.72	4276
908.836	4356
908.952	4333
909.068	4424
909.184	4554
909.3	4474
909.415	4569
909.531	4523
909.647	4303
909.762	4398
909.878	4341
909.993	4390
910.108	4417
910.224	4421
910.339	4462
910.454	4398
910.57	4322
910.685	4291
910.8	4660
910.915	4615
911.03	4447
911.145	4329
911.259	4325
911.374	4421
911.489	4310
911.604	4287
911.718	4177
911.833	4215
911.947	4093
912.062	4010
912.176	4185
912.291	4227
912.405	4234
912.519	4413
912.633	4474
912.748	4413
912.862	4341
912.976	4215
913.09	4082
913.204	4238
913.318	4337
913.431	4379
913.545	4363
913.659	4443
913.772	4409
913.886	4257
914	4223
914.113	4371
914.226	4485
914.34	4417
914.453	4261
914.566	4474
914.68	4310
914.793	4394
914.906	4215
915.019	4143
915.132	4143
915.245	4207
915.358	4246
915.47	4257
915.583	4284
915.696	4352
915.809	4443
915.921	4493
916.034	4284
916.146	4329
916.259	4284
916.371	4470
916.483	4402
916.595	4318
916.708	4360
916.82	4360
916.932	4352
917.044	4383
917.156	4379
917.268	4257
917.38	4352
917.491	4310
917.603	4375
917.715	4481
917.826	4470
917.938	4352
918.049	4249
918.161	4432
918.272	4565
918.384	4599
918.495	4470
918.606	4348
918.717	4329
918.828	4356
918.939	4417
919.05	4284
919.161	4356
919.272	4234
919.383	4265
919.494	4497
919.604	4694
919.715	4443
919.826	4383
919.936	4455
920.047	4577
920.157	4538
920.267	4740
920.378	4603
920.488	4542
920.598	4782
920.708	4904
920.818	4793
920.928	4790
921.038	4991
921.148	4957
921.258	4725
921.368	4580
921.477	4508
921.587	4500
921.697	4394
921.806	4596
921.916	4436
922.025	4265
922.134	4257
922.244	4265
922.353	4405
922.462	4227
922.571	4162
922.68	4032
922.789	4036
922.898	4074
923.007	4025
923.116	4147
923.224	4116
923.333	4097
923.442	3994
923.55	4025
923.659	4090
923.767	4128
923.876	3991
923.984	4105
924.092	4036
924.201	4135
924.309	4150
924.417	4154
924.525	4124
924.633	4143
924.741	5037
924.849	3979
924.956	4150
925.064	4006
925.172	3975
925.279	4017
925.387	4051
925.494	4078
925.602	4272
925.709	4211
925.816	4029
925.924	4188
926.031	4276
926.138	4196
926.245	4230
926.352	4135
926.459	4284
926.566	4325
926.673	4204
926.779	4120
926.886	4082
926.993	3979
927.099	3979
927.206	3937
927.312	3994
927.419	4112
927.525	4074
927.631	4109
927.737	3998
927.843	3991
927.95	3899
928.056	4010
928.162	4025
928.267	4059
928.373	4622
928.479	4120
928.585	3896
928.69	4090
928.796	4059
928.901	4032
929.007	3892
929.112	4025
929.218	4032
929.323	3911
929.428	3979
929.533	4120
929.638	3960
929.743	4002
929.848	4055
929.953	4006
930.058	3987
930.163	3842
930.267	3854
930.372	3994
930.477	3778
930.581	4124
930.685	3975
930.79	3880
930.894	3888
930.998	3869
931.103	4002
931.207	3740
931.311	3720
931.415	3728
931.519	3561
931.623	3633
