Data from test_V78500241_2710.txt Node
Date: Fri Mar 25 17:07:50 CST 2022
User: usil
Spectrometer: V785-0024
Trigger mode: 0
Integration Time (sec): 4.000000E-1
Scans to average: 1
Nonlinearity correction enabled: false
Boxcar width: 0
Storing dark spectrum: false
XAxis mode: Wavelengths
Number of Pixels in Spectrum: 1024
>>>>>Begin Spectral Data<<<<<
801.071	8001
801.214	7963
801.356	7906
801.499	7856
801.641	7818
801.783	7932
801.926	7951
802.068	7906
802.211	8058
802.353	8024
802.496	7894
802.638	7894
802.78	7925
802.923	7940
803.065	7864
803.208	7890
803.35	7982
803.492	8046
803.635	8164
803.777	8062
803.919	8138
804.061	8389
804.204	8126
804.346	8107
804.488	7986
804.63	8103
804.773	8069
804.915	8092
805.057	8355
805.199	8176
805.341	8290
805.483	8279
805.626	8286
805.768	8149
805.91	8218
806.052	8263
806.194	8157
806.336	8351
806.478	8119
806.62	8001
806.762	8149
806.904	8202
807.046	8476
807.188	8396
807.33	8332
807.472	8298
807.614	8202
807.756	8221
807.898	8016
808.04	7818
808.182	7875
808.324	7898
808.465	7932
808.607	8077
808.749	8183
808.891	8351
809.033	8320
809.174	8324
809.316	8134
809.458	8084
809.6	8062
809.741	8031
809.883	8039
810.025	8123
810.166	8161
810.308	8020
810.45	8046
810.591	7837
810.733	7738
810.875	7674
811.016	7571
811.158	7518
811.299	7613
811.441	7803
811.582	7746
811.724	7616
811.865	7533
812.007	7613
812.148	7586
812.29	7666
812.431	7780
812.573	7868
812.714	8027
812.855	8142
812.997	8187
813.138	8358
813.279	8172
813.421	8069
813.562	7967
813.703	7864
813.845	7757
813.986	7438
814.127	7301
814.268	7240
814.41	7244
814.551	7152
814.692	7183
814.833	7099
814.974	7065
815.115	7099
815.256	6951
815.397	6932
815.539	6947
815.68	6806
815.821	6757
815.962	6878
816.103	6878
816.244	6757
816.385	6585
816.526	6688
816.666	6521
816.807	6289
816.948	6475
817.089	6483
817.23	6426
817.371	6391
817.512	6369
817.653	6433
817.793	6384
817.934	6380
818.075	6395
818.216	6448
818.356	6410
818.497	6251
818.638	6163
818.778	6159
818.919	6167
819.06	6167
819.2	6361
819.341	6296
819.481	6350
819.622	6479
819.762	6707
819.903	6650
820.043	6650
820.184	6574
820.324	6597
820.465	6738
820.605	6726
820.746	6681
820.886	6506
821.026	6684
821.167	6700
821.307	6806
821.447	6806
821.588	6642
821.728	6566
821.868	6521
822.008	6331
822.149	6422
822.289	6376
822.429	6194
822.569	6106
822.709	6136
822.849	5920
822.99	5904
823.13	5958
823.27	5935
823.41	5821
823.55	5824
823.69	5790
823.83	5760
823.97	5699
824.11	5577
824.25	5547
824.389	5497
824.529	5596
824.669	5558
824.809	5604
824.949	5707
825.089	5608
825.228	5585
825.368	5414
825.508	5372
825.648	5334
825.787	5398
825.927	5410
826.067	5330
826.206	5315
826.346	5410
826.485	5410
826.625	5433
826.765	5554
826.904	5493
827.044	5273
827.183	5220
827.323	5159
827.462	5292
827.601	5178
827.741	5197
827.88	5197
828.02	5132
828.159	5254
828.298	5341
828.437	5360
828.577	5250
828.716	5497
828.855	5277
828.994	5166
829.134	5181
829.273	5193
829.412	5162
829.551	5147
829.69	5193
829.829	5261
829.968	5330
830.107	5269
830.246	5273
830.385	5170
830.524	5086
830.663	5067
830.802	4984
830.941	4923
831.08	4850
831.219	4991
831.357	4995
831.496	5162
831.635	4923
831.774	4862
831.913	4885
832.051	4786
832.19	4714
832.329	4816
832.467	4706
832.606	4679
832.744	4702
832.883	4767
833.022	4736
833.16	4774
833.299	4759
833.437	4805
833.576	4854
833.714	4873
833.852	4881
833.991	4870
834.129	4927
834.267	4968
834.406	4828
834.544	4953
834.682	4953
834.821	5033
834.959	5162
835.097	4987
835.235	5178
835.373	5090
835.511	5052
835.65	5025
835.788	5006
835.926	4908
836.064	4885
836.202	4968
836.34	5162
836.478	5265
836.615	5113
836.753	5216
836.891	5254
837.029	5239
837.167	5159
837.305	5170
837.443	5151
837.58	5071
837.718	5231
837.856	5185
837.993	5109
838.131	5254
838.269	5223
838.406	5159
838.544	5147
838.681	5025
838.819	4984
838.956	4949
839.094	4847
839.231	5006
839.369	5060
839.506	5391
839.643	5212
839.781	5045
839.918	5018
840.055	5121
840.193	5113
840.33	5132
840.467	5117
840.604	5235
840.742	5383
840.879	5064
841.016	5018
841.153	5151
841.29	5379
841.427	5357
841.564	5345
841.701	5345
841.838	5265
841.975	5288
842.112	5307
842.249	5132
842.385	5124
842.522	5318
842.659	5159
842.796	5140
842.933	5212
843.069	5136
843.206	5151
843.343	5246
843.479	5303
843.616	5250
843.752	5056
843.889	5029
844.025	5223
844.162	4987
844.298	5223
844.435	5117
844.571	5033
844.708	5227
844.844	5277
844.98	5280
845.117	5250
845.253	5140
845.389	5128
845.525	5155
845.661	5147
845.798	5064
845.934	5090
846.07	5075
846.206	5216
846.342	5315
846.478	5121
846.614	5025
846.75	4934
846.886	4953
847.022	5155
847.158	5037
847.294	5060
847.429	5094
847.565	5094
847.701	5296
847.837	4854
847.972	4778
848.108	4930
848.244	4930
848.379	4797
848.515	4706
848.65	4710
848.786	4752
848.921	4801
849.057	4854
849.192	4942
849.328	4774
849.463	4919
849.598	4767
849.734	4752
849.869	4721
850.004	4615
850.14	4672
850.275	4607
850.41	4546
850.545	4531
850.68	4592
850.815	4634
850.95	4615
851.085	4850
851.22	4755
851.355	4733
851.49	4618
851.625	4615
851.76	4596
851.895	4535
852.03	4554
852.165	4615
852.299	4660
852.434	4793
852.569	4763
852.703	4782
852.838	4858
852.973	4923
853.107	4908
853.242	4710
853.376	4694
853.511	4561
853.645	4630
853.78	4767
853.914	4698
854.048	4694
854.183	4641
854.317	4702
854.451	4820
854.585	4706
854.72	4649
854.854	4767
854.988	4588
855.122	4626
855.256	4565
855.39	4656
855.524	4786
855.658	4740
855.792	4725
855.926	4714
856.06	4790
856.194	4839
856.327	4679
856.461	4607
856.595	4607
856.729	4622
856.862	4755
856.996	4721
857.13	4763
857.263	4782
857.397	4805
857.53	4641
857.664	4729
857.797	4721
857.931	4767
858.064	4660
858.197	4748
858.331	4653
858.464	4565
858.597	4481
858.731	4599
858.864	4641
858.997	4592
859.13	4588
859.263	4672
859.396	4698
859.529	4592
859.662	4584
859.795	4535
859.928	4618
860.061	4752
860.194	4786
860.327	4603
860.46	4565
860.592	4687
860.725	4698
860.858	4729
860.99	4558
861.123	4470
861.256	4512
861.388	4664
861.521	5273
861.653	4508
861.786	4428
861.918	4421
862.05	4519
862.183	4569
862.315	4577
862.447	4630
862.58	4538
862.712	4379
862.844	4325
862.976	4485
863.108	4493
863.24	4763
863.372	4318
863.504	4398
863.636	4398
863.768	4497
863.9	4413
864.032	4348
864.164	4386
864.296	4485
864.428	4565
864.559	4561
864.691	4561
864.823	4523
864.954	4500
865.086	4504
865.217	4440
865.349	4405
865.48	4417
865.612	4455
865.743	4607
865.875	4516
866.006	4428
866.137	4424
866.269	4421
866.4	4451
866.531	4421
866.662	4363
866.793	4428
866.924	4440
867.055	4512
867.186	4447
867.317	4421
867.448	4348
867.579	4421
867.71	4344
867.841	4390
867.972	4455
868.103	4474
868.233	4447
868.364	4402
868.495	4527
868.625	4687
868.756	4748
868.886	4607
869.017	4645
869.147	4759
869.278	4759
869.408	4656
869.539	4630
869.669	4717
869.799	4672
869.929	4755
870.06	4691
870.19	4984
870.32	4904
870.45	4972
870.58	5006
870.71	5029
870.84	5102
870.97	4949
871.1	4923
871.23	5147
871.36	5181
871.489	5048
871.619	5014
871.749	5124
871.879	5166
872.008	5174
872.138	5041
872.267	5014
872.397	4911
872.526	4831
872.656	4778
872.785	4774
872.915	4938
873.044	5033
873.173	4915
873.303	5006
873.432	4892
873.561	4957
873.69	4885
873.819	4873
873.948	4927
874.077	4801
874.206	4748
874.335	4782
874.464	4965
874.593	5075
874.722	4965
874.851	5132
874.979	5033
875.108	5052
875.237	4946
875.365	4911
875.494	4892
875.623	5025
875.751	4816
875.88	4885
876.008	4972
876.136	5014
876.265	5220
876.393	5322
876.521	5212
876.65	5197
876.778	5155
876.906	5071
877.034	5014
877.162	5029
877.29	4991
877.418	5037
877.546	5094
877.674	5079
877.802	5048
877.93	5052
878.058	4919
878.185	4862
878.313	4953
878.441	4957
878.568	4805
878.696	4911
878.824	4942
878.951	5014
879.079	5136
879.206	5280
879.333	5140
879.461	4968
879.588	4991
879.715	5140
879.842	5208
879.97	5022
880.097	4839
880.224	4710
880.351	4809
880.478	4839
880.605	4835
880.732	4835
880.859	5064
880.986	4839
881.112	4923
881.239	4778
881.366	4668
881.493	4596
881.619	4531
881.746	4637
881.872	4626
881.999	4668
882.125	4714
882.252	4778
882.378	4812
882.505	4999
882.631	4793
882.757	4660
882.883	4729
883.01	4725
883.136	4607
883.262	4588
883.388	4649
883.514	4828
883.64	4870
883.766	4790
883.892	4649
884.018	4755
884.143	4873
884.269	4976
884.395	4698
884.52	4611
884.646	4637
884.772	4592
884.897	4596
885.023	4672
885.148	4778
885.274	4847
885.399	4805
885.524	4672
885.65	4729
885.775	4740
885.9	4675
886.025	4892
886.15	4820
886.275	4740
886.4	4641
886.525	4763
886.65	4668
886.775	4691
886.9	4923
887.025	5052
887.149	4820
887.274	4622
887.399	4573
887.523	4596
887.648	4558
887.773	4577
887.897	4687
888.021	4771
888.146	4668
888.27	4797
888.395	4938
888.519	4820
888.643	4843
888.767	4820
888.891	4656
889.015	4599
889.139	4653
889.263	4592
889.387	4744
889.511	4881
889.635	4782
889.759	4653
889.883	4649
890.006	4736
890.13	4816
890.254	4607
890.377	4664
890.501	4489
890.624	4527
890.748	4641
890.871	4516
890.995	4455
891.118	4383
891.241	4519
891.364	4558
891.488	4634
891.611	4481
891.734	4554
891.857	4615
891.98	4599
892.103	4683
892.226	4641
892.349	4485
892.471	4455
892.594	4527
892.717	4569
892.839	4561
892.962	4580
893.085	4679
893.207	4607
893.33	4485
893.452	4531
893.575	4691
893.697	4527
893.819	4820
893.941	4854
894.064	4778
894.186	4611
894.308	4599
894.43	4740
894.552	4854
894.674	4725
894.796	4565
894.918	4584
895.04	4615
895.161	4714
895.283	4645
895.405	4535
895.526	4649
895.648	4698
895.769	4733
895.891	4634
896.012	4736
896.134	4740
896.255	4683
896.376	4664
896.498	4618
896.619	4687
896.74	4615
896.861	4653
896.982	4961
897.103	5094
897.224	4805
897.345	4755
897.466	4664
897.587	4725
897.708	4843
897.828	4812
897.949	4702
898.07	4584
898.19	4706
898.311	4778
898.431	4672
898.552	4729
898.672	4801
898.792	4759
898.913	4767
899.033	4607
899.153	4512
899.273	4470
899.393	4500
899.513	4508
899.633	4523
899.753	4523
899.873	4504
899.993	4546
900.113	4485
900.232	4573
900.352	4516
900.472	4508
900.591	4409
900.711	4516
900.83	4451
900.95	4645
901.069	4660
901.189	4584
901.308	4333
901.427	4303
901.546	4356
901.665	4474
901.784	4523
901.904	4413
902.023	4322
902.141	4177
902.26	4143
902.379	4333
902.498	4268
902.617	4234
902.735	4405
902.854	4413
902.973	4375
903.091	4234
903.21	4253
903.328	4276
903.446	4246
903.565	4234
903.683	4394
903.801	4291
903.919	4405
904.038	4375
904.156	4352
904.274	4455
904.392	4390
904.51	4402
904.627	4443
904.745	4573
904.863	4626
904.981	4402
905.098	4322
905.216	4367
905.334	4405
905.451	4405
905.569	4432
905.686	4588
905.803	4592
905.921	4417
906.038	4535
906.155	4493
906.272	4417
906.389	4489
906.506	4405
906.623	4367
906.74	4394
906.857	4299
906.974	4348
907.091	4596
907.208	4653
907.324	4565
907.441	4474
907.557	4367
907.674	4341
907.79	4322
907.907	4409
908.023	4462
908.139	4428
908.256	4443
908.372	4466
908.488	4436
908.604	4341
908.72	4303
908.836	4417
908.952	4398
909.068	4455
909.184	4607
909.3	4451
909.415	4523
909.531	4584
909.647	4344
909.762	4379
909.878	4310
909.993	4432
910.108	4394
910.224	4413
910.339	4459
910.454	4402
910.57	4344
910.685	4310
910.8	4611
910.915	4596
911.03	4481
911.145	4333
911.259	4329
911.374	4344
911.489	4337
911.604	4261
911.718	4158
911.833	4185
911.947	4139
912.062	4036
912.176	4276
912.291	4200
912.405	4257
912.519	4474
912.633	4462
912.748	4375
912.862	4291
912.976	4219
913.09	4086
913.204	4196
913.318	4253
913.431	4314
913.545	4367
913.659	4432
913.772	4341
913.886	4284
914	4230
914.113	4394
914.226	4443
914.34	4379
914.453	4295
914.566	4440
914.68	4284
914.793	4322
914.906	4124
915.019	4139
915.132	4101
915.245	4169
915.358	4181
915.47	4219
915.583	4310
915.696	4344
915.809	4398
915.921	4421
916.034	4272
916.146	4249
916.259	4265
916.371	4360
916.483	4329
916.595	4284
916.708	4337
916.82	4314
916.932	4367
917.044	4318
917.156	4299
917.268	4268
917.38	4325
917.491	4272
917.603	4383
917.715	4405
917.826	4417
917.938	4287
918.049	4246
918.161	4405
918.272	4546
918.384	4558
918.495	4451
918.606	4329
918.717	4196
918.828	4337
918.939	4394
919.05	4284
919.161	4333
919.272	4154
919.383	4215
919.494	4493
919.604	4618
919.715	4390
919.826	4356
919.936	4451
920.047	4550
920.157	4497
920.267	4687
920.378	4527
920.488	4485
920.598	4672
920.708	4881
920.818	4790
920.928	4752
921.038	4923
921.148	4927
921.258	4664
921.368	4550
921.477	4462
921.587	4489
921.697	4386
921.806	4550
921.916	4428
922.025	4268
922.134	4257
922.244	4249
922.353	4314
922.462	4207
922.571	4120
922.68	4055
922.789	3979
922.898	4051
923.007	4002
923.116	4109
923.224	4105
923.333	4063
923.442	3994
923.55	3968
923.659	4017
923.767	4071
923.876	4013
923.984	4105
924.092	3968
924.201	4063
924.309	4093
924.417	4135
924.525	4090
924.633	4067
924.741	5037
924.849	3926
924.956	4082
925.064	3934
925.172	3907
925.279	3975
925.387	4074
925.494	4105
925.602	4234
925.709	4207
925.816	4078
925.924	4158
926.031	4219
926.138	4173
926.245	4192
926.352	4109
926.459	4291
926.566	4322
926.673	4181
926.779	4090
926.886	4093
926.993	3972
927.099	3983
927.206	3953
927.312	3918
927.419	4055
927.525	3994
927.631	4093
927.737	3983
927.843	3956
927.95	3888
928.056	3968
928.162	3960
928.267	4032
928.373	4596
928.479	4112
928.585	3896
928.69	4029
928.796	4013
928.901	3975
929.007	3861
929.112	4017
929.218	4032
929.323	3979
929.428	3896
929.533	4090
929.638	3953
929.743	3987
929.848	4032
929.953	4010
930.058	3915
930.163	3789
930.267	3823
930.372	3983
930.477	3785
930.581	4116
930.685	3949
930.79	3774
930.894	3854
930.998	3835
931.103	4013
931.207	3770
931.311	3736
931.415	3701
931.519	3553
931.623	3591
