Data from test_V78500241_651.txt Node
Date: Fri Mar 25 16:53:31 CST 2022
User: usil
Spectrometer: V785-0024
Trigger mode: 0
Integration Time (sec): 4.000000E-1
Scans to average: 1
Nonlinearity correction enabled: false
Boxcar width: 0
Storing dark spectrum: false
XAxis mode: Wavelengths
Number of Pixels in Spectrum: 1024
>>>>>Begin Spectral Data<<<<<
801.071	8088
801.214	8100
801.356	7879
801.499	7936
801.641	7788
801.783	7807
801.926	8081
802.068	7959
802.211	7978
802.353	8077
802.496	7917
802.638	7970
802.78	7947
802.923	7959
803.065	7856
803.208	7902
803.35	7967
803.492	8096
803.635	8142
803.777	8001
803.919	8062
804.061	8412
804.204	8081
804.346	8062
804.488	8012
804.63	8107
804.773	7978
804.915	8081
805.057	8256
805.199	8149
805.341	8271
805.483	8328
805.626	8282
805.768	8142
805.91	8271
806.052	8191
806.194	8123
806.336	8290
806.478	8100
806.62	8046
806.762	8103
806.904	8221
807.046	8370
807.188	8393
807.33	8271
807.472	8328
807.614	8138
807.756	8126
807.898	8001
808.04	7845
808.182	7894
808.324	7852
808.465	7871
808.607	8050
808.749	8107
808.891	8145
809.033	8313
809.174	8195
809.316	8077
809.458	8031
809.6	7940
809.741	8008
809.883	7989
810.025	8103
810.166	8088
810.308	8001
810.45	8024
810.591	7955
810.733	7677
810.875	7696
811.016	7556
811.158	7495
811.299	7567
811.441	7769
811.582	7693
811.724	7567
811.865	7506
812.007	7594
812.148	7628
812.29	7628
812.431	7712
812.573	7890
812.714	7963
812.855	8142
812.997	8221
813.138	8305
813.279	8218
813.421	8183
813.562	8012
813.703	7852
813.845	7856
813.986	7552
814.127	7339
814.268	7339
814.41	7282
814.551	7118
814.692	7160
814.833	7076
814.974	7012
815.115	7110
815.256	7038
815.397	6989
815.539	6924
815.68	6856
815.821	6840
815.962	6901
816.103	6806
816.244	6753
816.385	6631
816.526	6642
816.666	6532
816.807	6292
816.948	6422
817.089	6422
817.23	6418
817.371	6410
817.512	6441
817.653	6426
817.793	6350
817.934	6414
818.075	6445
818.216	6407
818.356	6384
818.497	6232
818.638	6121
818.778	6167
818.919	6163
819.06	6175
819.2	6292
819.341	6334
819.481	6357
819.622	6536
819.762	6768
819.903	6715
820.043	6566
820.184	6612
820.324	6582
820.465	6631
820.605	6665
820.746	6654
820.886	6540
821.026	6635
821.167	6703
821.307	6806
821.447	6703
821.588	6608
821.728	6521
821.868	6414
822.008	6277
822.149	6327
822.289	6327
822.429	6171
822.569	6076
822.709	6095
822.849	5908
822.99	5878
823.13	5961
823.27	5908
823.41	5767
823.55	5752
823.69	5752
823.83	5783
823.97	5676
824.11	5551
824.25	5535
824.389	5509
824.529	5585
824.669	5509
824.809	5630
824.949	5680
825.089	5608
825.228	5642
825.368	5395
825.508	5353
825.648	5360
825.787	5395
825.927	5364
826.067	5296
826.206	5280
826.346	5387
826.485	5421
826.625	5417
826.765	5562
826.904	5471
827.044	5223
827.183	5239
827.323	5117
827.462	5239
827.601	5189
827.741	5208
827.88	5265
828.02	5094
828.159	5239
828.298	5284
828.437	5341
828.577	5246
828.716	5486
828.855	5349
828.994	5140
829.134	5136
829.273	5162
829.412	5113
829.551	5136
829.69	5170
829.829	5242
829.968	5318
830.107	5231
830.246	5292
830.385	5220
830.524	5109
830.663	5045
830.802	5022
830.941	4850
831.08	4919
831.219	5003
831.357	4927
831.496	5162
831.635	4961
831.774	4873
831.913	4843
832.051	4668
832.19	4793
832.329	4881
832.467	4729
832.606	4653
832.744	4721
832.883	4706
833.022	4744
833.16	4790
833.299	4793
833.437	4858
833.576	4824
833.714	4870
833.852	4809
833.991	4889
834.129	5006
834.267	4999
834.406	4885
834.544	5022
834.682	4984
834.821	4976
834.959	5185
835.097	4953
835.235	5166
835.373	5098
835.511	5098
835.65	4995
835.788	5006
835.926	4934
836.064	4877
836.202	4873
836.34	5155
836.478	5201
836.615	5105
836.753	5223
836.891	5239
837.029	5193
837.167	5162
837.305	5124
837.443	5140
837.58	5060
837.718	5231
837.856	5140
837.993	5204
838.131	5204
838.269	5197
838.406	5208
838.544	5181
838.681	5010
838.819	4984
838.956	4881
839.094	4908
839.231	5025
839.369	5105
839.506	5425
839.643	5235
839.781	5083
839.918	4965
840.055	5083
840.193	5124
840.33	5132
840.467	5147
840.604	5143
840.742	5421
840.879	5132
841.016	5113
841.153	5208
841.29	5383
841.427	5353
841.564	5334
841.701	5368
841.838	5299
841.975	5246
842.112	5296
842.249	5143
842.385	5105
842.522	5383
842.659	5132
842.796	5117
842.933	5159
843.069	5166
843.206	5117
843.343	5299
843.479	5246
843.616	5273
843.752	5029
843.889	5048
844.025	5220
844.162	5045
844.298	5178
844.435	5045
844.571	5079
844.708	5223
844.844	5307
844.98	5349
845.117	5265
845.253	5151
845.389	5090
845.525	5174
845.661	5121
845.798	5033
845.934	5178
846.07	5048
846.206	5170
846.342	5220
846.478	5166
846.614	5018
846.75	4972
846.886	4911
847.022	5113
847.158	5025
847.294	5098
847.429	5071
847.565	5048
847.701	5341
847.837	4873
847.972	4812
848.108	4915
848.244	4949
848.379	4782
848.515	4721
848.65	4740
848.786	4706
848.921	4797
849.057	4919
849.192	4896
849.328	4831
849.463	4850
849.598	4774
849.734	4790
849.869	4683
850.004	4645
850.14	4691
850.275	4561
850.41	4516
850.545	4580
850.68	4645
850.815	4611
850.95	4603
851.085	4866
851.22	4771
851.355	4668
851.49	4645
851.625	4611
851.76	4615
851.895	4558
852.03	4561
852.165	4668
852.299	4736
852.434	4790
852.569	4733
852.703	4759
852.838	4850
852.973	4927
853.107	4896
853.242	4702
853.376	4634
853.511	4554
853.645	4630
853.78	4797
853.914	4634
854.048	4626
854.183	4596
854.317	4687
854.451	4835
854.585	4694
854.72	4611
854.854	4744
854.988	4626
855.122	4603
855.256	4512
855.39	4634
855.524	4736
855.658	4691
855.792	4706
855.926	4733
856.06	4755
856.194	4812
856.327	4653
856.461	4596
856.595	4603
856.729	4645
856.862	4763
856.996	4679
857.13	4683
857.263	4706
857.397	4793
857.53	4615
857.664	4740
857.797	4774
857.931	4778
858.064	4660
858.197	4786
858.331	4626
858.464	4645
858.597	4535
858.731	4626
858.864	4634
858.997	4611
859.13	4630
859.263	4637
859.396	4729
859.529	4573
859.662	4523
859.795	4569
859.928	4588
860.061	4771
860.194	4736
860.327	4618
860.46	4607
860.592	4698
860.725	4717
860.858	4683
860.99	4588
861.123	4516
861.256	4546
861.388	4618
861.521	5334
861.653	4531
861.786	4447
861.918	4402
862.05	4538
862.183	4565
862.315	4630
862.447	4618
862.58	4550
862.712	4383
862.844	4363
862.976	4443
863.108	4451
863.24	4839
863.372	4322
863.504	4421
863.636	4409
863.768	4531
863.9	4443
864.032	4379
864.164	4375
864.296	4455
864.428	4584
864.559	4580
864.691	4542
864.823	4561
864.954	4474
865.086	4481
865.217	4443
865.349	4424
865.48	4424
865.612	4447
865.743	4634
865.875	4421
866.006	4455
866.137	4428
866.269	4489
866.4	4440
866.531	4421
866.662	4375
866.793	4375
866.924	4409
867.055	4485
867.186	4443
867.317	4394
867.448	4390
867.579	4379
867.71	4367
867.841	4371
867.972	4462
868.103	4462
868.233	4417
868.364	4436
868.495	4497
868.625	4672
868.756	4755
868.886	4573
869.017	4611
869.147	4763
869.278	4774
869.408	4679
869.539	4634
869.669	4721
869.799	4641
869.929	4744
870.06	4744
870.19	4961
870.32	4911
870.45	4949
870.58	4965
870.71	5105
870.84	5094
870.97	4987
871.1	4919
871.23	5159
871.36	5121
871.489	5045
871.619	5140
871.749	5060
871.879	5086
872.008	5181
872.138	5060
872.267	5006
872.397	4858
872.526	4797
872.656	4736
872.785	4831
872.915	4965
873.044	5052
873.173	4949
873.303	4953
873.432	4995
873.561	4984
873.69	4930
873.819	4835
873.948	4847
874.077	4850
874.206	4733
874.335	4786
874.464	4957
874.593	5041
874.722	4908
874.851	5105
874.979	5147
875.108	4987
875.237	4942
875.365	4877
875.494	4877
875.623	4980
875.751	4812
875.88	4923
876.008	4942
876.136	5033
876.265	5143
876.393	5227
876.521	5261
876.65	5246
876.778	5162
876.906	5048
877.034	4991
877.162	5109
877.29	5006
877.418	5121
877.546	5037
877.674	5037
877.802	5064
877.93	5014
878.058	4889
878.185	4892
878.313	4999
878.441	4968
878.568	4824
878.696	4900
878.824	4949
878.951	4976
879.079	5113
879.206	5231
879.333	5083
879.461	4946
879.588	5022
879.715	5117
879.842	5239
879.97	5022
880.097	4820
880.224	4729
880.351	4843
880.478	4824
880.605	4748
880.732	4801
880.859	5052
880.986	4885
881.112	4911
881.239	4767
881.366	4656
881.493	4596
881.619	4573
881.746	4622
881.872	4626
881.999	4691
882.125	4637
882.252	4763
882.378	4858
882.505	4934
882.631	4790
882.757	4672
882.883	4729
883.01	4755
883.136	4660
883.262	4550
883.388	4622
883.514	4809
883.64	4839
883.766	4748
883.892	4649
884.018	4717
884.143	4885
884.269	5033
884.395	4675
884.52	4630
884.646	4615
884.772	4588
884.897	4569
885.023	4645
885.148	4752
885.274	4881
885.399	4793
885.524	4755
885.65	4710
885.775	4740
885.9	4706
886.025	4816
886.15	4801
886.275	4717
886.4	4645
886.525	4767
886.65	4675
886.775	4664
886.9	4873
887.025	5041
887.149	4812
887.274	4634
887.399	4599
887.523	4622
887.648	4622
887.773	4611
887.897	4809
888.021	4774
888.146	4656
888.27	4839
888.395	4949
888.519	4831
888.643	4805
888.767	4797
888.891	4660
889.015	4603
889.139	4664
889.263	4588
889.387	4748
889.511	4881
889.635	4793
889.759	4683
889.883	4679
890.006	4771
890.13	4881
890.254	4607
890.377	4710
890.501	4538
890.624	4531
890.748	4672
890.871	4512
890.995	4390
891.118	4409
891.241	4531
891.364	4565
891.488	4626
891.611	4508
891.734	4569
891.857	4607
891.98	4538
892.103	4603
892.226	4607
892.349	4550
892.471	4413
892.594	4535
892.717	4599
892.839	4550
892.962	4618
893.085	4687
893.207	4607
893.33	4428
893.452	4504
893.575	4694
893.697	4538
893.819	4835
893.941	4824
894.064	4774
894.186	4569
894.308	4565
894.43	4717
894.552	4820
894.674	4752
894.796	4577
894.918	4584
895.04	4565
895.161	4710
895.283	4653
895.405	4588
895.526	4660
895.648	4733
895.769	4660
895.891	4717
896.012	4740
896.134	4733
896.255	4645
896.376	4626
896.498	4615
896.619	4645
896.74	4634
896.861	4634
896.982	4889
897.103	5105
897.224	4797
897.345	4782
897.466	4637
897.587	4717
897.708	4816
897.828	4786
897.949	4649
898.07	4542
898.19	4630
898.311	4847
898.431	4645
898.552	4691
898.672	4847
898.792	4828
898.913	4740
899.033	4668
899.153	4493
899.273	4459
899.393	4527
899.513	4500
899.633	4531
899.753	4512
899.873	4508
899.993	4588
900.113	4508
900.232	4573
900.352	4516
900.472	4489
900.591	4432
900.711	4485
900.83	4432
900.95	4615
901.069	4706
901.189	4645
901.308	4367
901.427	4295
901.546	4363
901.665	4447
901.784	4508
901.904	4386
902.023	4303
902.141	4173
902.26	4169
902.379	4329
902.498	4253
902.617	4188
902.735	4413
902.854	4417
902.973	4356
903.091	4204
903.21	4276
903.328	4276
903.446	4299
903.565	4280
903.683	4352
903.801	4325
903.919	4413
904.038	4455
904.156	4314
904.274	4424
904.392	4405
904.51	4413
904.627	4481
904.745	4592
904.863	4596
904.981	4360
905.098	4291
905.216	4367
905.334	4398
905.451	4447
905.569	4424
905.686	4607
905.803	4550
905.921	4436
906.038	4565
906.155	4493
906.272	4367
906.389	4500
906.506	4325
906.623	4394
906.74	4402
906.857	4268
906.974	4356
907.091	4531
907.208	4675
907.324	4550
907.441	4512
907.557	4325
907.674	4333
907.79	4341
907.907	4386
908.023	4527
908.139	4455
908.256	4409
908.372	4447
908.488	4466
908.604	4348
908.72	4325
908.836	4371
908.952	4421
909.068	4413
909.184	4554
909.3	4493
909.415	4573
909.531	4516
909.647	4367
909.762	4398
909.878	4348
909.993	4440
910.108	4375
910.224	4443
910.339	4447
910.454	4402
910.57	4333
910.685	4272
910.8	4637
910.915	4615
911.03	4466
911.145	4356
911.259	4299
911.374	4363
911.489	4314
911.604	4284
911.718	4143
911.833	4242
911.947	4116
912.062	4101
912.176	4215
912.291	4219
912.405	4219
912.519	4459
912.633	4523
912.748	4367
912.862	4291
912.976	4185
913.09	4051
913.204	4196
913.318	4227
913.431	4333
913.545	4375
913.659	4440
913.772	4333
913.886	4242
914	4177
914.113	4371
914.226	4462
914.34	4379
914.453	4246
914.566	4440
914.68	4310
914.793	4284
914.906	4204
915.019	4093
915.132	4082
915.245	4211
915.358	4246
915.47	4169
915.583	4291
915.696	4295
915.809	4386
915.921	4363
916.034	4253
916.146	4238
916.259	4192
916.371	4341
916.483	4329
916.595	4318
916.708	4303
916.82	4306
916.932	4344
917.044	4333
917.156	4306
917.268	4227
917.38	4276
917.491	4284
917.603	4344
917.715	4413
917.826	4409
917.938	4329
918.049	4238
918.161	4383
918.272	4497
918.384	4546
918.495	4470
918.606	4306
918.717	4249
918.828	4348
918.939	4383
919.05	4280
919.161	4352
919.272	4147
919.383	4246
919.494	4462
919.604	4592
919.715	4462
919.826	4356
919.936	4367
920.047	4519
920.157	4474
920.267	4706
920.378	4500
920.488	4485
920.598	4687
920.708	4873
920.818	4725
920.928	4812
921.038	4930
921.148	4908
921.258	4615
921.368	4550
921.477	4504
921.587	4497
921.697	4383
921.806	4542
921.916	4413
922.025	4284
922.134	4268
922.244	4227
922.353	4299
922.462	4177
922.571	4173
922.68	4029
922.789	4002
922.898	4021
923.007	3998
923.116	4093
923.224	4086
923.333	4105
923.442	3998
923.55	4013
923.659	4029
923.767	4120
923.876	4040
923.984	4124
924.092	3979
924.201	4078
924.309	4101
924.417	4135
924.525	4071
924.633	4128
924.741	5071
924.849	3918
924.956	4120
925.064	3949
925.172	3915
925.279	3949
925.387	4017
925.494	4071
925.602	4162
925.709	4147
925.816	4036
925.924	4143
926.031	4276
926.138	4185
926.245	4219
926.352	4112
926.459	4284
926.566	4299
926.673	4147
926.779	4074
926.886	4074
926.993	3998
927.099	3987
927.206	3915
927.312	3918
927.419	4086
927.525	4017
927.631	4093
927.737	3972
927.843	3941
927.95	3797
928.056	3934
928.162	4002
928.267	4078
928.373	4630
928.479	4150
928.585	3888
928.69	3998
928.796	4116
928.901	3949
929.007	3800
929.112	4021
929.218	3975
929.323	3956
929.428	3964
929.533	4112
929.638	3892
929.743	3930
929.848	4017
929.953	3941
930.058	3899
930.163	3812
930.267	3812
930.372	3998
930.477	3812
930.581	4051
930.685	3968
930.79	3804
930.894	3903
930.998	3903
931.103	4051
931.207	3705
931.311	3736
931.415	3679
931.519	3511
931.623	3587
