Data from test_V78500241_1115.txt Node
Date: Fri Mar 25 16:56:45 CST 2022
User: usil
Spectrometer: V785-0024
Trigger mode: 0
Integration Time (sec): 4.000000E-1
Scans to average: 1
Nonlinearity correction enabled: false
Boxcar width: 0
Storing dark spectrum: false
XAxis mode: Wavelengths
Number of Pixels in Spectrum: 1024
>>>>>Begin Spectral Data<<<<<
801.071	8088
801.214	8050
801.356	7826
801.499	7898
801.641	7860
801.783	7852
801.926	7967
802.068	7925
802.211	7906
802.353	7993
802.496	7849
802.638	7856
802.78	7875
802.923	7898
803.065	7894
803.208	7913
803.35	8050
803.492	8062
803.635	8202
803.777	8069
803.919	8164
804.061	8526
804.204	8161
804.346	8073
804.488	7989
804.63	8142
804.773	8035
804.915	8065
805.057	8336
805.199	8164
805.341	8202
805.483	8267
805.626	8221
805.768	8126
805.91	8206
806.052	8252
806.194	8103
806.336	8324
806.478	8100
806.62	8016
806.762	8161
806.904	8233
807.046	8499
807.188	8305
807.33	8256
807.472	8282
807.614	8145
807.756	8115
807.898	8043
808.04	7845
808.182	7936
808.324	7902
808.465	7925
808.607	8039
808.749	8081
808.891	8244
809.033	8202
809.174	8157
809.316	8073
809.458	8001
809.6	7947
809.741	7955
809.883	8035
810.025	8123
810.166	8100
810.308	8027
810.45	8069
810.591	7921
810.733	7746
810.875	7655
811.016	7594
811.158	7506
811.299	7624
811.441	7689
811.582	7681
811.724	7605
811.865	7533
812.007	7559
812.148	7597
812.29	7609
812.431	7719
812.573	7925
812.714	7921
812.855	8111
812.997	8157
813.138	8355
813.279	8157
813.421	8126
813.562	8005
813.703	7917
813.845	7807
813.986	7422
814.127	7263
814.268	7190
814.41	7183
814.551	7164
814.692	7183
814.833	7080
814.974	7065
815.115	7114
815.256	6958
815.397	6973
815.539	6932
815.68	6897
815.821	6798
815.962	6859
816.103	6844
816.244	6703
816.385	6574
816.526	6616
816.666	6475
816.807	6311
816.948	6456
817.089	6509
817.23	6445
817.371	6376
817.512	6418
817.653	6395
817.793	6357
817.934	6407
818.075	6448
818.216	6464
818.356	6410
818.497	6243
818.638	6133
818.778	6136
818.919	6144
819.06	6228
819.2	6296
819.341	6369
819.481	6414
819.622	6517
819.762	6700
819.903	6719
820.043	6612
820.184	6585
820.324	6578
820.465	6700
820.605	6650
820.746	6627
820.886	6490
821.026	6658
821.167	6669
821.307	6806
821.447	6818
821.588	6677
821.728	6566
821.868	6460
822.008	6323
822.149	6395
822.289	6338
822.429	6136
822.569	6079
822.709	6140
822.849	5942
822.99	5897
823.13	5912
823.27	5897
823.41	5726
823.55	5779
823.69	5794
823.83	5748
823.97	5722
824.11	5467
824.25	5573
824.389	5516
824.529	5592
824.669	5524
824.809	5638
824.949	5699
825.089	5570
825.228	5604
825.368	5391
825.508	5376
825.648	5337
825.787	5368
825.927	5379
826.067	5273
826.206	5223
826.346	5421
826.485	5395
826.625	5402
826.765	5619
826.904	5455
827.044	5227
827.183	5185
827.323	5151
827.462	5212
827.601	5197
827.741	5174
827.88	5231
828.02	5109
828.159	5258
828.298	5277
828.437	5277
828.577	5280
828.716	5497
828.855	5330
828.994	5162
829.134	5166
829.273	5216
829.412	5121
829.551	5113
829.69	5204
829.829	5273
829.968	5349
830.107	5254
830.246	5254
830.385	5197
830.524	5121
830.663	5132
830.802	4946
830.941	4900
831.08	4858
831.219	4915
831.357	4972
831.496	5113
831.635	4904
831.774	4820
831.913	4816
832.051	4733
832.19	4733
832.329	4839
832.467	4660
832.606	4584
832.744	4759
832.883	4744
833.022	4706
833.16	4793
833.299	4786
833.437	4847
833.576	4824
833.714	4847
833.852	4843
833.991	4870
834.129	4968
834.267	4892
834.406	4908
834.544	4968
834.682	4946
834.821	4946
834.959	5170
835.097	5010
835.235	5162
835.373	5090
835.511	5136
835.65	5064
835.788	5010
835.926	4904
836.064	4843
836.202	4858
836.34	5162
836.478	5250
836.615	5094
836.753	5204
836.891	5303
837.029	5212
837.167	5197
837.305	5162
837.443	5166
837.58	5041
837.718	5223
837.856	5128
837.993	5117
838.131	5197
838.269	5223
838.406	5181
838.544	5227
838.681	5010
838.819	5041
838.956	4889
839.094	4923
839.231	4965
839.369	5060
839.506	5376
839.643	5250
839.781	5041
839.918	5037
840.055	5109
840.193	5102
840.33	5056
840.467	5140
840.604	5155
840.742	5421
840.879	5045
841.016	5060
841.153	5128
841.29	5357
841.427	5353
841.564	5269
841.701	5330
841.838	5296
841.975	5212
842.112	5277
842.249	5155
842.385	5113
842.522	5307
842.659	5159
842.796	5094
842.933	5220
843.069	5124
843.206	5128
843.343	5258
843.479	5246
843.616	5254
843.752	5010
843.889	4972
844.025	5185
844.162	5025
844.298	5201
844.435	5090
844.571	5037
844.708	5227
844.844	5318
844.98	5337
845.117	5292
845.253	5109
845.389	5037
845.525	5132
845.661	5132
845.798	5029
845.934	5124
846.07	5060
846.206	5223
846.342	5311
846.478	5193
846.614	5037
846.75	4930
846.886	4923
847.022	5143
847.158	5048
847.294	5079
847.429	5086
847.565	5029
847.701	5334
847.837	4889
847.972	4767
848.108	4953
848.244	4923
848.379	4755
848.515	4683
848.65	4717
848.786	4710
848.921	4759
849.057	4873
849.192	4927
849.328	4805
849.463	4843
849.598	4793
849.734	4767
849.869	4698
850.004	4622
850.14	4649
850.275	4603
850.41	4527
850.545	4584
850.68	4592
850.815	4596
850.95	4634
851.085	4809
851.22	4752
851.355	4656
851.49	4577
851.625	4592
851.76	4569
851.895	4535
852.03	4508
852.165	4641
852.299	4664
852.434	4771
852.569	4786
852.703	4820
852.838	4847
852.973	4930
853.107	4927
853.242	4714
853.376	4634
853.511	4504
853.645	4580
853.78	4759
853.914	4702
854.048	4645
854.183	4577
854.317	4637
854.451	4812
854.585	4664
854.72	4653
854.854	4706
854.988	4596
855.122	4653
855.256	4504
855.39	4660
855.524	4767
855.658	4736
855.792	4675
855.926	4714
856.06	4782
856.194	4793
856.327	4714
856.461	4592
856.595	4679
856.729	4603
856.862	4736
856.996	4702
857.13	4752
857.263	4740
857.397	4809
857.53	4672
857.664	4675
857.797	4752
857.931	4740
858.064	4656
858.197	4714
858.331	4637
858.464	4577
858.597	4497
858.731	4592
858.864	4649
858.997	4561
859.13	4679
859.263	4668
859.396	4637
859.529	4542
859.662	4611
859.795	4481
859.928	4660
860.061	4763
860.194	4828
860.327	4611
860.46	4535
860.592	4679
860.725	4733
860.858	4736
860.99	4584
861.123	4542
861.256	4493
861.388	4607
861.521	5395
861.653	4462
861.786	4432
861.918	4440
862.05	4550
862.183	4527
862.315	4596
862.447	4611
862.58	4497
862.712	4394
862.844	4356
862.976	4478
863.108	4462
863.24	4763
863.372	4356
863.504	4405
863.636	4390
863.768	4459
863.9	4409
864.032	4348
864.164	4356
864.296	4481
864.428	4531
864.559	4588
864.691	4485
864.823	4523
864.954	4478
865.086	4512
865.217	4432
865.349	4421
865.48	4424
865.612	4504
865.743	4615
865.875	4451
866.006	4428
866.137	4409
866.269	4462
866.4	4447
866.531	4455
866.662	4352
866.793	4421
866.924	4413
867.055	4489
867.186	4402
867.317	4402
867.448	4337
867.579	4375
867.71	4421
867.841	4409
867.972	4459
868.103	4512
868.233	4459
868.364	4428
868.495	4466
868.625	4664
868.756	4656
868.886	4573
869.017	4618
869.147	4752
869.278	4759
869.408	4637
869.539	4649
869.669	4729
869.799	4660
869.929	4721
870.06	4714
870.19	4942
870.32	4870
870.45	4885
870.58	4968
870.71	5056
870.84	5075
870.97	4873
871.1	4904
871.23	5136
871.36	5117
871.489	5025
871.619	5117
871.749	5060
871.879	5098
872.008	5143
872.138	5022
872.267	4957
872.397	4847
872.526	4820
872.656	4740
872.785	4793
872.915	4976
873.044	5003
873.173	4930
873.303	4942
873.432	4927
873.561	4968
873.69	4911
873.819	4892
873.948	4858
874.077	4816
874.206	4767
874.335	4771
874.464	4938
874.593	5033
874.722	4942
874.851	5060
874.979	5048
875.108	5022
875.237	4892
875.365	4828
875.494	4881
875.623	4984
875.751	4816
875.88	4900
876.008	4942
876.136	4987
876.265	5140
876.393	5368
876.521	5250
876.65	5223
876.778	5155
876.906	5037
877.034	5064
877.162	5056
877.29	4957
877.418	5052
877.546	5006
877.674	5037
877.802	4984
877.93	4972
878.058	4949
878.185	4889
878.313	4919
878.441	4927
878.568	4824
878.696	4900
878.824	4949
878.951	4946
879.079	5136
879.206	5292
879.333	5064
879.461	4949
879.588	4999
879.715	5048
879.842	5216
879.97	4995
880.097	4744
880.224	4717
880.351	4771
880.478	4820
880.605	4786
880.732	4809
880.859	5143
880.986	4904
881.112	4877
881.239	4812
881.366	4668
881.493	4569
881.619	4542
881.746	4622
881.872	4649
881.999	4618
882.125	4660
882.252	4774
882.378	4847
882.505	4972
882.631	4786
882.757	4675
882.883	4740
883.01	4733
883.136	4626
883.262	4584
883.388	4577
883.514	4782
883.64	4866
883.766	4767
883.892	4649
884.018	4710
884.143	4866
884.269	5014
884.395	4683
884.52	4603
884.646	4660
884.772	4573
884.897	4531
885.023	4679
885.148	4786
885.274	4831
885.399	4790
885.524	4717
885.65	4733
885.775	4771
885.9	4759
886.025	4835
886.15	4767
886.275	4733
886.4	4611
886.525	4702
886.65	4706
886.775	4691
886.9	4896
887.025	5010
887.149	4809
887.274	4649
887.399	4584
887.523	4626
887.648	4561
887.773	4584
887.897	4717
888.021	4774
888.146	4721
888.27	4778
888.395	4885
888.519	4774
888.643	4847
888.767	4831
888.891	4706
889.015	4561
889.139	4683
889.263	4637
889.387	4763
889.511	4862
889.635	4797
889.759	4687
889.883	4626
890.006	4733
890.13	4828
890.254	4656
890.377	4664
890.501	4573
890.624	4523
890.748	4660
890.871	4527
890.995	4413
891.118	4344
891.241	4508
891.364	4538
891.488	4641
891.611	4474
891.734	4538
891.857	4607
891.98	4497
892.103	4630
892.226	4569
892.349	4542
892.471	4447
892.594	4538
892.717	4603
892.839	4584
892.962	4546
893.085	4630
893.207	4630
893.33	4443
893.452	4527
893.575	4691
893.697	4554
893.819	4759
893.941	4820
894.064	4729
894.186	4660
894.308	4588
894.43	4752
894.552	4767
894.674	4752
894.796	4546
894.918	4573
895.04	4546
895.161	4702
895.283	4653
895.405	4596
895.526	4592
895.648	4679
895.769	4748
895.891	4698
896.012	4710
896.134	4694
896.255	4649
896.376	4653
896.498	4565
896.619	4679
896.74	4607
896.861	4603
896.982	4889
897.103	5067
897.224	4816
897.345	4767
897.466	4618
897.587	4725
897.708	4904
897.828	4714
897.949	4687
898.07	4573
898.19	4664
898.311	4831
898.431	4672
898.552	4672
898.672	4816
898.792	4805
898.913	4717
899.033	4588
899.153	4462
899.273	4398
899.393	4497
899.513	4523
899.633	4489
899.753	4550
899.873	4474
899.993	4561
900.113	4523
900.232	4580
900.352	4561
900.472	4470
900.591	4428
900.711	4443
900.83	4436
900.95	4584
901.069	4668
901.189	4538
901.308	4360
901.427	4253
901.546	4375
901.665	4409
901.784	4519
901.904	4405
902.023	4306
902.141	4188
902.26	4211
902.379	4314
902.498	4173
902.617	4227
902.735	4363
902.854	4375
902.973	4344
903.091	4196
903.21	4215
903.328	4310
903.446	4280
903.565	4291
903.683	4310
903.801	4303
903.919	4394
904.038	4405
904.156	4322
904.274	4413
904.392	4341
904.51	4417
904.627	4478
904.745	4561
904.863	4596
904.981	4371
905.098	4291
905.216	4341
905.334	4379
905.451	4409
905.569	4417
905.686	4599
905.803	4558
905.921	4375
906.038	4535
906.155	4485
906.272	4402
906.389	4474
906.506	4363
906.623	4371
906.74	4363
906.857	4299
906.974	4363
907.091	4550
907.208	4721
907.324	4573
907.441	4462
907.557	4371
907.674	4352
907.79	4268
907.907	4325
908.023	4478
908.139	4428
908.256	4436
908.372	4447
908.488	4436
908.604	4299
908.72	4276
908.836	4325
908.952	4348
909.068	4375
909.184	4523
909.3	4474
909.415	4550
909.531	4523
909.647	4352
909.762	4341
909.878	4360
909.993	4440
910.108	4402
910.224	4432
910.339	4489
910.454	4352
910.57	4360
910.685	4276
910.8	4649
910.915	4592
911.03	4504
911.145	4299
911.259	4344
911.374	4322
911.489	4234
911.604	4287
911.718	4143
911.833	4188
911.947	4051
912.062	4021
912.176	4181
912.291	4280
912.405	4253
912.519	4440
912.633	4500
912.748	4371
912.862	4329
912.976	4227
913.09	4071
913.204	4162
913.318	4223
913.431	4394
913.545	4337
913.659	4474
913.772	4375
913.886	4219
914	4196
914.113	4379
914.226	4405
914.34	4421
914.453	4211
914.566	4398
914.68	4318
914.793	4352
914.906	4185
915.019	4124
915.132	4101
915.245	4131
915.358	4200
915.47	4207
915.583	4276
915.696	4337
915.809	4405
915.921	4405
916.034	4314
916.146	4246
916.259	4223
916.371	4398
916.483	4352
916.595	4253
916.708	4322
916.82	4310
916.932	4314
917.044	4337
917.156	4325
917.268	4181
917.38	4253
917.491	4306
917.603	4360
917.715	4390
917.826	4405
917.938	4352
918.049	4227
918.161	4402
918.272	4531
918.384	4523
918.495	4462
918.606	4310
918.717	4207
918.828	4299
918.939	4375
919.05	4227
919.161	4306
919.272	4147
919.383	4204
919.494	4497
919.604	4622
919.715	4390
919.826	4333
919.936	4375
920.047	4489
920.157	4474
920.267	4694
920.378	4523
920.488	4508
920.598	4717
920.708	4900
920.818	4759
920.928	4733
921.038	4957
921.148	4923
921.258	4618
921.368	4565
921.477	4413
921.587	4443
921.697	4405
921.806	4531
921.916	4432
922.025	4253
922.134	4284
922.244	4234
922.353	4329
922.462	4173
922.571	4128
922.68	3991
922.789	3960
922.898	4017
923.007	3994
923.116	4097
923.224	4078
923.333	4086
923.442	3979
923.55	3937
923.659	4048
923.767	4101
923.876	4021
923.984	4131
924.092	3941
924.201	4093
924.309	4093
924.417	4082
924.525	4051
924.633	4067
924.741	5098
924.849	3926
924.956	4109
925.064	3930
925.172	3880
925.279	3945
925.387	4059
925.494	4078
925.602	4219
925.709	4215
925.816	4067
925.924	4120
926.031	4207
926.138	4177
926.245	4158
926.352	4048
926.459	4215
926.566	4246
926.673	4215
926.779	4071
926.886	4101
926.993	3979
927.099	3884
927.206	3934
927.312	3922
927.419	4105
927.525	4078
927.631	4071
927.737	3949
927.843	3918
927.95	3831
928.056	3903
928.162	4010
928.267	4017
928.373	4603
928.479	4135
928.585	3846
928.69	4040
928.796	4074
928.901	3930
929.007	3861
929.112	3998
929.218	3991
929.323	3903
929.428	3964
929.533	4059
929.638	3907
929.743	3911
929.848	4048
929.953	3987
930.058	3945
930.163	3770
930.267	3816
930.372	3907
930.477	3804
930.581	4071
930.685	3930
930.79	3797
930.894	3857
930.998	3857
931.103	4025
931.207	3705
931.311	3656
931.415	3667
931.519	3534
931.623	3584
