Data from test_V78500241_2578.txt Node
Date: Fri Mar 25 17:06:55 CST 2022
User: usil
Spectrometer: V785-0024
Trigger mode: 0
Integration Time (sec): 4.000000E-1
Scans to average: 1
Nonlinearity correction enabled: false
Boxcar width: 0
Storing dark spectrum: false
XAxis mode: Wavelengths
Number of Pixels in Spectrum: 1024
>>>>>Begin Spectral Data<<<<<
801.071	8027
801.214	8039
801.356	7890
801.499	7807
801.641	7795
801.783	7841
801.926	7909
802.068	7963
802.211	7963
802.353	8012
802.496	7894
802.638	7887
802.78	7883
802.923	7944
803.065	7887
803.208	7845
803.35	7993
803.492	8092
803.635	8191
803.777	8039
803.919	8103
804.061	8412
804.204	8183
804.346	8062
804.488	7955
804.63	8123
804.773	8039
804.915	8138
805.057	8271
805.199	8100
805.341	8233
805.483	8301
805.626	8267
805.768	8092
805.91	8240
806.052	8259
806.194	8115
806.336	8244
806.478	8088
806.62	8027
806.762	8126
806.904	8221
807.046	8480
807.188	8343
807.33	8328
807.472	8263
807.614	8172
807.756	8130
807.898	7978
808.04	7902
808.182	7868
808.324	7860
808.465	7928
808.607	8062
808.749	8126
808.891	8191
809.033	8301
809.174	8221
809.316	8115
809.458	8081
809.6	8027
809.741	7951
809.883	8062
810.025	8050
810.166	8050
810.308	7993
810.45	7959
810.591	7921
810.733	7731
810.875	7696
811.016	7518
811.158	7495
811.299	7594
811.441	7727
811.582	7670
811.724	7597
811.865	7525
812.007	7628
812.148	7575
812.29	7624
812.431	7727
812.573	7826
812.714	8027
812.855	8077
812.997	8172
813.138	8317
813.279	8153
813.421	8088
813.562	7902
813.703	7879
813.845	7780
813.986	7480
814.127	7247
814.268	7164
814.41	7217
814.551	7187
814.692	7202
814.833	7114
814.974	7088
815.115	7110
815.256	6981
815.397	6951
815.539	6966
815.68	6837
815.821	6726
815.962	6882
816.103	6829
816.244	6719
816.385	6608
816.526	6620
816.666	6483
816.807	6334
816.948	6399
817.089	6483
817.23	6403
817.371	6342
817.512	6376
817.653	6388
817.793	6315
817.934	6407
818.075	6483
818.216	6445
818.356	6418
818.497	6247
818.638	6102
818.778	6144
818.919	6144
819.06	6140
819.2	6388
819.341	6258
819.481	6369
819.622	6540
819.762	6696
819.903	6741
820.043	6559
820.184	6604
820.324	6616
820.465	6719
820.605	6669
820.746	6684
820.886	6555
821.026	6719
821.167	6692
821.307	6871
821.447	6757
821.588	6654
821.728	6582
821.868	6452
822.008	6350
822.149	6357
822.289	6361
822.429	6144
822.569	6133
822.709	6194
822.849	5931
822.99	5939
823.13	6034
823.27	5920
823.41	5840
823.55	5836
823.69	5737
823.83	5844
823.97	5703
824.11	5524
824.25	5570
824.389	5585
824.529	5638
824.669	5532
824.809	5627
824.949	5764
825.089	5661
825.228	5570
825.368	5444
825.508	5387
825.648	5341
825.787	5436
825.927	5406
826.067	5334
826.206	5357
826.346	5429
826.485	5421
826.625	5433
826.765	5611
826.904	5524
827.044	5318
827.183	5269
827.323	5216
827.462	5265
827.601	5235
827.741	5201
827.88	5307
828.02	5143
828.159	5258
828.298	5322
828.437	5459
828.577	5364
828.716	5474
828.855	5334
828.994	5208
829.134	5185
829.273	5254
829.412	5181
829.551	5166
829.69	5212
829.829	5299
829.968	5452
830.107	5330
830.246	5299
830.385	5212
830.524	5178
830.663	5113
830.802	5045
830.941	4961
831.08	4927
831.219	4995
831.357	5029
831.496	5170
831.635	4972
831.774	4862
831.913	4900
832.051	4778
832.19	4778
832.329	4889
832.467	4755
832.606	4694
832.744	4729
832.883	4782
833.022	4786
833.16	4919
833.299	4850
833.437	4873
833.576	4877
833.714	4911
833.852	4873
833.991	4904
834.129	5025
834.267	4968
834.406	4900
834.544	5010
834.682	5014
834.821	4949
834.959	5178
835.097	5037
835.235	5185
835.373	5105
835.511	5147
835.65	5109
835.788	5052
835.926	4915
836.064	4896
836.202	4976
836.34	5216
836.478	5242
836.615	5201
836.753	5303
836.891	5337
837.029	5277
837.167	5239
837.305	5227
837.443	5208
837.58	5136
837.718	5307
837.856	5239
837.993	5159
838.131	5284
838.269	5265
838.406	5223
838.544	5204
838.681	5071
838.819	5018
838.956	4938
839.094	4923
839.231	5037
839.369	5117
839.506	5448
839.643	5334
839.781	5128
839.918	5079
840.055	5159
840.193	5109
840.33	5151
840.467	5113
840.604	5258
840.742	5471
840.879	5079
841.016	5162
841.153	5174
841.29	5429
841.427	5326
841.564	5357
841.701	5406
841.838	5311
841.975	5292
842.112	5292
842.249	5162
842.385	5159
842.522	5368
842.659	5178
842.796	5197
842.933	5246
843.069	5197
843.206	5155
843.343	5326
843.479	5284
843.616	5307
843.752	5102
843.889	5045
844.025	5269
844.162	5025
844.298	5201
844.435	5075
844.571	5079
844.708	5204
844.844	5357
844.98	5376
845.117	5296
845.253	5189
845.389	5143
845.525	5166
845.661	5174
845.798	5098
845.934	5155
846.07	5121
846.206	5227
846.342	5353
846.478	5185
846.614	5037
846.75	4976
846.886	5025
847.022	5155
847.158	5090
847.294	5090
847.429	5140
847.565	5045
847.701	5406
847.837	4854
847.972	4824
848.108	4961
848.244	4987
848.379	4816
848.515	4744
848.65	4759
848.786	4790
848.921	4797
849.057	4866
849.192	4930
849.328	4866
849.463	4831
849.598	4786
849.734	4816
849.869	4755
850.004	4679
850.14	4679
850.275	4611
850.41	4607
850.545	4607
850.68	4653
850.815	4725
850.95	4630
851.085	4858
851.22	4786
851.355	4706
851.49	4664
851.625	4687
851.76	4611
851.895	4573
852.03	4611
852.165	4694
852.299	4771
852.434	4828
852.569	4786
852.703	4835
852.838	4923
852.973	4942
853.107	4976
853.242	4805
853.376	4706
853.511	4569
853.645	4660
853.78	4850
853.914	4740
854.048	4729
854.183	4641
854.317	4706
854.451	4877
854.585	4721
854.72	4675
854.854	4782
854.988	4607
855.122	4706
855.256	4580
855.39	4691
855.524	4797
855.658	4767
855.792	4687
855.926	4782
856.06	4767
856.194	4816
856.327	4733
856.461	4637
856.595	4679
856.729	4630
856.862	4824
856.996	4759
857.13	4736
857.263	4793
857.397	4862
857.53	4645
857.664	4755
857.797	4782
857.931	4797
858.064	4748
858.197	4748
858.331	4687
858.464	4622
858.597	4523
858.731	4687
858.864	4656
858.997	4637
859.13	4660
859.263	4710
859.396	4706
859.529	4645
859.662	4626
859.795	4535
859.928	4630
860.061	4786
860.194	4771
860.327	4630
860.46	4573
860.592	4748
860.725	4710
860.858	4748
860.99	4660
861.123	4478
861.256	4538
861.388	4622
861.521	5349
861.653	4493
861.786	4440
861.918	4466
862.05	4546
862.183	4580
862.315	4630
862.447	4729
862.58	4535
862.712	4493
862.844	4363
862.976	4535
863.108	4478
863.24	4809
863.372	4402
863.504	4443
863.636	4436
863.768	4512
863.9	4440
864.032	4394
864.164	4398
864.296	4516
864.428	4584
864.559	4554
864.691	4569
864.823	4596
864.954	4535
865.086	4527
865.217	4485
865.349	4421
865.48	4497
865.612	4504
865.743	4649
865.875	4527
866.006	4440
866.137	4504
866.269	4466
866.4	4466
866.531	4470
866.662	4459
866.793	4436
866.924	4462
867.055	4516
867.186	4497
867.317	4386
867.448	4405
867.579	4436
867.71	4405
867.841	4440
867.972	4508
868.103	4478
868.233	4531
868.364	4451
868.495	4558
868.625	4702
868.756	4778
868.886	4584
869.017	4622
869.147	4759
869.278	4820
869.408	4660
869.539	4634
869.669	4710
869.799	4683
869.929	4778
870.06	4755
870.19	4999
870.32	4938
870.45	4961
870.58	5033
870.71	5140
870.84	5124
870.97	5022
871.1	4934
871.23	5189
871.36	5128
871.489	5052
871.619	5064
871.749	5098
871.879	5117
872.008	5239
872.138	5109
872.267	4999
872.397	4873
872.526	4839
872.656	4744
872.785	4824
872.915	4949
873.044	5029
873.173	4915
873.303	4987
873.432	5060
873.561	5041
873.69	4904
873.819	4896
873.948	4965
874.077	4885
874.206	4812
874.335	4881
874.464	4972
874.593	5105
874.722	4980
874.851	5128
874.979	5067
875.108	5048
875.237	4942
875.365	4919
875.494	4904
875.623	5037
875.751	4839
875.88	4892
876.008	5067
876.136	5052
876.265	5239
876.393	5364
876.521	5299
876.65	5273
876.778	5140
876.906	5132
877.034	5033
877.162	5067
877.29	5029
877.418	5064
877.546	5094
877.674	5029
877.802	5037
877.93	5029
878.058	4927
878.185	4934
878.313	4965
878.441	4995
878.568	4816
878.696	4919
878.824	5003
878.951	4961
879.079	5132
879.206	5334
879.333	5151
879.461	4999
879.588	4961
879.715	5128
879.842	5269
879.97	5006
880.097	4824
880.224	4774
880.351	4820
880.478	4805
880.605	4824
880.732	4805
880.859	5147
880.986	4923
881.112	4900
881.239	4786
881.366	4721
881.493	4630
881.619	4561
881.746	4679
881.872	4630
881.999	4641
882.125	4660
882.252	4809
882.378	4831
882.505	4972
882.631	4858
882.757	4717
882.883	4714
883.01	4752
883.136	4679
883.262	4607
883.388	4569
883.514	4828
883.64	4854
883.766	4771
883.892	4653
884.018	4820
884.143	4904
884.269	5052
884.395	4694
884.52	4660
884.646	4660
884.772	4607
884.897	4573
885.023	4691
885.148	4805
885.274	4866
885.399	4850
885.524	4740
885.65	4710
885.775	4771
885.9	4733
886.025	4854
886.15	4858
886.275	4748
886.4	4714
886.525	4641
886.65	4683
886.775	4725
886.9	4896
887.025	5060
887.149	4774
887.274	4656
887.399	4626
887.523	4626
887.648	4611
887.773	4603
887.897	4752
888.021	4835
888.146	4691
888.27	4835
888.395	4904
888.519	4782
888.643	4793
888.767	4831
888.891	4664
889.015	4630
889.139	4702
889.263	4630
889.387	4725
889.511	4892
889.635	4816
889.759	4664
889.883	4630
890.006	4759
890.13	4835
890.254	4637
890.377	4672
890.501	4527
890.624	4580
890.748	4626
890.871	4561
890.995	4474
891.118	4424
891.241	4432
891.364	4569
891.488	4664
891.611	4554
891.734	4538
891.857	4637
891.98	4577
892.103	4664
892.226	4569
892.349	4550
892.471	4409
892.594	4550
892.717	4588
892.839	4592
892.962	4634
893.085	4691
893.207	4660
893.33	4516
893.452	4497
893.575	4653
893.697	4622
893.819	4805
893.941	4828
894.064	4782
894.186	4592
894.308	4561
894.43	4755
894.552	4812
894.674	4778
894.796	4573
894.918	4580
895.04	4592
895.161	4755
895.283	4698
895.405	4649
895.526	4691
895.648	4698
895.769	4714
895.891	4714
896.012	4733
896.134	4710
896.255	4660
896.376	4664
896.498	4637
896.619	4691
896.74	4645
896.861	4675
896.982	4934
897.103	5128
897.224	4858
897.345	4774
897.466	4698
897.587	4740
897.708	4889
897.828	4759
897.949	4668
898.07	4615
898.19	4630
898.311	4854
898.431	4664
898.552	4805
898.672	4831
898.792	4801
898.913	4759
899.033	4622
899.153	4504
899.273	4402
899.393	4508
899.513	4527
899.633	4523
899.753	4558
899.873	4538
899.993	4573
900.113	4474
900.232	4599
900.352	4599
900.472	4466
900.591	4383
900.711	4489
900.83	4459
900.95	4630
901.069	4637
901.189	4550
901.308	4386
901.427	4341
901.546	4356
901.665	4519
901.784	4516
901.904	4367
902.023	4367
902.141	4207
902.26	4143
902.379	4299
902.498	4215
902.617	4223
902.735	4417
902.854	4413
902.973	4344
903.091	4238
903.21	4188
903.328	4299
903.446	4276
903.565	4234
903.683	4356
903.801	4318
903.919	4402
904.038	4428
904.156	4325
904.274	4421
904.392	4417
904.51	4436
904.627	4489
904.745	4584
904.863	4664
904.981	4436
905.098	4314
905.216	4405
905.334	4409
905.451	4424
905.569	4459
905.686	4546
905.803	4554
905.921	4474
906.038	4546
906.155	4428
906.272	4413
906.389	4466
906.506	4363
906.623	4344
906.74	4398
906.857	4371
906.974	4363
907.091	4584
907.208	4698
907.324	4649
907.441	4508
907.557	4344
907.674	4329
907.79	4329
907.907	4398
908.023	4508
908.139	4481
908.256	4462
908.372	4443
908.488	4455
908.604	4344
908.72	4318
908.836	4337
908.952	4325
909.068	4462
909.184	4615
909.3	4481
909.415	4546
909.531	4573
909.647	4405
909.762	4344
909.878	4280
909.993	4383
910.108	4402
910.224	4447
910.339	4523
910.454	4405
910.57	4352
910.685	4303
910.8	4611
910.915	4596
911.03	4516
911.145	4310
911.259	4348
911.374	4363
911.489	4291
911.604	4261
911.718	4154
911.833	4223
911.947	4109
912.062	4059
912.176	4261
912.291	4246
912.405	4234
912.519	4436
912.633	4481
912.748	4341
912.862	4310
912.976	4200
913.09	4078
913.204	4147
913.318	4348
913.431	4356
913.545	4413
913.659	4402
913.772	4367
913.886	4253
914	4265
914.113	4405
914.226	4451
914.34	4375
914.453	4276
914.566	4451
914.68	4337
914.793	4314
914.906	4181
915.019	4109
915.132	4067
915.245	4162
915.358	4238
915.47	4246
915.583	4268
915.696	4344
915.809	4398
915.921	4436
916.034	4276
916.146	4215
916.259	4227
916.371	4363
916.483	4344
916.595	4234
916.708	4363
916.82	4318
916.932	4360
917.044	4310
917.156	4318
917.268	4215
917.38	4265
917.491	4246
917.603	4310
917.715	4440
917.826	4402
917.938	4322
918.049	4272
918.161	4383
918.272	4546
918.384	4519
918.495	4481
918.606	4287
918.717	4185
918.828	4337
918.939	4356
919.05	4223
919.161	4348
919.272	4124
919.383	4207
919.494	4436
919.604	4653
919.715	4478
919.826	4402
919.936	4409
920.047	4512
920.157	4508
920.267	4687
920.378	4558
920.488	4504
920.598	4755
920.708	4911
920.818	4740
920.928	4771
921.038	4965
921.148	4911
921.258	4687
921.368	4565
921.477	4485
921.587	4470
921.697	4341
921.806	4577
921.916	4424
922.025	4295
922.134	4276
922.244	4249
922.353	4390
922.462	4177
922.571	4147
922.68	4002
922.789	3953
922.898	4059
923.007	3994
923.116	4071
923.224	4040
923.333	4082
923.442	3991
923.55	3983
923.659	4025
923.767	4048
923.876	4036
923.984	4169
924.092	3968
924.201	4029
924.309	4067
924.417	4101
924.525	4063
924.633	4105
924.741	5060
924.849	3930
924.956	4093
925.064	4002
925.172	3945
925.279	4013
925.387	4032
925.494	4067
925.602	4223
925.709	4166
925.816	4048
925.924	4173
926.031	4211
926.138	4147
926.245	4227
926.352	4078
926.459	4280
926.566	4314
926.673	4166
926.779	4109
926.886	4071
926.993	3987
927.099	3979
927.206	3949
927.312	3922
927.419	4036
927.525	4048
927.631	4055
927.737	3998
927.843	3953
927.95	3838
928.056	3960
928.162	3991
928.267	4032
928.373	4645
928.479	4082
928.585	3880
928.69	4025
928.796	4082
928.901	3972
929.007	3854
929.112	4067
929.218	3972
929.323	3983
929.428	3983
929.533	4090
929.638	3846
929.743	3960
929.848	4044
929.953	3994
930.058	3918
930.163	3793
930.267	3816
930.372	3945
930.477	3838
930.581	4112
930.685	4021
930.79	3838
930.894	3892
930.998	3838
931.103	3983
931.207	3679
931.311	3698
931.415	3728
931.519	3545
931.623	3545
