Data from test_V78500241_284.txt Node
Date: Fri Mar 25 16:50:58 CST 2022
User: usil
Spectrometer: V785-0024
Trigger mode: 0
Integration Time (sec): 4.000000E-1
Scans to average: 1
Nonlinearity correction enabled: false
Boxcar width: 0
Storing dark spectrum: false
XAxis mode: Wavelengths
Number of Pixels in Spectrum: 1024
>>>>>Begin Spectral Data<<<<<
801.071	8027
801.214	8024
801.356	7944
801.499	7879
801.641	7845
801.783	7776
801.926	8046
802.068	7989
802.211	7959
802.353	8020
802.496	7849
802.638	7913
802.78	7951
802.923	8035
803.065	7906
803.208	7887
803.35	7970
803.492	8081
803.635	8134
803.777	8016
803.919	8130
804.061	8389
804.204	8134
804.346	8092
804.488	7906
804.63	8180
804.773	8012
804.915	8081
805.057	8233
805.199	8138
805.341	8252
805.483	8244
805.626	8202
805.768	8138
805.91	8168
806.052	8187
806.194	8092
806.336	8286
806.478	8100
806.62	8065
806.762	8149
806.904	8339
807.046	8480
807.188	8339
807.33	8332
807.472	8252
807.614	8126
807.756	8119
807.898	8008
808.04	7860
808.182	7906
808.324	7940
808.465	7944
808.607	8065
808.749	8229
808.891	8252
809.033	8263
809.174	8282
809.316	8084
809.458	8103
809.6	8001
809.741	8054
809.883	7993
810.025	8142
810.166	8069
810.308	8100
810.45	7997
810.591	7906
810.733	7731
810.875	7620
811.016	7476
811.158	7502
811.299	7575
811.441	7704
811.582	7662
811.724	7480
811.865	7563
812.007	7605
812.148	7575
812.29	7620
812.431	7776
812.573	7849
812.714	7963
812.855	8100
812.997	8218
813.138	8214
813.279	8195
813.421	8123
813.562	8073
813.703	7940
813.845	7780
813.986	7506
814.127	7255
814.268	7255
814.41	7190
814.551	7152
814.692	7190
814.833	7091
814.974	7107
815.115	7145
815.256	6928
815.397	6939
815.539	6962
815.68	6802
815.821	6734
815.962	6856
816.103	6863
816.244	6768
816.385	6639
816.526	6654
816.666	6578
816.807	6353
816.948	6403
817.089	6475
817.23	6414
817.371	6384
817.512	6365
817.653	6342
817.793	6361
817.934	6429
818.075	6445
818.216	6448
818.356	6445
818.497	6232
818.638	6148
818.778	6155
818.919	6155
819.06	6171
819.2	6346
819.341	6334
819.481	6361
819.622	6513
819.762	6688
819.903	6722
820.043	6597
820.184	6582
820.324	6566
820.465	6665
820.605	6639
820.746	6646
820.886	6448
821.026	6589
821.167	6703
821.307	6772
821.447	6840
821.588	6722
821.728	6604
821.868	6460
822.008	6346
822.149	6407
822.289	6346
822.429	6125
822.569	6057
822.709	6095
822.849	5950
822.99	5893
823.13	5946
823.27	5958
823.41	5847
823.55	5794
823.69	5771
823.83	5798
823.97	5707
824.11	5497
824.25	5543
824.389	5558
824.529	5551
824.669	5520
824.809	5646
824.949	5699
825.089	5638
825.228	5570
825.368	5417
825.508	5341
825.648	5311
825.787	5357
825.927	5433
826.067	5311
826.206	5318
826.346	5398
826.485	5417
826.625	5395
826.765	5509
826.904	5501
827.044	5318
827.183	5216
827.323	5105
827.462	5277
827.601	5147
827.741	5189
827.88	5223
828.02	5155
828.159	5258
828.298	5307
828.437	5376
828.577	5284
828.716	5505
828.855	5318
828.994	5223
829.134	5140
829.273	5201
829.412	5166
829.551	5117
829.69	5178
829.829	5197
829.968	5391
830.107	5261
830.246	5284
830.385	5189
830.524	5174
830.663	5083
830.802	4927
830.941	4889
831.08	4896
831.219	4961
831.357	4934
831.496	5197
831.635	4972
831.774	4885
831.913	4881
832.051	4729
832.19	4736
832.329	4854
832.467	4698
832.606	4679
832.744	4744
832.883	4710
833.022	4710
833.16	4801
833.299	4854
833.437	4839
833.576	4793
833.714	4877
833.852	4831
833.991	4885
834.129	4919
834.267	4976
834.406	4930
834.544	4965
834.682	5010
834.821	4961
834.959	5216
835.097	4972
835.235	5143
835.373	5025
835.511	5071
835.65	5083
835.788	5041
835.926	4889
836.064	4820
836.202	4934
836.34	5208
836.478	5239
836.615	5117
836.753	5235
836.891	5258
837.029	5269
837.167	5147
837.305	5162
837.443	5151
837.58	5140
837.718	5292
837.856	5170
837.993	5128
838.131	5277
838.269	5185
838.406	5220
838.544	5242
838.681	5041
838.819	5010
838.956	4881
839.094	4949
839.231	4980
839.369	5075
839.506	5471
839.643	5235
839.781	5018
839.918	5018
840.055	5143
840.193	5079
840.33	5128
840.467	5151
840.604	5185
840.742	5444
840.879	5071
841.016	5098
841.153	5132
841.29	5315
841.427	5364
841.564	5357
841.701	5341
841.838	5307
841.975	5239
842.112	5280
842.249	5140
842.385	5124
842.522	5364
842.659	5178
842.796	5109
842.933	5170
843.069	5151
843.206	5075
843.343	5307
843.479	5212
843.616	5296
843.752	5086
843.889	4995
844.025	5261
844.162	5003
844.298	5208
844.435	5075
844.571	5056
844.708	5170
844.844	5322
844.98	5303
845.117	5315
845.253	5117
845.389	5060
845.525	5181
845.661	5140
845.798	5029
845.934	5132
846.07	5071
846.206	5170
846.342	5315
846.478	5166
846.614	4987
846.75	5010
846.886	5014
847.022	5105
847.158	4995
847.294	5025
847.429	5181
847.565	5071
847.701	5288
847.837	4896
847.972	4793
848.108	4923
848.244	4946
848.379	4767
848.515	4729
848.65	4721
848.786	4733
848.921	4774
849.057	4850
849.192	4866
849.328	4835
849.463	4896
849.598	4782
849.734	4744
849.869	4710
850.004	4615
850.14	4634
850.275	4645
850.41	4500
850.545	4577
850.68	4596
850.815	4660
850.95	4656
851.085	4839
851.22	4752
851.355	4710
851.49	4607
851.625	4645
851.76	4622
851.895	4558
852.03	4519
852.165	4683
852.299	4702
852.434	4763
852.569	4740
852.703	4759
852.838	4831
852.973	4908
853.107	4892
853.242	4748
853.376	4668
853.511	4523
853.645	4577
853.78	4820
853.914	4759
854.048	4660
854.183	4653
854.317	4733
854.451	4858
854.585	4679
854.72	4641
854.854	4714
854.988	4637
855.122	4645
855.256	4546
855.39	4683
855.524	4782
855.658	4771
855.792	4710
855.926	4736
856.06	4809
856.194	4816
856.327	4668
856.461	4607
856.595	4626
856.729	4645
856.862	4797
856.996	4702
857.13	4725
857.263	4774
857.397	4759
857.53	4630
857.664	4691
857.797	4744
857.931	4763
858.064	4706
858.197	4790
858.331	4675
858.464	4599
858.597	4527
858.731	4626
858.864	4634
858.997	4656
859.13	4634
859.263	4710
859.396	4694
859.529	4588
859.662	4531
859.795	4546
859.928	4596
860.061	4763
860.194	4820
860.327	4637
860.46	4558
860.592	4721
860.725	4729
860.858	4736
860.99	4588
861.123	4500
861.256	4569
861.388	4596
861.521	5311
861.653	4474
861.786	4440
861.918	4474
862.05	4535
862.183	4554
862.315	4569
862.447	4672
862.58	4538
862.712	4417
862.844	4356
862.976	4447
863.108	4462
863.24	4850
863.372	4367
863.504	4459
863.636	4375
863.768	4485
863.9	4428
864.032	4409
864.164	4394
864.296	4512
864.428	4516
864.559	4569
864.691	4531
864.823	4516
864.954	4474
865.086	4523
865.217	4493
865.349	4424
865.48	4447
865.612	4523
865.743	4618
865.875	4466
866.006	4443
866.137	4500
866.269	4478
866.4	4443
866.531	4405
866.662	4375
866.793	4390
866.924	4440
867.055	4485
867.186	4497
867.317	4405
867.448	4341
867.579	4421
867.71	4386
867.841	4409
867.972	4462
868.103	4428
868.233	4402
868.364	4497
868.495	4459
868.625	4675
868.756	4748
868.886	4573
869.017	4630
869.147	4771
869.278	4793
869.408	4656
869.539	4660
869.669	4683
869.799	4675
869.929	4771
870.06	4744
870.19	4984
870.32	4904
870.45	4942
870.58	5033
870.71	5083
870.84	5060
870.97	4968
871.1	4915
871.23	5147
871.36	5128
871.489	4995
871.619	5060
871.749	5098
871.879	5117
872.008	5193
872.138	5060
872.267	4896
872.397	4873
872.526	4790
872.656	4763
872.785	4873
872.915	4949
873.044	4968
873.173	4946
873.303	4946
873.432	4984
873.561	4949
873.69	4866
873.819	4896
873.948	4949
874.077	4824
874.206	4755
874.335	4828
874.464	4927
874.593	5086
874.722	4968
874.851	5117
874.979	5052
875.108	5048
875.237	4896
875.365	4908
875.494	4881
875.623	4999
875.751	4835
875.88	4873
876.008	4965
876.136	5094
876.265	5159
876.393	5379
876.521	5250
876.65	5201
876.778	5147
876.906	5048
877.034	5094
877.162	5048
877.29	4995
877.418	5105
877.546	5045
877.674	5045
877.802	5033
877.93	4991
878.058	4953
878.185	4866
878.313	4946
878.441	4995
878.568	4759
878.696	4930
878.824	4965
878.951	5003
879.079	5071
879.206	5303
879.333	5102
879.461	4999
879.588	4987
879.715	5075
879.842	5280
879.97	5025
880.097	4797
880.224	4740
880.351	4782
880.478	4793
880.605	4812
880.732	4850
880.859	5105
880.986	4946
881.112	4946
881.239	4801
881.366	4641
881.493	4592
881.619	4607
881.746	4664
881.872	4691
881.999	4634
882.125	4717
882.252	4759
882.378	4828
882.505	4999
882.631	4809
882.757	4691
882.883	4729
883.01	4721
883.136	4672
883.262	4580
883.388	4607
883.514	4858
883.64	4873
883.766	4771
883.892	4687
884.018	4752
884.143	4949
884.269	4995
884.395	4694
884.52	4626
884.646	4656
884.772	4596
884.897	4558
885.023	4672
885.148	4801
885.274	4877
885.399	4820
885.524	4714
885.65	4691
885.775	4721
885.9	4759
886.025	4877
886.15	4771
886.275	4725
886.4	4725
886.525	4771
886.65	4740
886.775	4649
886.9	4946
887.025	5029
887.149	4801
887.274	4691
887.399	4618
887.523	4645
887.648	4634
887.773	4607
887.897	4755
888.021	4816
888.146	4679
888.27	4801
888.395	4923
888.519	4793
888.643	4862
888.767	4820
888.891	4683
889.015	4626
889.139	4683
889.263	4558
889.387	4729
889.511	4862
889.635	4820
889.759	4622
889.883	4618
890.006	4668
890.13	4839
890.254	4622
890.377	4687
890.501	4565
890.624	4527
890.748	4645
890.871	4470
890.995	4424
891.118	4367
891.241	4531
891.364	4481
891.488	4584
891.611	4485
891.734	4558
891.857	4641
891.98	4569
892.103	4649
892.226	4565
892.349	4554
892.471	4451
892.594	4630
892.717	4592
892.839	4565
892.962	4611
893.085	4698
893.207	4592
893.33	4470
893.452	4535
893.575	4649
893.697	4558
893.819	4778
893.941	4870
894.064	4839
894.186	4569
894.308	4569
894.43	4740
894.552	4892
894.674	4752
894.796	4504
894.918	4558
895.04	4546
895.161	4687
895.283	4645
895.405	4599
895.526	4714
895.648	4706
895.769	4660
895.891	4706
896.012	4755
896.134	4759
896.255	4698
896.376	4637
896.498	4588
896.619	4702
896.74	4584
896.861	4656
896.982	4957
897.103	5041
897.224	4812
897.345	4774
897.466	4603
897.587	4744
897.708	4892
897.828	4786
897.949	4687
898.07	4573
898.19	4599
898.311	4847
898.431	4641
898.552	4763
898.672	4816
898.792	4843
898.913	4782
899.033	4592
899.153	4535
899.273	4421
899.393	4474
899.513	4561
899.633	4516
899.753	4584
899.873	4489
899.993	4550
900.113	4573
900.232	4618
900.352	4550
900.472	4519
900.591	4367
900.711	4451
900.83	4398
900.95	4573
901.069	4660
901.189	4588
901.308	4344
901.427	4268
901.546	4386
901.665	4466
901.784	4500
901.904	4379
902.023	4341
902.141	4192
902.26	4177
902.379	4291
902.498	4253
902.617	4227
902.735	4390
902.854	4417
902.973	4344
903.091	4223
903.21	4223
903.328	4306
903.446	4272
903.565	4287
903.683	4390
903.801	4272
903.919	4421
904.038	4493
904.156	4337
904.274	4466
904.392	4417
904.51	4413
904.627	4478
904.745	4599
904.863	4637
904.981	4375
905.098	4344
905.216	4424
905.334	4432
905.451	4424
905.569	4485
905.686	4546
905.803	4577
905.921	4394
906.038	4535
906.155	4474
906.272	4405
906.389	4512
906.506	4348
906.623	4398
906.74	4394
906.857	4386
906.974	4322
907.091	4580
907.208	4710
907.324	4596
907.441	4459
907.557	4295
907.674	4318
907.79	4325
907.907	4398
908.023	4432
908.139	4516
908.256	4443
908.372	4455
908.488	4481
908.604	4360
908.72	4341
908.836	4363
908.952	4402
909.068	4443
909.184	4565
909.3	4504
909.415	4588
909.531	4554
909.647	4322
909.762	4379
909.878	4314
909.993	4428
910.108	4421
910.224	4424
910.339	4432
910.454	4470
910.57	4371
910.685	4322
910.8	4698
910.915	4599
911.03	4523
911.145	4291
911.259	4341
911.374	4367
911.489	4318
911.604	4295
911.718	4169
911.833	4200
911.947	4055
912.062	4025
912.176	4230
912.291	4200
912.405	4268
912.519	4466
912.633	4481
912.748	4405
912.862	4314
912.976	4219
913.09	4101
913.204	4207
913.318	4249
913.431	4375
913.545	4379
913.659	4451
913.772	4344
913.886	4257
914	4249
914.113	4356
914.226	4394
914.34	4428
914.453	4249
914.566	4474
914.68	4303
914.793	4333
914.906	4181
915.019	4128
915.132	4105
915.245	4215
915.358	4227
915.47	4249
915.583	4329
915.696	4303
915.809	4436
915.921	4417
916.034	4242
916.146	4249
916.259	4177
916.371	4394
916.483	4333
916.595	4318
916.708	4348
916.82	4325
916.932	4333
917.044	4371
917.156	4356
917.268	4234
917.38	4303
917.491	4310
917.603	4322
917.715	4432
917.826	4474
917.938	4360
918.049	4268
918.161	4421
918.272	4527
918.384	4535
918.495	4447
918.606	4379
918.717	4234
918.828	4322
918.939	4379
919.05	4261
919.161	4310
919.272	4128
919.383	4166
919.494	4504
919.604	4573
919.715	4462
919.826	4352
919.936	4409
920.047	4519
920.157	4489
920.267	4683
920.378	4538
920.488	4485
920.598	4721
920.708	4889
920.818	4778
920.928	4767
921.038	4957
921.148	4923
921.258	4656
921.368	4569
921.477	4481
921.587	4478
921.697	4424
921.806	4523
921.916	4447
922.025	4303
922.134	4276
922.244	4192
922.353	4325
922.462	4246
922.571	4158
922.68	3975
922.789	3968
922.898	4032
923.007	4010
923.116	4090
923.224	4067
923.333	4135
923.442	4010
923.55	3987
923.659	4040
923.767	4131
923.876	3918
923.984	4120
924.092	4017
924.201	4063
924.309	4147
924.417	4173
924.525	4036
924.633	4116
924.741	5041
924.849	3937
924.956	4139
925.064	3998
925.172	3896
925.279	3972
925.387	4029
925.494	4055
925.602	4230
925.709	4196
925.816	4032
925.924	4169
926.031	4234
926.138	4143
926.245	4211
926.352	4112
926.459	4299
926.566	4325
926.673	4177
926.779	4086
926.886	4086
926.993	3964
927.099	3987
927.206	3960
927.312	3937
927.419	4051
927.525	4029
927.631	4071
927.737	4013
927.843	3968
927.95	3880
928.056	3975
928.162	3975
928.267	4082
928.373	4691
928.479	4124
928.585	3873
928.69	4051
928.796	4071
928.901	3983
929.007	3869
929.112	3998
929.218	3994
929.323	3915
929.428	3960
929.533	4135
929.638	3918
929.743	3991
929.848	4067
929.953	4036
930.058	3968
930.163	3759
930.267	3831
930.372	3968
930.477	3835
930.581	4093
930.685	3979
930.79	3804
930.894	3896
930.998	3850
931.103	4067
931.207	3701
931.311	3679
931.415	3641
931.519	3511
931.623	3545
