Data from test_V78500241_1114.txt Node
Date: Fri Mar 25 16:56:44 CST 2022
User: usil
Spectrometer: V785-0024
Trigger mode: 0
Integration Time (sec): 4.000000E-1
Scans to average: 1
Nonlinearity correction enabled: false
Boxcar width: 0
Storing dark spectrum: false
XAxis mode: Wavelengths
Number of Pixels in Spectrum: 1024
>>>>>Begin Spectral Data<<<<<
801.071	8039
801.214	8107
801.356	7932
801.499	7814
801.641	7818
801.783	7772
801.926	7890
802.068	7883
802.211	8005
802.353	7909
802.496	7818
802.638	7807
802.78	7917
802.923	7925
803.065	7925
803.208	7849
803.35	7944
803.492	8134
803.635	8187
803.777	7967
803.919	8123
804.061	8434
804.204	8138
804.346	8077
804.488	7955
804.63	8119
804.773	8020
804.915	8084
805.057	8294
805.199	8180
805.341	8202
805.483	8275
805.626	8164
805.768	8111
805.91	8187
806.052	8176
806.194	8020
806.336	8282
806.478	8077
806.62	8008
806.762	8145
806.904	8301
807.046	8457
807.188	8343
807.33	8282
807.472	8279
807.614	8077
807.756	8039
807.898	7993
808.04	7932
808.182	7833
808.324	7887
808.465	7883
808.607	8062
808.749	8115
808.891	8206
809.033	8279
809.174	8176
809.316	8062
809.458	7982
809.6	7986
809.741	8050
809.883	8008
810.025	7982
810.166	8001
810.308	8069
810.45	7928
810.591	7879
810.733	7693
810.875	7632
811.016	7460
811.158	7487
811.299	7510
811.441	7700
811.582	7616
811.724	7609
811.865	7521
812.007	7556
812.148	7548
812.29	7643
812.431	7769
812.573	7837
812.714	8020
812.855	8046
812.997	8161
813.138	8282
813.279	8134
813.421	8073
813.562	7936
813.703	7852
813.845	7651
813.986	7464
814.127	7301
814.268	7202
814.41	7194
814.551	7133
814.692	7133
814.833	7042
814.974	7065
815.115	7103
815.256	6970
815.397	6894
815.539	6909
815.68	6863
815.821	6760
815.962	6890
816.103	6848
816.244	6684
816.385	6662
816.526	6585
816.666	6509
816.807	6292
816.948	6380
817.089	6486
817.23	6422
817.371	6372
817.512	6376
817.653	6433
817.793	6319
817.934	6384
818.075	6414
818.216	6414
818.356	6403
818.497	6224
818.638	6136
818.778	6053
818.919	6140
819.06	6121
819.2	6338
819.341	6311
819.481	6384
819.622	6509
819.762	6658
819.903	6677
820.043	6559
820.184	6578
820.324	6563
820.465	6749
820.605	6654
820.746	6646
820.886	6517
821.026	6627
821.167	6623
821.307	6787
821.447	6749
821.588	6589
821.728	6563
821.868	6433
822.008	6395
822.149	6357
822.289	6369
822.429	6205
822.569	6102
822.709	6155
822.849	5935
822.99	5893
823.13	5878
823.27	5874
823.41	5745
823.55	5752
823.69	5805
823.83	5779
823.97	5688
824.11	5551
824.25	5486
824.389	5512
824.529	5573
824.669	5562
824.809	5558
824.949	5688
825.089	5638
825.228	5524
825.368	5444
825.508	5334
825.648	5322
825.787	5364
825.927	5368
826.067	5235
826.206	5334
826.346	5330
826.485	5360
826.625	5334
826.765	5509
826.904	5436
827.044	5242
827.183	5170
827.323	5121
827.462	5231
827.601	5216
827.741	5181
827.88	5201
828.02	5136
828.159	5227
828.298	5254
828.437	5330
828.577	5239
828.716	5463
828.855	5315
828.994	5105
829.134	5170
829.273	5151
829.412	5124
829.551	5105
829.69	5136
829.829	5204
829.968	5345
830.107	5303
830.246	5212
830.385	5181
830.524	5121
830.663	5048
830.802	4942
830.941	4866
831.08	4904
831.219	4972
831.357	4987
831.496	5159
831.635	4908
831.774	4831
831.913	4843
832.051	4660
832.19	4736
832.329	4805
832.467	4694
832.606	4599
832.744	4691
832.883	4687
833.022	4740
833.16	4740
833.299	4847
833.437	4759
833.576	4812
833.714	4850
833.852	4847
833.991	4877
834.129	4972
834.267	4915
834.406	4889
834.544	4953
834.682	4930
834.821	4949
834.959	5155
835.097	4957
835.235	5102
835.373	5029
835.511	5083
835.65	5003
835.788	5006
835.926	4862
836.064	4835
836.202	4885
836.34	5117
836.478	5223
836.615	5105
836.753	5220
836.891	5242
837.029	5284
837.167	5261
837.305	5132
837.443	5162
837.58	5128
837.718	5254
837.856	5181
837.993	5143
838.131	5242
838.269	5185
838.406	5155
838.544	5162
838.681	5025
838.819	4995
838.956	4885
839.094	4919
839.231	4987
839.369	5022
839.506	5387
839.643	5280
839.781	4991
839.918	5033
840.055	5064
840.193	5094
840.33	5124
840.467	5117
840.604	5143
840.742	5433
840.879	5079
841.016	5041
841.153	5147
841.29	5315
841.427	5337
841.564	5269
841.701	5368
841.838	5204
841.975	5212
842.112	5277
842.249	5086
842.385	5075
842.522	5318
842.659	5204
842.796	5083
842.933	5197
843.069	5136
843.206	5162
843.343	5318
843.479	5220
843.616	5250
843.752	5014
843.889	5014
844.025	5273
844.162	4961
844.298	5204
844.435	5117
844.571	5041
844.708	5166
844.844	5246
844.98	5296
845.117	5265
845.253	5140
845.389	5037
845.525	5140
845.661	5166
845.798	4980
845.934	5132
846.07	5094
846.206	5166
846.342	5239
846.478	5159
846.614	5010
846.75	4934
846.886	4930
847.022	5136
847.158	5041
847.294	5060
847.429	5071
847.565	5083
847.701	5307
847.837	4828
847.972	4771
848.108	4915
848.244	4919
848.379	4771
848.515	4748
848.65	4725
848.786	4717
848.921	4733
849.057	4873
849.192	4934
849.328	4809
849.463	4820
849.598	4771
849.734	4698
849.869	4668
850.004	4599
850.14	4672
850.275	4596
850.41	4504
850.545	4531
850.68	4607
850.815	4668
850.95	4634
851.085	4774
851.22	4736
851.355	4653
851.49	4592
851.625	4596
851.76	4599
851.895	4512
852.03	4546
852.165	4596
852.299	4725
852.434	4812
852.569	4706
852.703	4736
852.838	4824
852.973	4873
853.107	4934
853.242	4729
853.376	4679
853.511	4516
853.645	4584
853.78	4820
853.914	4683
854.048	4725
854.183	4615
854.317	4668
854.451	4858
854.585	4637
854.72	4634
854.854	4710
854.988	4569
855.122	4615
855.256	4481
855.39	4637
855.524	4729
855.658	4733
855.792	4634
855.926	4694
856.06	4752
856.194	4725
856.327	4672
856.461	4588
856.595	4653
856.729	4554
856.862	4733
856.996	4702
857.13	4736
857.263	4790
857.397	4786
857.53	4634
857.664	4714
857.797	4725
857.931	4790
858.064	4641
858.197	4740
858.331	4607
858.464	4599
858.597	4489
858.731	4584
858.864	4641
858.997	4615
859.13	4596
859.263	4660
859.396	4702
859.529	4542
859.662	4542
859.795	4535
859.928	4565
860.061	4725
860.194	4771
860.327	4580
860.46	4554
860.592	4702
860.725	4668
860.858	4702
860.99	4516
861.123	4538
861.256	4489
861.388	4626
861.521	5360
861.653	4436
861.786	4451
861.918	4436
862.05	4497
862.183	4523
862.315	4588
862.447	4656
862.58	4523
862.712	4371
862.844	4337
862.976	4443
863.108	4455
863.24	4744
863.372	4272
863.504	4394
863.636	4379
863.768	4428
863.9	4428
864.032	4310
864.164	4371
864.296	4470
864.428	4538
864.559	4565
864.691	4580
864.823	4504
864.954	4474
865.086	4489
865.217	4428
865.349	4390
865.48	4436
865.612	4455
865.743	4580
865.875	4409
866.006	4329
866.137	4440
866.269	4428
866.4	4394
866.531	4432
866.662	4367
866.793	4390
866.924	4424
867.055	4516
867.186	4443
867.317	4424
867.448	4344
867.579	4352
867.71	4394
867.841	4363
867.972	4443
868.103	4428
868.233	4390
868.364	4421
868.495	4470
868.625	4653
868.756	4721
868.886	4550
869.017	4550
869.147	4759
869.278	4752
869.408	4645
869.539	4554
869.669	4679
869.799	4599
869.929	4721
870.06	4733
870.19	4930
870.32	4915
870.45	4904
870.58	5010
870.71	5022
870.84	5109
870.97	4968
871.1	4892
871.23	5094
871.36	5079
871.489	4991
871.619	5090
871.749	5045
871.879	5037
872.008	5162
872.138	5090
872.267	4938
872.397	4847
872.526	4816
872.656	4736
872.785	4786
872.915	4930
873.044	5064
873.173	4919
873.303	4953
873.432	4885
873.561	4949
873.69	4866
873.819	4835
873.948	4885
874.077	4828
874.206	4698
874.335	4835
874.464	4911
874.593	5033
874.722	4908
874.851	5052
874.979	4984
875.108	4995
875.237	4881
875.365	4889
875.494	4850
875.623	4930
875.751	4797
875.88	4847
876.008	4972
876.136	5025
876.265	5189
876.393	5334
876.521	5208
876.65	5239
876.778	5140
876.906	5018
877.034	4961
877.162	4980
877.29	4968
877.418	5029
877.546	5029
877.674	5045
877.802	5018
877.93	5029
878.058	4919
878.185	4854
878.313	4927
878.441	4930
878.568	4786
878.696	4839
878.824	4896
878.951	4980
879.079	5132
879.206	5299
879.333	5079
879.461	4942
879.588	4991
879.715	5075
879.842	5235
879.97	4961
880.097	4771
880.224	4725
880.351	4793
880.478	4854
880.605	4778
880.732	4706
880.859	5037
880.986	4877
881.112	4900
881.239	4778
881.366	4637
881.493	4542
881.619	4561
881.746	4599
881.872	4645
881.999	4660
882.125	4702
882.252	4801
882.378	4847
882.505	4957
882.631	4763
882.757	4660
882.883	4706
883.01	4706
883.136	4672
883.262	4577
883.388	4622
883.514	4858
883.64	4854
883.766	4816
883.892	4672
884.018	4702
884.143	4873
884.269	5018
884.395	4710
884.52	4683
884.646	4618
884.772	4618
884.897	4577
885.023	4721
885.148	4793
885.274	4927
885.399	4782
885.524	4725
885.65	4725
885.775	4744
885.9	4759
886.025	4877
886.15	4847
886.275	4759
886.4	4664
886.525	4748
886.65	4710
886.775	4698
886.9	4927
887.025	5060
887.149	4877
887.274	4698
887.399	4580
887.523	4577
887.648	4580
887.773	4626
887.897	4744
888.021	4774
888.146	4714
888.27	4854
888.395	4946
888.519	4801
888.643	4839
888.767	4850
888.891	4721
889.015	4656
889.139	4672
889.263	4618
889.387	4809
889.511	4908
889.635	4854
889.759	4675
889.883	4660
890.006	4767
890.13	4892
890.254	4691
890.377	4759
890.501	4603
890.624	4538
890.748	4664
890.871	4561
890.995	4440
891.118	4390
891.241	4558
891.364	4588
891.488	4702
891.611	4516
891.734	4588
891.857	4622
891.98	4561
892.103	4694
892.226	4626
892.349	4573
892.471	4462
892.594	4569
892.717	4615
892.839	4603
892.962	4653
893.085	4714
893.207	4634
893.33	4485
893.452	4588
893.575	4679
893.697	4607
893.819	4835
893.941	4850
894.064	4759
894.186	4596
894.308	4611
894.43	4767
894.552	4862
894.674	4748
894.796	4546
894.918	4641
895.04	4603
895.161	4675
895.283	4660
895.405	4664
895.526	4653
895.648	4725
895.769	4759
895.891	4691
896.012	4748
896.134	4816
896.255	4679
896.376	4645
896.498	4649
896.619	4721
896.74	4675
896.861	4664
896.982	4972
897.103	5113
897.224	4873
897.345	4774
897.466	4710
897.587	4729
897.708	4900
897.828	4778
897.949	4736
898.07	4561
898.19	4649
898.311	4847
898.431	4683
898.552	4725
898.672	4828
898.792	4843
898.913	4786
899.033	4584
899.153	4538
899.273	4474
899.393	4489
899.513	4577
899.633	4550
899.753	4599
899.873	4561
899.993	4569
900.113	4546
900.232	4611
900.352	4561
900.472	4489
900.591	4405
900.711	4485
900.83	4466
900.95	4592
901.069	4698
901.189	4622
901.308	4409
901.427	4363
901.546	4421
901.665	4504
901.784	4497
901.904	4436
902.023	4371
902.141	4207
902.26	4204
902.379	4367
902.498	4276
902.617	4230
902.735	4398
902.854	4379
902.973	4417
903.091	4192
903.21	4246
903.328	4284
903.446	4295
903.565	4322
903.683	4306
903.801	4329
903.919	4421
904.038	4466
904.156	4356
904.274	4512
904.392	4405
904.51	4436
904.627	4500
904.745	4603
904.863	4615
904.981	4432
905.098	4375
905.216	4363
905.334	4436
905.451	4474
905.569	4474
905.686	4592
905.803	4599
905.921	4386
906.038	4550
906.155	4516
906.272	4409
906.389	4504
906.506	4337
906.623	4409
906.74	4405
906.857	4341
906.974	4379
907.091	4554
907.208	4672
907.324	4588
907.441	4538
907.557	4383
907.674	4344
907.79	4348
907.907	4421
908.023	4531
908.139	4500
908.256	4466
908.372	4428
908.488	4519
908.604	4383
908.72	4333
908.836	4371
908.952	4390
909.068	4455
909.184	4641
909.3	4497
909.415	4596
909.531	4634
909.647	4356
909.762	4352
909.878	4341
909.993	4402
910.108	4462
910.224	4447
910.339	4500
910.454	4466
910.57	4421
910.685	4360
910.8	4660
910.915	4596
911.03	4531
911.145	4322
911.259	4314
911.374	4356
911.489	4322
911.604	4310
911.718	4215
911.833	4219
911.947	4131
912.062	4036
912.176	4215
912.291	4265
912.405	4280
912.519	4516
912.633	4577
912.748	4352
912.862	4325
912.976	4230
913.09	4154
913.204	4215
913.318	4257
913.431	4390
913.545	4356
913.659	4432
913.772	4379
913.886	4268
914	4242
914.113	4394
914.226	4432
914.34	4413
914.453	4234
914.566	4451
914.68	4344
914.793	4356
914.906	4242
915.019	4177
915.132	4090
915.245	4177
915.358	4227
915.47	4238
915.583	4238
915.696	4280
915.809	4398
915.921	4436
916.034	4246
916.146	4272
916.259	4291
916.371	4402
916.483	4367
916.595	4272
916.708	4341
916.82	4295
916.932	4352
917.044	4398
917.156	4360
917.268	4238
917.38	4295
917.491	4280
917.603	4333
917.715	4451
917.826	4470
917.938	4363
918.049	4242
918.161	4383
918.272	4565
918.384	4554
918.495	4489
918.606	4322
918.717	4238
918.828	4394
918.939	4394
919.05	4227
919.161	4402
919.272	4169
919.383	4211
919.494	4443
919.604	4611
919.715	4459
919.826	4371
919.936	4413
920.047	4550
920.157	4508
920.267	4687
920.378	4542
920.488	4550
920.598	4714
920.708	4873
920.818	4782
920.928	4748
921.038	4927
921.148	4873
921.258	4641
921.368	4577
921.477	4489
921.587	4451
921.697	4363
921.806	4542
921.916	4428
922.025	4257
922.134	4299
922.244	4303
922.353	4344
922.462	4158
922.571	4192
922.68	4010
922.789	3987
922.898	4059
923.007	4006
923.116	4128
923.224	4048
923.333	4120
923.442	4017
923.55	4036
923.659	4048
923.767	4105
923.876	4025
923.984	4109
924.092	4013
924.201	4093
924.309	4120
924.417	4120
924.525	4090
924.633	4128
924.741	4942
924.849	3922
924.956	4139
925.064	4006
925.172	3937
925.279	3987
925.387	4067
925.494	4074
925.602	4246
925.709	4181
925.816	4044
925.924	4128
926.031	4268
926.138	4154
926.245	4200
926.352	4147
926.459	4261
926.566	4280
926.673	4105
926.779	4082
926.886	4109
926.993	3975
927.099	3911
927.206	3949
927.312	3930
927.419	4097
927.525	4051
927.631	4074
927.737	3994
927.843	3915
927.95	3854
928.056	3949
928.162	4013
928.267	4082
928.373	4717
928.479	4116
928.585	3884
928.69	4082
928.796	4036
928.901	3949
929.007	3838
929.112	4002
929.218	3991
929.323	3975
929.428	3994
929.533	4124
929.638	3911
929.743	3964
929.848	4097
929.953	4002
930.058	3888
930.163	3812
930.267	3888
930.372	3998
930.477	3800
930.581	4093
930.685	3983
930.79	3808
930.894	3873
930.998	3941
931.103	4044
931.207	3747
931.311	3713
931.415	3637
931.519	3557
931.623	3599
