Data from test_V78500241_1783.txt Node
Date: Fri Mar 25 17:01:23 CST 2022
User: usil
Spectrometer: V785-0024
Trigger mode: 0
Integration Time (sec): 4.000000E-1
Scans to average: 1
Nonlinearity correction enabled: false
Boxcar width: 0
Storing dark spectrum: false
XAxis mode: Wavelengths
Number of Pixels in Spectrum: 1024
>>>>>Begin Spectral Data<<<<<
801.071	7978
801.214	7974
801.356	7898
801.499	7856
801.641	7780
801.783	7841
801.926	7940
802.068	7875
802.211	7947
802.353	8024
802.496	7887
802.638	7833
802.78	7902
802.923	7917
803.065	7856
803.208	7833
803.35	7913
803.492	8073
803.635	8092
803.777	7993
803.919	8062
804.061	8419
804.204	8126
804.346	8084
804.488	7951
804.63	8027
804.773	7982
804.915	8115
805.057	8351
805.199	8134
805.341	8218
805.483	8244
805.626	8149
805.768	8180
805.91	8199
806.052	8191
806.194	8073
806.336	8317
806.478	8054
806.62	8005
806.762	8043
806.904	8286
807.046	8511
807.188	8389
807.33	8279
807.472	8320
807.614	8187
807.756	8088
807.898	7967
808.04	7944
808.182	7947
808.324	7830
808.465	7974
808.607	8031
808.749	8069
808.891	8218
809.033	8301
809.174	8183
809.316	8058
809.458	8073
809.6	7993
809.741	8020
809.883	8027
810.025	8096
810.166	8035
810.308	8008
810.45	7982
810.591	7860
810.733	7750
810.875	7693
811.016	7457
811.158	7449
811.299	7620
811.441	7719
811.582	7647
811.724	7540
811.865	7521
812.007	7586
812.148	7567
812.29	7605
812.431	7750
812.573	7871
812.714	7967
812.855	8092
812.997	8183
813.138	8366
813.279	8176
813.421	8123
813.562	7898
813.703	7837
813.845	7723
813.986	7445
814.127	7251
814.268	7251
814.41	7160
814.551	7141
814.692	7236
814.833	7095
814.974	7091
815.115	7057
815.256	6947
815.397	6909
815.539	6966
815.68	6806
815.821	6730
815.962	6867
816.103	6795
816.244	6677
816.385	6639
816.526	6551
816.666	6460
816.807	6353
816.948	6388
817.089	6437
817.23	6369
817.371	6384
817.512	6403
817.653	6338
817.793	6342
817.934	6429
818.075	6429
818.216	6410
818.356	6407
818.497	6247
818.638	6083
818.778	6129
818.919	6144
819.06	6175
819.2	6243
819.341	6311
819.481	6372
819.622	6532
819.762	6681
819.903	6658
820.043	6601
820.184	6502
820.324	6612
820.465	6673
820.605	6719
820.746	6582
820.886	6555
821.026	6635
821.167	6719
821.307	6810
821.447	6818
821.588	6715
821.728	6593
821.868	6448
822.008	6289
822.149	6357
822.289	6391
822.429	6129
822.569	6083
822.709	6175
822.849	5946
822.99	5897
823.13	5946
823.27	5920
823.41	5805
823.55	5844
823.69	5836
823.83	5821
823.97	5691
824.11	5467
824.25	5539
824.389	5589
824.529	5627
824.669	5600
824.809	5665
824.949	5665
825.089	5733
825.228	5604
825.368	5440
825.508	5364
825.648	5395
825.787	5421
825.927	5406
826.067	5353
826.206	5337
826.346	5433
826.485	5436
826.625	5478
826.765	5642
826.904	5547
827.044	5250
827.183	5223
827.323	5159
827.462	5311
827.601	5140
827.741	5242
827.88	5299
828.02	5098
828.159	5280
828.298	5330
828.437	5402
828.577	5288
828.716	5486
828.855	5345
828.994	5204
829.134	5185
829.273	5178
829.412	5143
829.551	5124
829.69	5189
829.829	5258
829.968	5414
830.107	5299
830.246	5334
830.385	5273
830.524	5159
830.663	5121
830.802	5003
830.941	4896
831.08	4915
831.219	5037
831.357	5052
831.496	5197
831.635	4965
831.774	4866
831.913	4892
832.051	4778
832.19	4771
832.329	4866
832.467	4736
832.606	4664
832.744	4733
832.883	4748
833.022	4816
833.16	4866
833.299	4824
833.437	4831
833.576	4843
833.714	4835
833.852	4889
833.991	4915
834.129	5006
834.267	4995
834.406	4900
834.544	5014
834.682	5022
834.821	5041
834.959	5208
835.097	5060
835.235	5223
835.373	5117
835.511	5128
835.65	5090
835.788	5098
835.926	4881
836.064	4923
836.202	4949
836.34	5178
836.478	5204
836.615	5121
836.753	5242
836.891	5322
837.029	5273
837.167	5201
837.305	5189
837.443	5201
837.58	5113
837.718	5303
837.856	5178
837.993	5147
838.131	5292
838.269	5242
838.406	5189
838.544	5303
838.681	5113
838.819	5075
838.956	4915
839.094	4915
839.231	4991
839.369	5113
839.506	5444
839.643	5284
839.781	5060
839.918	5014
840.055	5140
840.193	5216
840.33	5113
840.467	5170
840.604	5140
840.742	5474
840.879	5143
841.016	5067
841.153	5193
841.29	5402
841.427	5341
841.564	5372
841.701	5383
841.838	5258
841.975	5280
842.112	5299
842.249	5178
842.385	5128
842.522	5360
842.659	5216
842.796	5197
842.933	5227
843.069	5147
843.206	5197
843.343	5334
843.479	5239
843.616	5311
843.752	5098
843.889	5052
844.025	5284
844.162	5086
844.298	5242
844.435	5124
844.571	5052
844.708	5220
844.844	5360
844.98	5326
845.117	5353
845.253	5132
845.389	5075
845.525	5162
845.661	5204
845.798	5045
845.934	5151
846.07	5086
846.206	5269
846.342	5330
846.478	5178
846.614	5075
846.75	4991
846.886	4946
847.022	5140
847.158	5052
847.294	5071
847.429	5094
847.565	5064
847.701	5326
847.837	4892
847.972	4816
848.108	4968
848.244	4968
848.379	4824
848.515	4778
848.65	4748
848.786	4767
848.921	4805
849.057	4942
849.192	4930
849.328	4828
849.463	4877
849.598	4816
849.734	4778
849.869	4733
850.004	4675
850.14	4675
850.275	4618
850.41	4580
850.545	4637
850.68	4668
850.815	4622
850.95	4687
851.085	4812
851.22	4752
851.355	4691
851.49	4580
851.625	4679
851.76	4630
851.895	4561
852.03	4550
852.165	4653
852.299	4767
852.434	4812
852.569	4797
852.703	4767
852.838	4877
852.973	4946
853.107	4934
853.242	4729
853.376	4721
853.511	4565
853.645	4679
853.78	4816
853.914	4740
854.048	4706
854.183	4683
854.317	4759
854.451	4885
854.585	4706
854.72	4683
854.854	4812
854.988	4694
855.122	4649
855.256	4538
855.39	4717
855.524	4786
855.658	4702
855.792	4645
855.926	4771
856.06	4778
856.194	4835
856.327	4649
856.461	4637
856.595	4634
856.729	4634
856.862	4793
856.996	4675
857.13	4733
857.263	4778
857.397	4820
857.53	4675
857.664	4759
857.797	4809
857.931	4771
858.064	4729
858.197	4782
858.331	4675
858.464	4622
858.597	4538
858.731	4611
858.864	4660
858.997	4660
859.13	4702
859.263	4725
859.396	4683
859.529	4630
859.662	4615
859.795	4542
859.928	4603
860.061	4744
860.194	4733
860.327	4607
860.46	4615
860.592	4763
860.725	4706
860.858	4748
860.99	4622
861.123	4512
861.256	4527
861.388	4710
861.521	5299
861.653	4535
861.786	4413
861.918	4508
862.05	4542
862.183	4596
862.315	4618
862.447	4702
862.58	4603
862.712	4443
862.844	4371
862.976	4497
863.108	4500
863.24	4900
863.372	4325
863.504	4493
863.636	4428
863.768	4512
863.9	4421
864.032	4379
864.164	4424
864.296	4481
864.428	4596
864.559	4580
864.691	4580
864.823	4561
864.954	4535
865.086	4519
865.217	4466
865.349	4455
865.48	4535
865.612	4542
865.743	4656
865.875	4474
866.006	4459
866.137	4478
866.269	4428
866.4	4451
866.531	4459
866.662	4428
866.793	4413
866.924	4440
867.055	4500
867.186	4470
867.317	4417
867.448	4383
867.579	4409
867.71	4409
867.841	4383
867.972	4462
868.103	4508
868.233	4466
868.364	4436
868.495	4504
868.625	4634
868.756	4740
868.886	4577
869.017	4653
869.147	4774
869.278	4767
869.408	4694
869.539	4706
869.669	4721
869.799	4672
869.929	4782
870.06	4717
870.19	4934
870.32	4908
870.45	4923
870.58	5029
870.71	5094
870.84	5067
870.97	4972
871.1	4885
871.23	5178
871.36	5151
871.489	5006
871.619	5121
871.749	5098
871.879	5147
872.008	5181
872.138	5090
872.267	5025
872.397	4850
872.526	4793
872.656	4771
872.785	4812
872.915	4904
873.044	5064
873.173	4961
873.303	5022
873.432	4923
873.561	4995
873.69	4889
873.819	4904
873.948	4923
874.077	4877
874.206	4790
874.335	4828
874.464	4934
874.593	5083
874.722	5041
874.851	5075
874.979	5083
875.108	5079
875.237	4957
875.365	4904
875.494	4858
875.623	4961
875.751	4843
875.88	4885
876.008	5045
876.136	5079
876.265	5159
876.393	5360
876.521	5296
876.65	5246
876.778	5132
876.906	5094
877.034	4980
877.162	5014
877.29	4942
877.418	5029
877.546	5056
877.674	5060
877.802	5056
877.93	5075
878.058	4987
878.185	4892
878.313	4930
878.441	4976
878.568	4816
878.696	4835
878.824	5010
878.951	4968
879.079	5136
879.206	5284
879.333	5094
879.461	5025
879.588	4995
879.715	5128
879.842	5227
879.97	4984
880.097	4771
880.224	4736
880.351	4835
880.478	4858
880.605	4824
880.732	4755
880.859	5090
880.986	4923
881.112	4919
881.239	4797
881.366	4687
881.493	4584
881.619	4626
881.746	4634
881.872	4634
881.999	4626
882.125	4710
882.252	4805
882.378	4774
882.505	4949
882.631	4831
882.757	4683
882.883	4740
883.01	4736
883.136	4710
883.262	4611
883.388	4634
883.514	4793
883.64	4847
883.766	4793
883.892	4698
884.018	4729
884.143	4938
884.269	5003
884.395	4660
884.52	4634
884.646	4664
884.772	4656
884.897	4550
885.023	4653
885.148	4793
885.274	4930
885.399	4862
885.524	4721
885.65	4706
885.775	4729
885.9	4717
886.025	4896
886.15	4843
886.275	4702
886.4	4698
886.525	4721
886.65	4668
886.775	4733
886.9	4915
887.025	5033
887.149	4812
887.274	4656
887.399	4592
887.523	4622
887.648	4561
887.773	4584
887.897	4767
888.021	4782
888.146	4702
888.27	4816
888.395	4938
888.519	4774
888.643	4816
888.767	4892
888.891	4679
889.015	4645
889.139	4691
889.263	4664
889.387	4763
889.511	4900
889.635	4786
889.759	4641
889.883	4672
890.006	4759
890.13	4809
890.254	4626
890.377	4740
890.501	4569
890.624	4577
890.748	4611
890.871	4478
890.995	4428
891.118	4405
891.241	4535
891.364	4550
891.488	4664
891.611	4512
891.734	4538
891.857	4580
891.98	4569
892.103	4637
892.226	4569
892.349	4558
892.471	4386
892.594	4611
892.717	4630
892.839	4577
892.962	4611
893.085	4675
893.207	4599
893.33	4508
893.452	4500
893.575	4710
893.697	4603
893.819	4828
893.941	4839
894.064	4778
894.186	4618
894.308	4588
894.43	4740
894.552	4835
894.674	4790
894.796	4615
894.918	4558
895.04	4546
895.161	4717
895.283	4626
895.405	4611
895.526	4679
895.648	4698
895.769	4691
895.891	4748
896.012	4752
896.134	4721
896.255	4668
896.376	4607
896.498	4592
896.619	4710
896.74	4603
896.861	4645
896.982	4949
897.103	5124
897.224	4889
897.345	4702
897.466	4649
897.587	4717
897.708	4873
897.828	4759
897.949	4694
898.07	4550
898.19	4656
898.311	4809
898.431	4679
898.552	4721
898.672	4824
898.792	4805
898.913	4721
899.033	4672
899.153	4535
899.273	4462
899.393	4523
899.513	4523
899.633	4531
899.753	4565
899.873	4565
899.993	4561
900.113	4512
900.232	4584
900.352	4569
900.472	4504
900.591	4424
900.711	4451
900.83	4443
900.95	4580
901.069	4653
901.189	4558
901.308	4428
901.427	4325
901.546	4375
901.665	4466
901.784	4470
901.904	4432
902.023	4348
902.141	4204
902.26	4177
902.379	4295
902.498	4299
902.617	4223
902.735	4352
902.854	4402
902.973	4318
903.091	4219
903.21	4211
903.328	4287
903.446	4249
903.565	4246
903.683	4360
903.801	4268
903.919	4424
904.038	4436
904.156	4318
904.274	4466
904.392	4383
904.51	4451
904.627	4489
904.745	4599
904.863	4637
904.981	4409
905.098	4295
905.216	4383
905.334	4451
905.451	4443
905.569	4443
905.686	4561
905.803	4561
905.921	4470
906.038	4538
906.155	4489
906.272	4405
906.389	4474
906.506	4329
906.623	4367
906.74	4440
906.857	4329
906.974	4322
907.091	4584
907.208	4626
907.324	4599
907.441	4512
907.557	4314
907.674	4333
907.79	4287
907.907	4386
908.023	4512
908.139	4459
908.256	4459
908.372	4523
908.488	4478
908.604	4379
908.72	4341
908.836	4402
908.952	4325
909.068	4417
909.184	4558
909.3	4462
909.415	4584
909.531	4546
909.647	4329
909.762	4352
909.878	4348
909.993	4462
910.108	4455
910.224	4417
910.339	4447
910.454	4394
910.57	4363
910.685	4291
910.8	4634
910.915	4615
911.03	4443
911.145	4325
911.259	4371
911.374	4383
911.489	4303
911.604	4306
911.718	4227
911.833	4204
911.947	4116
912.062	4032
912.176	4196
912.291	4257
912.405	4287
912.519	4497
912.633	4508
912.748	4344
912.862	4287
912.976	4215
913.09	4059
913.204	4147
913.318	4287
913.431	4356
913.545	4367
913.659	4447
913.772	4379
913.886	4261
914	4219
914.113	4390
914.226	4417
914.34	4413
914.453	4246
914.566	4409
914.68	4318
914.793	4291
914.906	4158
915.019	4101
915.132	4071
915.245	4207
915.358	4215
915.47	4261
915.583	4261
915.696	4272
915.809	4405
915.921	4440
916.034	4268
916.146	4268
916.259	4246
916.371	4375
916.483	4367
916.595	4242
916.708	4352
916.82	4337
916.932	4333
917.044	4314
917.156	4337
917.268	4253
917.38	4291
917.491	4284
917.603	4329
917.715	4417
917.826	4428
917.938	4352
918.049	4227
918.161	4375
918.272	4542
918.384	4516
918.495	4405
918.606	4306
918.717	4249
918.828	4363
918.939	4360
919.05	4268
919.161	4348
919.272	4150
919.383	4207
919.494	4428
919.604	4630
919.715	4462
919.826	4348
919.936	4379
920.047	4558
920.157	4459
920.267	4733
920.378	4508
920.488	4500
920.598	4717
920.708	4900
920.818	4736
920.928	4755
921.038	4949
921.148	4923
921.258	4637
921.368	4580
921.477	4459
921.587	4478
921.697	4352
921.806	4535
921.916	4409
922.025	4265
922.134	4325
922.244	4257
922.353	4306
922.462	4188
922.571	4158
922.68	4071
922.789	3960
922.898	3994
923.007	3960
923.116	4055
923.224	4078
923.333	4040
923.442	3949
923.55	3949
923.659	4059
923.767	4097
923.876	3994
923.984	4131
924.092	4006
924.201	4040
924.309	4086
924.417	4135
924.525	4082
924.633	4105
924.741	5048
924.849	3930
924.956	4093
925.064	3941
925.172	3922
925.279	3991
925.387	4010
925.494	4067
925.602	4238
925.709	4215
925.816	4090
925.924	4147
926.031	4207
926.138	4177
926.245	4181
926.352	4112
926.459	4234
926.566	4280
926.673	4154
926.779	4044
926.886	4067
926.993	3949
927.099	3941
927.206	3964
927.312	3934
927.419	4040
927.525	4059
927.631	4109
927.737	3956
927.843	3915
927.95	3896
928.056	3918
928.162	4013
928.267	4063
928.373	4611
928.479	4105
928.585	3869
928.69	3987
928.796	4116
928.901	3983
929.007	3857
929.112	3941
929.218	3926
929.323	3949
929.428	3937
929.533	4147
929.638	3907
929.743	3926
929.848	4063
929.953	4006
930.058	3937
930.163	3774
930.267	3854
930.372	3972
930.477	3804
930.581	4120
930.685	3915
930.79	3854
930.894	3899
930.998	3835
931.103	4051
931.207	3728
931.311	3663
931.415	3622
931.519	3507
931.623	3568
