Data from test_V78500241_1702.txt Node
Date: Fri Mar 25 17:00:50 CST 2022
User: usil
Spectrometer: V785-0024
Trigger mode: 0
Integration Time (sec): 4.000000E-1
Scans to average: 1
Nonlinearity correction enabled: false
Boxcar width: 0
Storing dark spectrum: false
XAxis mode: Wavelengths
Number of Pixels in Spectrum: 1024
>>>>>Begin Spectral Data<<<<<
801.071	7967
801.214	8039
801.356	7925
801.499	7856
801.641	7795
801.783	7780
801.926	7944
802.068	7887
802.211	7932
802.353	7970
802.496	7890
802.638	7894
802.78	7864
802.923	7909
803.065	7856
803.208	7830
803.35	7947
803.492	8065
803.635	8103
803.777	8058
803.919	8157
804.061	8465
804.204	8142
804.346	8031
804.488	7917
804.63	8145
804.773	7951
804.915	8157
805.057	8290
805.199	8134
805.341	8221
805.483	8221
805.626	8168
805.768	8073
805.91	8210
806.052	8214
806.194	8164
806.336	8263
806.478	8096
806.62	8054
806.762	8168
806.904	8358
807.046	8480
807.188	8313
807.33	8286
807.472	8286
807.614	8168
807.756	8123
807.898	8008
808.04	7879
808.182	7841
808.324	7890
808.465	7814
808.607	8062
808.749	8130
808.891	8157
809.033	8252
809.174	8168
809.316	8081
809.458	8065
809.6	8020
809.741	8081
809.883	7989
810.025	8123
810.166	8096
810.308	7993
810.45	7963
810.591	7818
810.733	7723
810.875	7636
811.016	7518
811.158	7460
811.299	7567
811.441	7674
811.582	7681
811.724	7613
811.865	7480
812.007	7563
812.148	7632
812.29	7670
812.431	7757
812.573	7856
812.714	7997
812.855	8180
812.997	8240
813.138	8366
813.279	8191
813.421	8024
813.562	8035
813.703	7826
813.845	7746
813.986	7407
814.127	7209
814.268	7221
814.41	7190
814.551	7156
814.692	7164
814.833	7091
814.974	7099
815.115	7187
815.256	6958
815.397	6939
815.539	6901
815.68	6837
815.821	6798
815.962	6867
816.103	6821
816.244	6719
816.385	6563
816.526	6604
816.666	6540
816.807	6300
816.948	6407
817.089	6490
817.23	6467
817.371	6338
817.512	6380
817.653	6391
817.793	6357
817.934	6391
818.075	6479
818.216	6426
818.356	6437
818.497	6270
818.638	6125
818.778	6095
818.919	6121
819.06	6114
819.2	6300
819.341	6342
819.481	6319
819.622	6547
819.762	6795
819.903	6700
820.043	6654
820.184	6566
820.324	6593
820.465	6681
820.605	6642
820.746	6604
820.886	6517
821.026	6669
821.167	6635
821.307	6791
821.447	6818
821.588	6700
821.728	6544
821.868	6490
822.008	6323
822.149	6369
822.289	6350
822.429	6144
822.569	6072
822.709	6106
822.849	5939
822.99	5912
823.13	5832
823.27	5935
823.41	5729
823.55	5764
823.69	5733
823.83	5824
823.97	5657
824.11	5486
824.25	5535
824.389	5486
824.529	5573
824.669	5512
824.809	5562
824.949	5642
825.089	5585
825.228	5497
825.368	5391
825.508	5345
825.648	5379
825.787	5417
825.927	5410
826.067	5231
826.206	5311
826.346	5406
826.485	5417
826.625	5379
826.765	5566
826.904	5471
827.044	5246
827.183	5189
827.323	5151
827.462	5193
827.601	5109
827.741	5159
827.88	5174
828.02	5079
828.159	5265
828.298	5311
828.437	5334
828.577	5265
828.716	5463
828.855	5349
828.994	5140
829.134	5193
829.273	5220
829.412	5151
829.551	5140
829.69	5166
829.829	5288
829.968	5376
830.107	5242
830.246	5269
830.385	5181
830.524	5128
830.663	5037
830.802	5022
830.941	4881
831.08	4866
831.219	4965
831.357	4987
831.496	5143
831.635	4927
831.774	4812
831.913	4881
832.051	4710
832.19	4698
832.329	4900
832.467	4691
832.606	4611
832.744	4714
832.883	4710
833.022	4694
833.16	4786
833.299	4816
833.437	4831
833.576	4862
833.714	4850
833.852	4885
833.991	4858
834.129	4987
834.267	4949
834.406	4900
834.544	4999
834.682	4961
834.821	4946
834.959	5151
835.097	5022
835.235	5140
835.373	5109
835.511	5109
835.65	5018
835.788	5006
835.926	4896
836.064	4873
836.202	4889
836.34	5201
836.478	5223
836.615	5132
836.753	5151
836.891	5284
837.029	5258
837.167	5227
837.305	5193
837.443	5109
837.58	5075
837.718	5254
837.856	5212
837.993	5117
838.131	5170
838.269	5227
838.406	5201
838.544	5162
838.681	4972
838.819	4976
838.956	4919
839.094	4889
839.231	4999
839.369	5045
839.506	5391
839.643	5296
839.781	5071
839.918	5010
840.055	5094
840.193	5105
840.33	5067
840.467	5143
840.604	5178
840.742	5387
840.879	5060
841.016	5102
841.153	5216
841.29	5326
841.427	5349
841.564	5292
841.701	5337
841.838	5258
841.975	5235
842.112	5250
842.249	5151
842.385	5045
842.522	5315
842.659	5121
842.796	5102
842.933	5193
843.069	5113
843.206	5204
843.343	5345
843.479	5216
843.616	5269
843.752	4991
843.889	4995
844.025	5193
844.162	4999
844.298	5239
844.435	5075
844.571	5025
844.708	5178
844.844	5246
844.98	5311
845.117	5307
845.253	5162
845.389	5014
845.525	5121
845.661	5136
845.798	5010
845.934	5185
846.07	5025
846.206	5159
846.342	5280
846.478	5197
846.614	5003
846.75	4980
846.886	4934
847.022	5094
847.158	5041
847.294	5037
847.429	5067
847.565	5048
847.701	5311
847.837	4843
847.972	4767
848.108	4949
848.244	4904
848.379	4782
848.515	4755
848.65	4744
848.786	4714
848.921	4759
849.057	4866
849.192	4854
849.328	4786
849.463	4812
849.598	4733
849.734	4763
849.869	4687
850.004	4653
850.14	4645
850.275	4592
850.41	4577
850.545	4493
850.68	4622
850.815	4641
850.95	4588
851.085	4820
851.22	4744
851.355	4622
851.49	4615
851.625	4641
851.76	4641
851.895	4523
852.03	4531
852.165	4656
852.299	4729
852.434	4755
852.569	4748
852.703	4809
852.838	4839
852.973	4946
853.107	4904
853.242	4748
853.376	4611
853.511	4531
853.645	4607
853.78	4782
853.914	4675
854.048	4622
854.183	4634
854.317	4733
854.451	4816
854.585	4717
854.72	4645
854.854	4763
854.988	4622
855.122	4634
855.256	4558
855.39	4672
855.524	4687
855.658	4763
855.792	4664
855.926	4786
856.06	4733
856.194	4858
856.327	4748
856.461	4626
856.595	4637
856.729	4588
856.862	4782
856.996	4740
857.13	4721
857.263	4759
857.397	4824
857.53	4664
857.664	4694
857.797	4725
857.931	4778
858.064	4683
858.197	4721
858.331	4637
858.464	4603
858.597	4531
858.731	4645
858.864	4626
858.997	4580
859.13	4687
859.263	4668
859.396	4660
859.529	4531
859.662	4569
859.795	4516
859.928	4569
860.061	4824
860.194	4740
860.327	4577
860.46	4550
860.592	4679
860.725	4748
860.858	4710
860.99	4565
861.123	4538
861.256	4569
861.388	4588
861.521	5212
861.653	4504
861.786	4402
861.918	4481
862.05	4554
862.183	4531
862.315	4584
862.447	4672
862.58	4580
862.712	4383
862.844	4337
862.976	4493
863.108	4470
863.24	4900
863.372	4322
863.504	4447
863.636	4394
863.768	4493
863.9	4436
864.032	4360
864.164	4367
864.296	4489
864.428	4504
864.559	4584
864.691	4508
864.823	4489
864.954	4470
865.086	4535
865.217	4485
865.349	4421
865.48	4489
865.612	4500
865.743	4615
865.875	4386
866.006	4432
866.137	4440
866.269	4405
866.4	4428
866.531	4390
866.662	4402
866.793	4375
866.924	4417
867.055	4447
867.186	4447
867.317	4413
867.448	4379
867.579	4375
867.71	4367
867.841	4348
867.972	4421
868.103	4455
868.233	4470
868.364	4424
868.495	4504
868.625	4698
868.756	4702
868.886	4519
869.017	4584
869.147	4759
869.278	4767
869.408	4679
869.539	4683
869.669	4736
869.799	4679
869.929	4725
870.06	4706
870.19	4934
870.32	4904
870.45	4892
870.58	5010
870.71	5048
870.84	5075
870.97	4904
871.1	4885
871.23	5056
871.36	5121
871.489	5014
871.619	5098
871.749	5083
871.879	5128
872.008	5189
872.138	5037
872.267	4987
872.397	4824
872.526	4778
872.656	4755
872.785	4740
872.915	4938
873.044	5022
873.173	4957
873.303	4942
873.432	4972
873.561	4946
873.69	4854
873.819	4812
873.948	4873
874.077	4771
874.206	4691
874.335	4786
874.464	4946
874.593	5075
874.722	4904
874.851	5105
874.979	5064
875.108	4980
875.237	4915
875.365	4900
875.494	4900
875.623	4976
875.751	4812
875.88	4866
876.008	4965
876.136	5041
876.265	5216
876.393	5322
876.521	5185
876.65	5185
876.778	5178
876.906	5064
877.034	5018
877.162	4987
877.29	4946
877.418	5071
877.546	5033
877.674	4980
877.802	4999
877.93	5033
878.058	4934
878.185	4896
878.313	5006
878.441	4923
878.568	4828
878.696	4919
878.824	4934
878.951	4991
879.079	5045
879.206	5254
879.333	5079
879.461	5022
879.588	4987
879.715	5113
879.842	5258
879.97	5048
880.097	4816
880.224	4767
880.351	4778
880.478	4744
880.605	4774
880.732	4801
880.859	5064
880.986	4862
881.112	4904
881.239	4801
881.366	4691
881.493	4550
881.619	4577
881.746	4649
881.872	4622
881.999	4626
882.125	4691
882.252	4755
882.378	4816
882.505	4965
882.631	4881
882.757	4611
882.883	4714
883.01	4752
883.136	4694
883.262	4611
883.388	4615
883.514	4877
883.64	4824
883.766	4790
883.892	4656
884.018	4763
884.143	4858
884.269	4995
884.395	4748
884.52	4622
884.646	4653
884.772	4569
884.897	4546
885.023	4630
885.148	4763
885.274	4870
885.399	4793
885.524	4721
885.65	4725
885.775	4759
885.9	4675
886.025	4835
886.15	4790
886.275	4714
886.4	4630
886.525	4714
886.65	4683
886.775	4744
886.9	4908
887.025	5045
887.149	4812
887.274	4675
887.399	4577
887.523	4546
887.648	4588
887.773	4573
887.897	4778
888.021	4748
888.146	4706
888.27	4831
888.395	4896
888.519	4843
888.643	4778
888.767	4839
888.891	4694
889.015	4565
889.139	4637
889.263	4630
889.387	4752
889.511	4904
889.635	4736
889.759	4630
889.883	4641
890.006	4714
890.13	4820
890.254	4664
890.377	4672
890.501	4523
890.624	4500
890.748	4596
890.871	4497
890.995	4375
891.118	4386
891.241	4470
891.364	4481
891.488	4596
891.611	4470
891.734	4535
891.857	4603
891.98	4519
892.103	4618
892.226	4596
892.349	4512
892.471	4443
892.594	4531
892.717	4573
892.839	4554
892.962	4618
893.085	4698
893.207	4615
893.33	4432
893.452	4538
893.575	4729
893.697	4592
893.819	4812
893.941	4873
894.064	4774
894.186	4607
894.308	4550
894.43	4755
894.552	4812
894.674	4710
894.796	4542
894.918	4588
895.04	4588
895.161	4721
895.283	4634
895.405	4558
895.526	4664
895.648	4691
895.769	4736
895.891	4694
896.012	4725
896.134	4706
896.255	4599
896.376	4672
896.498	4607
896.619	4687
896.74	4569
896.861	4668
896.982	4942
897.103	5060
897.224	4835
897.345	4729
897.466	4656
897.587	4782
897.708	4843
897.828	4778
897.949	4672
898.07	4550
898.19	4622
898.311	4812
898.431	4660
898.552	4759
898.672	4820
898.792	4759
898.913	4782
899.033	4645
899.153	4485
899.273	4447
899.393	4478
899.513	4519
899.633	4508
899.753	4538
899.873	4504
899.993	4550
900.113	4508
900.232	4588
900.352	4531
900.472	4481
900.591	4375
900.711	4462
900.83	4443
900.95	4611
901.069	4634
901.189	4519
901.308	4360
901.427	4299
901.546	4322
901.665	4455
901.784	4546
901.904	4386
902.023	4314
902.141	4192
902.26	4147
902.379	4325
902.498	4295
902.617	4207
902.735	4371
902.854	4386
902.973	4318
903.091	4196
903.21	4211
903.328	4295
903.446	4268
903.565	4276
903.683	4390
903.801	4291
903.919	4394
904.038	4440
904.156	4310
904.274	4535
904.392	4371
904.51	4409
904.627	4519
904.745	4554
904.863	4599
904.981	4360
905.098	4291
905.216	4356
905.334	4413
905.451	4474
905.569	4413
905.686	4527
905.803	4588
905.921	4413
906.038	4546
906.155	4428
906.272	4451
906.389	4440
906.506	4352
906.623	4363
906.74	4413
906.857	4276
906.974	4348
907.091	4573
907.208	4725
907.324	4550
907.441	4485
907.557	4284
907.674	4329
907.79	4325
907.907	4375
908.023	4493
908.139	4443
908.256	4432
908.372	4428
908.488	4432
908.604	4333
908.72	4322
908.836	4348
908.952	4375
909.068	4413
909.184	4569
909.3	4428
909.415	4630
909.531	4550
909.647	4344
909.762	4344
909.878	4348
909.993	4386
910.108	4443
910.224	4409
910.339	4455
910.454	4440
910.57	4375
910.685	4287
910.8	4653
910.915	4637
911.03	4493
911.145	4310
911.259	4303
911.374	4363
911.489	4265
911.604	4318
911.718	4158
911.833	4192
911.947	4097
912.062	4013
912.176	4204
912.291	4246
912.405	4253
912.519	4485
912.633	4478
912.748	4352
912.862	4257
912.976	4196
913.09	4093
913.204	4158
913.318	4211
913.431	4337
913.545	4367
913.659	4421
913.772	4367
913.886	4242
914	4204
914.113	4356
914.226	4413
914.34	4383
914.453	4230
914.566	4428
914.68	4306
914.793	4310
914.906	4162
915.019	4112
915.132	4082
915.245	4158
915.358	4253
915.47	4223
915.583	4227
915.696	4295
915.809	4371
915.921	4367
916.034	4276
916.146	4227
916.259	4246
916.371	4329
916.483	4333
916.595	4238
916.708	4356
916.82	4306
916.932	4341
917.044	4322
917.156	4322
917.268	4188
917.38	4265
917.491	4253
917.603	4348
917.715	4379
917.826	4443
917.938	4371
918.049	4261
918.161	4390
918.272	4531
918.384	4470
918.495	4413
918.606	4291
918.717	4192
918.828	4348
918.939	4363
919.05	4249
919.161	4299
919.272	4131
919.383	4238
919.494	4455
919.604	4611
919.715	4409
919.826	4306
919.936	4348
920.047	4500
920.157	4466
920.267	4698
920.378	4519
920.488	4519
920.598	4710
920.708	4854
920.818	4778
920.928	4694
921.038	4942
921.148	4946
921.258	4599
921.368	4561
921.477	4466
921.587	4459
921.697	4352
921.806	4508
921.916	4394
922.025	4230
922.134	4284
922.244	4249
922.353	4314
922.462	4177
922.571	4131
922.68	4010
922.789	4010
922.898	4025
923.007	3918
923.116	4124
923.224	4082
923.333	4036
923.442	3972
923.55	3972
923.659	4025
923.767	4116
923.876	3987
923.984	4135
924.092	3911
924.201	4074
924.309	4086
924.417	4112
924.525	4055
924.633	4131
924.741	4793
924.849	3915
924.956	4154
925.064	4013
925.172	3892
925.279	3941
925.387	4055
925.494	4071
925.602	4177
925.709	4162
925.816	3991
925.924	4120
926.031	4200
926.138	4143
926.245	4196
926.352	4101
926.459	4249
926.566	4299
926.673	4154
926.779	4044
926.886	4067
926.993	3953
927.099	3964
927.206	3953
927.312	3968
927.419	4044
927.525	4051
927.631	4086
927.737	4002
927.843	3960
927.95	3831
928.056	3975
928.162	4013
928.267	4074
928.373	4679
928.479	4067
928.585	3865
928.69	4002
928.796	4063
928.901	3979
929.007	3808
929.112	4063
929.218	3956
929.323	3937
929.428	3953
929.533	4150
929.638	3907
929.743	3926
929.848	4055
929.953	3979
930.058	3899
930.163	3728
930.267	3778
930.372	3968
930.477	3797
930.581	4082
930.685	3922
930.79	3781
930.894	3854
930.998	3842
931.103	4021
931.207	3713
931.311	3663
931.415	3663
931.519	3507
931.623	3538
