Data from test_V78500241_1068.txt Node
Date: Fri Mar 25 16:56:25 CST 2022
User: usil
Spectrometer: V785-0024
Trigger mode: 0
Integration Time (sec): 4.000000E-1
Scans to average: 1
Nonlinearity correction enabled: false
Boxcar width: 0
Storing dark spectrum: false
XAxis mode: Wavelengths
Number of Pixels in Spectrum: 1024
>>>>>Begin Spectral Data<<<<<
801.071	8126
801.214	8073
801.356	7936
801.499	7894
801.641	7807
801.783	7822
801.926	7963
802.068	7951
802.211	7959
802.353	7970
802.496	7761
802.638	7894
802.78	7883
802.923	8001
803.065	7887
803.208	7944
803.35	8005
803.492	8069
803.635	8149
803.777	8054
803.919	8161
804.061	8446
804.204	8062
804.346	8084
804.488	7993
804.63	8142
804.773	8035
804.915	8065
805.057	8229
805.199	8149
805.341	8244
805.483	8206
805.626	8145
805.768	8157
805.91	8210
806.052	8176
806.194	8126
806.336	8324
806.478	8111
806.62	8084
806.762	8195
806.904	8282
807.046	8434
807.188	8271
807.33	8271
807.472	8301
807.614	8081
807.756	8123
807.898	8039
808.04	7921
808.182	7921
808.324	7906
808.465	7883
808.607	8111
808.749	8100
808.891	8172
809.033	8339
809.174	8164
809.316	8046
809.458	8119
809.6	7963
809.741	8088
809.883	8031
810.025	8073
810.166	8046
810.308	7970
810.45	7974
810.591	7864
810.733	7746
810.875	7685
811.016	7510
811.158	7472
811.299	7594
811.441	7704
811.582	7658
811.724	7586
811.865	7460
812.007	7594
812.148	7605
812.29	7727
812.431	7708
812.573	7917
812.714	7955
812.855	8153
812.997	8225
813.138	8370
813.279	8263
813.421	8088
813.562	8031
813.703	7906
813.845	7727
813.986	7415
814.127	7289
814.268	7240
814.41	7198
814.551	7152
814.692	7160
814.833	7061
814.974	7076
815.115	7103
815.256	6958
815.397	6920
815.539	6935
815.68	6787
815.821	6802
815.962	6894
816.103	6825
816.244	6734
816.385	6673
816.526	6578
816.666	6483
816.807	6334
816.948	6422
817.089	6467
817.23	6456
817.371	6388
817.512	6422
817.653	6372
817.793	6380
817.934	6433
818.075	6483
818.216	6399
818.356	6422
818.497	6239
818.638	6163
818.778	6209
818.919	6125
819.06	6159
819.2	6350
819.341	6334
819.481	6369
819.622	6521
819.762	6734
819.903	6738
820.043	6593
820.184	6616
820.324	6612
820.465	6662
820.605	6696
820.746	6650
820.886	6471
821.026	6677
821.167	6684
821.307	6821
821.447	6795
821.588	6684
821.728	6551
821.868	6490
822.008	6350
822.149	6353
822.289	6315
822.429	6178
822.569	6136
822.709	6121
822.849	5882
822.99	5923
823.13	5939
823.27	5939
823.41	5805
823.55	5840
823.69	5733
823.83	5798
823.97	5627
824.11	5570
824.25	5490
824.389	5566
824.529	5539
824.669	5520
824.809	5611
824.949	5646
825.089	5657
825.228	5505
825.368	5395
825.508	5364
825.648	5341
825.787	5383
825.927	5353
826.067	5337
826.206	5261
826.346	5387
826.485	5455
826.625	5395
826.765	5528
826.904	5425
827.044	5280
827.183	5174
827.323	5166
827.462	5227
827.601	5174
827.741	5216
827.88	5193
828.02	5143
828.159	5246
828.298	5326
828.437	5334
828.577	5239
828.716	5467
828.855	5357
828.994	5193
829.134	5155
829.273	5212
829.412	5102
829.551	5064
829.69	5143
829.829	5216
829.968	5311
830.107	5280
830.246	5269
830.385	5155
830.524	5113
830.663	5018
830.802	4991
830.941	4870
831.08	4885
831.219	5003
831.357	4946
831.496	5174
831.635	4904
831.774	4831
831.913	4866
832.051	4721
832.19	4729
832.329	4839
832.467	4721
832.606	4622
832.744	4698
832.883	4683
833.022	4702
833.16	4812
833.299	4850
833.437	4839
833.576	4877
833.714	4858
833.852	4870
833.991	4873
834.129	4946
834.267	4919
834.406	4904
834.544	4953
834.682	4965
834.821	4968
834.959	5121
835.097	4957
835.235	5102
835.373	5079
835.511	5067
835.65	5045
835.788	5025
835.926	4942
836.064	4889
836.202	4904
836.34	5178
836.478	5220
836.615	5143
836.753	5197
836.891	5277
837.029	5261
837.167	5204
837.305	5155
837.443	5151
837.58	5056
837.718	5261
837.856	5143
837.993	5147
838.131	5193
838.269	5239
838.406	5193
838.544	5170
838.681	4980
838.819	4987
838.956	4911
839.094	4908
839.231	5025
839.369	4999
839.506	5433
839.643	5261
839.781	4976
839.918	5022
840.055	5086
840.193	5094
840.33	5124
840.467	5170
840.604	5212
840.742	5436
840.879	5086
841.016	5090
841.153	5113
841.29	5372
841.427	5372
841.564	5322
841.701	5318
841.838	5269
841.975	5265
842.112	5303
842.249	5098
842.385	5060
842.522	5364
842.659	5212
842.796	5181
842.933	5235
843.069	5151
843.206	5098
843.343	5345
843.479	5223
843.616	5288
843.752	5033
843.889	5060
844.025	5204
844.162	5010
844.298	5159
844.435	5094
844.571	5060
844.708	5185
844.844	5269
844.98	5353
845.117	5326
845.253	5155
845.389	5041
845.525	5155
845.661	5117
845.798	5067
845.934	5143
846.07	5060
846.206	5197
846.342	5246
846.478	5181
846.614	5029
846.75	4965
846.886	4911
847.022	5162
847.158	4972
847.294	5052
847.429	5121
847.565	5048
847.701	5326
847.837	4824
847.972	4835
848.108	4938
848.244	4984
848.379	4725
848.515	4733
848.65	4740
848.786	4698
848.921	4748
849.057	4881
849.192	4858
849.328	4805
849.463	4862
849.598	4778
849.734	4771
849.869	4675
850.004	4550
850.14	4649
850.275	4615
850.41	4516
850.545	4577
850.68	4645
850.815	4615
850.95	4626
851.085	4778
851.22	4698
851.355	4622
851.49	4618
851.625	4588
851.76	4668
851.895	4580
852.03	4527
852.165	4649
852.299	4714
852.434	4812
852.569	4740
852.703	4752
852.838	4809
852.973	4877
853.107	4923
853.242	4687
853.376	4687
853.511	4542
853.645	4622
853.78	4801
853.914	4637
854.048	4675
854.183	4607
854.317	4748
854.451	4862
854.585	4653
854.72	4626
854.854	4752
854.988	4603
855.122	4618
855.256	4538
855.39	4550
855.524	4755
855.658	4729
855.792	4725
855.926	4691
856.06	4771
856.194	4763
856.327	4710
856.461	4645
856.595	4615
856.729	4626
856.862	4740
856.996	4656
857.13	4683
857.263	4763
857.397	4759
857.53	4634
857.664	4744
857.797	4694
857.931	4767
858.064	4649
858.197	4725
858.331	4683
858.464	4588
858.597	4481
858.731	4618
858.864	4641
858.997	4554
859.13	4615
859.263	4653
859.396	4698
859.529	4599
859.662	4626
859.795	4561
859.928	4645
860.061	4752
860.194	4729
860.327	4611
860.46	4542
860.592	4660
860.725	4691
860.858	4714
860.99	4554
861.123	4493
861.256	4508
861.388	4584
861.521	5250
861.653	4504
861.786	4413
861.918	4485
862.05	4489
862.183	4550
862.315	4611
862.447	4611
862.58	4550
862.712	4394
862.844	4322
862.976	4504
863.108	4432
863.24	4873
863.372	4360
863.504	4428
863.636	4413
863.768	4485
863.9	4398
864.032	4344
864.164	4432
864.296	4455
864.428	4542
864.559	4554
864.691	4531
864.823	4466
864.954	4542
865.086	4500
865.217	4493
865.349	4405
865.48	4455
865.612	4489
865.743	4618
865.875	4462
866.006	4451
866.137	4421
866.269	4432
866.4	4394
866.531	4462
866.662	4383
866.793	4375
866.924	4375
867.055	4489
867.186	4470
867.317	4398
867.448	4383
867.579	4424
867.71	4398
867.841	4337
867.972	4443
868.103	4451
868.233	4394
868.364	4405
868.495	4470
868.625	4679
868.756	4736
868.886	4538
869.017	4630
869.147	4782
869.278	4824
869.408	4603
869.539	4653
869.669	4664
869.799	4664
869.929	4774
870.06	4729
870.19	4927
870.32	4904
870.45	4904
870.58	5014
870.71	5041
870.84	5102
870.97	4896
871.1	4877
871.23	5056
871.36	5056
871.489	4976
871.619	5086
871.749	5067
871.879	5136
872.008	5208
872.138	5045
872.267	4976
872.397	4873
872.526	4839
872.656	4725
872.785	4835
872.915	4949
873.044	5018
873.173	4904
873.303	4953
873.432	4930
873.561	4923
873.69	4862
873.819	4896
873.948	4934
874.077	4790
874.206	4706
874.335	4828
874.464	4908
874.593	5018
874.722	4938
874.851	5056
874.979	5048
875.108	5029
875.237	4919
875.365	4847
875.494	4873
875.623	4968
875.751	4801
875.88	4873
876.008	4980
876.136	5003
876.265	5155
876.393	5296
876.521	5197
876.65	5246
876.778	5140
876.906	5121
877.034	5033
877.162	5060
877.29	4972
877.418	5037
877.546	5018
877.674	5022
877.802	5033
877.93	5014
878.058	4900
878.185	4816
878.313	4911
878.441	4923
878.568	4748
878.696	4843
878.824	4930
878.951	4938
879.079	5128
879.206	5280
879.333	5086
879.461	4938
879.588	4976
879.715	5056
879.842	5159
879.97	5006
880.097	4809
880.224	4763
880.351	4736
880.478	4809
880.605	4725
880.732	4763
880.859	5075
880.986	4824
881.112	4904
881.239	4752
881.366	4599
881.493	4603
881.619	4618
881.746	4607
881.872	4622
881.999	4622
882.125	4733
882.252	4759
882.378	4812
882.505	4957
882.631	4793
882.757	4668
882.883	4729
883.01	4744
883.136	4683
883.262	4596
883.388	4641
883.514	4828
883.64	4824
883.766	4786
883.892	4641
884.018	4759
884.143	4854
884.269	4991
884.395	4691
884.52	4653
884.646	4607
884.772	4538
884.897	4565
885.023	4607
885.148	4771
885.274	4866
885.399	4820
885.524	4736
885.65	4664
885.775	4744
885.9	4683
886.025	4854
886.15	4786
886.275	4679
886.4	4668
886.525	4710
886.65	4706
886.775	4702
886.9	4896
887.025	5025
887.149	4790
887.274	4622
887.399	4569
887.523	4603
887.648	4558
887.773	4542
887.897	4801
888.021	4786
888.146	4672
888.27	4805
888.395	4885
888.519	4767
888.643	4797
888.767	4755
888.891	4668
889.015	4577
889.139	4607
889.263	4569
889.387	4721
889.511	4877
889.635	4725
889.759	4656
889.883	4622
890.006	4725
890.13	4771
890.254	4607
890.377	4675
890.501	4519
890.624	4508
890.748	4615
890.871	4512
890.995	4436
891.118	4398
891.241	4531
891.364	4485
891.488	4687
891.611	4485
891.734	4558
891.857	4618
891.98	4554
892.103	4622
892.226	4603
892.349	4508
892.471	4443
892.594	4500
892.717	4584
892.839	4550
892.962	4630
893.085	4679
893.207	4592
893.33	4497
893.452	4516
893.575	4622
893.697	4558
893.819	4805
893.941	4831
894.064	4729
894.186	4538
894.308	4584
894.43	4698
894.552	4828
894.674	4740
894.796	4569
894.918	4550
895.04	4531
895.161	4706
895.283	4675
895.405	4618
895.526	4622
895.648	4679
895.769	4637
895.891	4706
896.012	4759
896.134	4706
896.255	4645
896.376	4615
896.498	4664
896.619	4721
896.74	4607
896.861	4645
896.982	4927
897.103	5041
897.224	4809
897.345	4771
897.466	4664
897.587	4687
897.708	4873
897.828	4797
897.949	4626
898.07	4573
898.19	4611
898.311	4812
898.431	4672
898.552	4721
898.672	4767
898.792	4771
898.913	4774
899.033	4588
899.153	4523
899.273	4413
899.393	4474
899.513	4512
899.633	4504
899.753	4550
899.873	4554
899.993	4569
900.113	4569
900.232	4607
900.352	4531
900.472	4497
900.591	4459
900.711	4455
900.83	4409
900.95	4615
901.069	4725
901.189	4474
901.308	4352
901.427	4291
901.546	4367
901.665	4489
901.784	4497
901.904	4352
902.023	4314
902.141	4181
902.26	4196
902.379	4268
902.498	4188
902.617	4207
902.735	4356
902.854	4409
902.973	4383
903.091	4215
903.21	4227
903.328	4310
903.446	4257
903.565	4272
903.683	4424
903.801	4287
903.919	4402
904.038	4440
904.156	4314
904.274	4421
904.392	4333
904.51	4459
904.627	4428
904.745	4573
904.863	4630
904.981	4405
905.098	4348
905.216	4379
905.334	4363
905.451	4428
905.569	4466
905.686	4542
905.803	4561
905.921	4405
906.038	4546
906.155	4470
906.272	4363
906.389	4432
906.506	4356
906.623	4379
906.74	4402
906.857	4299
906.974	4344
907.091	4615
907.208	4668
907.324	4577
907.441	4440
907.557	4383
907.674	4303
907.79	4306
907.907	4371
908.023	4500
908.139	4497
908.256	4402
908.372	4451
908.488	4436
908.604	4344
908.72	4333
908.836	4383
908.952	4360
909.068	4436
909.184	4535
909.3	4504
909.415	4546
909.531	4550
909.647	4310
909.762	4352
909.878	4325
909.993	4428
910.108	4398
910.224	4417
910.339	4489
910.454	4363
910.57	4360
910.685	4314
910.8	4569
910.915	4592
911.03	4481
911.145	4303
911.259	4325
911.374	4341
911.489	4325
911.604	4306
911.718	4147
911.833	4196
911.947	4071
912.062	4051
912.176	4169
912.291	4211
912.405	4261
912.519	4436
912.633	4500
912.748	4398
912.862	4303
912.976	4177
913.09	4124
913.204	4135
913.318	4246
913.431	4356
913.545	4341
913.659	4421
913.772	4348
913.886	4253
914	4181
914.113	4398
914.226	4413
914.34	4375
914.453	4211
914.566	4462
914.68	4299
914.793	4295
914.906	4135
915.019	4093
915.132	4063
915.245	4143
915.358	4181
915.47	4238
915.583	4238
915.696	4299
915.809	4360
915.921	4375
916.034	4204
916.146	4253
916.259	4169
916.371	4318
916.483	4352
916.595	4196
916.708	4333
916.82	4363
916.932	4341
917.044	4291
917.156	4341
917.268	4249
917.38	4291
917.491	4227
917.603	4348
917.715	4413
917.826	4462
917.938	4379
918.049	4234
918.161	4386
918.272	4512
918.384	4546
918.495	4436
918.606	4276
918.717	4265
918.828	4314
918.939	4344
919.05	4177
919.161	4261
919.272	4135
919.383	4234
919.494	4398
919.604	4687
919.715	4440
919.826	4356
919.936	4379
920.047	4565
920.157	4462
920.267	4645
920.378	4489
920.488	4443
920.598	4694
920.708	4858
920.818	4774
920.928	4725
921.038	4972
921.148	4949
921.258	4634
921.368	4558
921.477	4451
921.587	4447
921.697	4405
921.806	4516
921.916	4432
922.025	4238
922.134	4287
922.244	4215
922.353	4314
922.462	4173
922.571	4131
922.68	4013
922.789	3926
922.898	4040
923.007	4002
923.116	4067
923.224	4048
923.333	4078
923.442	3994
923.55	3953
923.659	4013
923.767	4059
923.876	3972
923.984	4128
924.092	3994
924.201	4082
924.309	4093
924.417	4074
924.525	4067
924.633	4082
924.741	5052
924.849	3903
924.956	4131
925.064	3968
925.172	3949
925.279	3949
925.387	4086
925.494	4071
925.602	4227
925.709	4177
925.816	3998
925.924	4131
926.031	4234
926.138	4169
926.245	4177
926.352	4105
926.459	4219
926.566	4299
926.673	4166
926.779	4063
926.886	4082
926.993	3956
927.099	3964
927.206	3934
927.312	3918
927.419	4059
927.525	4032
927.631	4105
927.737	3941
927.843	3896
927.95	3854
928.056	3937
928.162	3983
928.267	4067
928.373	4683
928.479	4120
928.585	3823
928.69	3987
928.796	4071
928.901	3949
929.007	3865
929.112	3983
929.218	3979
929.323	3911
929.428	3930
929.533	4093
929.638	3907
929.743	3987
929.848	4013
929.953	3972
930.058	3918
930.163	3770
930.267	3861
930.372	3960
930.477	3778
930.581	4090
930.685	3975
930.79	3827
930.894	3850
930.998	3857
931.103	4032
931.207	3709
931.311	3709
931.415	3663
931.519	3534
931.623	3572
