Data from test_V78500241_2751.txt Node
Date: Fri Mar 25 17:08:07 CST 2022
User: usil
Spectrometer: V785-0024
Trigger mode: 0
Integration Time (sec): 4.000000E-1
Scans to average: 1
Nonlinearity correction enabled: false
Boxcar width: 0
Storing dark spectrum: false
XAxis mode: Wavelengths
Number of Pixels in Spectrum: 1024
>>>>>Begin Spectral Data<<<<<
801.071	7989
801.214	7993
801.356	7947
801.499	7925
801.641	7811
801.783	7780
801.926	8005
802.068	7993
802.211	8012
802.353	8008
802.496	7841
802.638	7921
802.78	7921
802.923	7955
803.065	7799
803.208	7951
803.35	7970
803.492	8058
803.635	8286
803.777	8065
803.919	8153
804.061	8465
804.204	8183
804.346	8073
804.488	7982
804.63	8103
804.773	8039
804.915	8103
805.057	8275
805.199	8119
805.341	8176
805.483	8244
805.626	8233
805.768	8134
805.91	8180
806.052	8263
806.194	8153
806.336	8332
806.478	8111
806.62	8058
806.762	8130
806.904	8225
807.046	8423
807.188	8309
807.33	8336
807.472	8332
807.614	8130
807.756	8161
807.898	7974
808.04	7898
808.182	7913
808.324	7883
808.465	7921
808.607	8107
808.749	8130
808.891	8237
809.033	8324
809.174	8248
809.316	8069
809.458	8115
809.6	8012
809.741	8058
809.883	7986
810.025	8153
810.166	8077
810.308	7982
810.45	8103
810.591	7906
810.733	7776
810.875	7704
811.016	7544
811.158	7525
811.299	7594
811.441	7734
811.582	7750
811.724	7632
811.865	7563
812.007	7605
812.148	7491
812.29	7636
812.431	7765
812.573	7887
812.714	7982
812.855	8195
812.997	8286
813.138	8267
813.279	8263
813.421	8134
813.562	8092
813.703	7902
813.845	7753
813.986	7449
814.127	7259
814.268	7190
814.41	7171
814.551	7164
814.692	7190
814.833	7076
814.974	7095
815.115	7069
815.256	7000
815.397	6913
815.539	6970
815.68	6791
815.821	6764
815.962	6890
816.103	6814
816.244	6753
816.385	6597
816.526	6658
816.666	6479
816.807	6296
816.948	6422
817.089	6467
817.23	6441
817.371	6395
817.512	6361
817.653	6410
817.793	6315
817.934	6441
818.075	6475
818.216	6456
818.356	6380
818.497	6300
818.638	6152
818.778	6079
818.919	6216
819.06	6254
819.2	6315
819.341	6327
819.481	6384
819.622	6460
819.762	6738
819.903	6703
820.043	6525
820.184	6585
820.324	6604
820.465	6734
820.605	6688
820.746	6582
820.886	6559
821.026	6684
821.167	6692
821.307	6798
821.447	6730
821.588	6658
821.728	6604
821.868	6479
822.008	6281
822.149	6388
822.289	6376
822.429	6178
822.569	6102
822.709	6121
822.849	5965
822.99	5889
823.13	5923
823.27	5946
823.41	5767
823.55	5817
823.69	5756
823.83	5775
823.97	5668
824.11	5512
824.25	5543
824.389	5535
824.529	5600
824.669	5558
824.809	5634
824.949	5657
825.089	5596
825.228	5528
825.368	5376
825.508	5349
825.648	5345
825.787	5357
825.927	5379
826.067	5360
826.206	5315
826.346	5387
826.485	5414
826.625	5376
826.765	5532
826.904	5459
827.044	5239
827.183	5201
827.323	5151
827.462	5258
827.601	5124
827.741	5143
827.88	5216
828.02	5105
828.159	5239
828.298	5311
828.437	5337
828.577	5296
828.716	5486
828.855	5318
828.994	5143
829.134	5159
829.273	5193
829.412	5143
829.551	5113
829.69	5208
829.829	5227
829.968	5368
830.107	5242
830.246	5269
830.385	5155
830.524	5102
830.663	5064
830.802	4984
830.941	4915
831.08	4839
831.219	4999
831.357	4984
831.496	5143
831.635	4995
831.774	4835
831.913	4877
832.051	4733
832.19	4733
832.329	4752
832.467	4675
832.606	4672
832.744	4706
832.883	4725
833.022	4725
833.16	4801
833.299	4782
833.437	4847
833.576	4812
833.714	4870
833.852	4854
833.991	4862
834.129	4946
834.267	5025
834.406	4915
834.544	5010
834.682	4900
834.821	4984
834.959	5113
835.097	4995
835.235	5113
835.373	5037
835.511	5079
835.65	5029
835.788	4980
835.926	4889
836.064	4862
836.202	4919
836.34	5159
836.478	5201
836.615	5143
836.753	5250
836.891	5273
837.029	5242
837.167	5197
837.305	5109
837.443	5159
837.58	5098
837.718	5185
837.856	5220
837.993	5140
838.131	5231
838.269	5212
838.406	5201
838.544	5121
838.681	5025
838.819	4999
838.956	4847
839.094	4896
839.231	4972
839.369	5121
839.506	5379
839.643	5261
839.781	5014
839.918	4995
840.055	5098
840.193	5121
840.33	5105
840.467	5136
840.604	5174
840.742	5417
840.879	5094
841.016	5083
841.153	5159
841.29	5353
841.427	5322
841.564	5315
841.701	5315
841.838	5299
841.975	5239
842.112	5208
842.249	5185
842.385	5105
842.522	5303
842.659	5117
842.796	5124
842.933	5208
843.069	5090
843.206	5113
843.343	5315
843.479	5162
843.616	5273
843.752	5006
843.889	4984
844.025	5185
844.162	4980
844.298	5201
844.435	5064
844.571	5045
844.708	5277
844.844	5250
844.98	5334
845.117	5254
845.253	5132
845.389	5086
845.525	5185
845.661	5079
845.798	5060
845.934	5098
846.07	5045
846.206	5201
846.342	5292
846.478	5117
846.614	5033
846.75	4904
846.886	4968
847.022	5170
847.158	4976
847.294	5083
847.429	5132
847.565	5048
847.701	5349
847.837	4805
847.972	4763
848.108	4930
848.244	4923
848.379	4816
848.515	4717
848.65	4721
848.786	4729
848.921	4778
849.057	4900
849.192	4915
849.328	4866
849.463	4904
849.598	4812
849.734	4774
849.869	4748
850.004	4653
850.14	4679
850.275	4615
850.41	4512
850.545	4596
850.68	4618
850.815	4645
850.95	4615
851.085	4847
851.22	4778
851.355	4645
851.49	4668
851.625	4611
851.76	4641
851.895	4592
852.03	4535
852.165	4683
852.299	4698
852.434	4820
852.569	4778
852.703	4816
852.838	4862
852.973	4949
853.107	4930
853.242	4755
853.376	4744
853.511	4596
853.645	4618
853.78	4835
853.914	4744
854.048	4694
854.183	4687
854.317	4717
854.451	4885
854.585	4714
854.72	4660
854.854	4809
854.988	4637
855.122	4710
855.256	4516
855.39	4714
855.524	4820
855.658	4759
855.792	4736
855.926	4771
856.06	4782
856.194	4862
856.327	4733
856.461	4710
856.595	4649
856.729	4656
856.862	4717
856.996	4706
857.13	4752
857.263	4790
857.397	4790
857.53	4694
857.664	4771
857.797	4786
857.931	4824
858.064	4725
858.197	4797
858.331	4725
858.464	4607
858.597	4554
858.731	4668
858.864	4683
858.997	4645
859.13	4710
859.263	4702
859.396	4763
859.529	4603
859.662	4588
859.795	4538
859.928	4664
860.061	4763
860.194	4828
860.327	4683
860.46	4592
860.592	4759
860.725	4706
860.858	4714
860.99	4653
861.123	4565
861.256	4527
861.388	4634
861.521	5311
861.653	4527
861.786	4470
861.918	4504
862.05	4550
862.183	4573
862.315	4641
862.447	4706
862.58	4573
862.712	4489
862.844	4379
862.976	4493
863.108	4447
863.24	4843
863.372	4371
863.504	4398
863.636	4447
863.768	4535
863.9	4478
864.032	4409
864.164	4421
864.296	4535
864.428	4615
864.559	4584
864.691	4546
864.823	4573
864.954	4519
865.086	4554
865.217	4508
865.349	4474
865.48	4455
865.612	4554
865.743	4729
865.875	4470
866.006	4462
866.137	4538
866.269	4489
866.4	4459
866.531	4417
866.662	4474
866.793	4443
866.924	4459
867.055	4504
867.186	4523
867.317	4451
867.448	4432
867.579	4421
867.71	4424
867.841	4402
867.972	4523
868.103	4466
868.233	4470
868.364	4497
868.495	4516
868.625	4634
868.756	4771
868.886	4561
869.017	4637
869.147	4809
869.278	4812
869.408	4706
869.539	4687
869.669	4721
869.799	4714
869.929	4790
870.06	4771
870.19	4991
870.32	4965
870.45	4946
870.58	5033
870.71	5113
870.84	5102
870.97	4984
871.1	4949
871.23	5174
871.36	5159
871.489	5037
871.619	5071
871.749	5117
871.879	5109
872.008	5204
872.138	5132
872.267	4995
872.397	4881
872.526	4816
872.656	4740
872.785	4870
872.915	4923
873.044	5041
873.173	4927
873.303	5033
873.432	5014
873.561	5060
873.69	4881
873.819	4877
873.948	4953
874.077	4835
874.206	4809
874.335	4816
874.464	4923
874.593	5048
874.722	5022
874.851	5166
874.979	5113
875.108	5083
875.237	4968
875.365	4904
875.494	4919
875.623	5006
875.751	4839
875.88	4930
876.008	5018
876.136	5083
876.265	5212
876.393	5410
876.521	5277
876.65	5254
876.778	5227
876.906	5098
877.034	5048
877.162	5083
877.29	5037
877.418	5079
877.546	5098
877.674	5086
877.802	5075
877.93	5037
878.058	4927
878.185	4919
878.313	4942
878.441	4984
878.568	4831
878.696	4892
878.824	4995
878.951	4991
879.079	5098
879.206	5326
879.333	5121
879.461	5045
879.588	5033
879.715	5140
879.842	5189
879.97	5048
880.097	4812
880.224	4820
880.351	4854
880.478	4881
880.605	4824
880.732	4847
880.859	5128
880.986	4908
881.112	4911
881.239	4812
881.366	4668
881.493	4668
881.619	4618
881.746	4668
881.872	4679
881.999	4702
882.125	4698
882.252	4786
882.378	4866
882.505	4953
882.631	4866
882.757	4675
882.883	4736
883.01	4714
883.136	4698
883.262	4622
883.388	4668
883.514	4820
883.64	4877
883.766	4835
883.892	4733
884.018	4793
884.143	4919
884.269	5010
884.395	4691
884.52	4694
884.646	4596
884.772	4592
884.897	4554
885.023	4675
885.148	4774
885.274	4885
885.399	4835
885.524	4778
885.65	4702
885.775	4820
885.9	4706
886.025	4904
886.15	4782
886.275	4748
886.4	4645
886.525	4774
886.65	4694
886.775	4740
886.9	4915
887.025	5018
887.149	4805
887.274	4656
887.399	4630
887.523	4656
887.648	4630
887.773	4626
887.897	4774
888.021	4763
888.146	4714
888.27	4778
888.395	4927
888.519	4812
888.643	4870
888.767	4820
888.891	4694
889.015	4668
889.139	4710
889.263	4653
889.387	4786
889.511	4904
889.635	4843
889.759	4702
889.883	4679
890.006	4729
890.13	4835
890.254	4622
890.377	4649
890.501	4584
890.624	4558
890.748	4634
890.871	4516
890.995	4443
891.118	4440
891.241	4542
891.364	4558
891.488	4679
891.611	4558
891.734	4538
891.857	4641
891.98	4569
892.103	4683
892.226	4645
892.349	4554
892.471	4424
892.594	4546
892.717	4607
892.839	4577
892.962	4618
893.085	4694
893.207	4618
893.33	4512
893.452	4550
893.575	4687
893.697	4607
893.819	4820
893.941	4824
894.064	4816
894.186	4573
894.308	4588
894.43	4714
894.552	4805
894.674	4736
894.796	4561
894.918	4630
895.04	4550
895.161	4702
895.283	4702
895.405	4565
895.526	4668
895.648	4702
895.769	4725
895.891	4755
896.012	4740
896.134	4740
896.255	4710
896.376	4599
896.498	4660
896.619	4691
896.74	4679
896.861	4687
896.982	4976
897.103	5086
897.224	4847
897.345	4740
897.466	4767
897.587	4733
897.708	4908
897.828	4839
897.949	4687
898.07	4580
898.19	4653
898.311	4820
898.431	4645
898.552	4763
898.672	4839
898.792	4847
898.913	4782
899.033	4649
899.153	4565
899.273	4447
899.393	4500
899.513	4542
899.633	4538
899.753	4558
899.873	4535
899.993	4611
900.113	4565
900.232	4615
900.352	4569
900.472	4493
900.591	4424
900.711	4493
900.83	4421
900.95	4649
901.069	4702
901.189	4592
901.308	4417
901.427	4352
901.546	4417
901.665	4519
901.784	4584
901.904	4443
902.023	4314
902.141	4177
902.26	4173
902.379	4322
902.498	4265
902.617	4249
902.735	4344
902.854	4447
902.973	4379
903.091	4181
903.21	4238
903.328	4333
903.446	4284
903.565	4204
903.683	4341
903.801	4246
903.919	4356
904.038	4481
904.156	4341
904.274	4481
904.392	4402
904.51	4432
904.627	4500
904.745	4554
904.863	4687
904.981	4379
905.098	4363
905.216	4329
905.334	4402
905.451	4417
905.569	4432
905.686	4599
905.803	4569
905.921	4398
906.038	4561
906.155	4500
906.272	4398
906.389	4462
906.506	4390
906.623	4417
906.74	4409
906.857	4310
906.974	4383
907.091	4592
907.208	4714
907.324	4603
907.441	4512
907.557	4367
907.674	4341
907.79	4322
907.907	4421
908.023	4500
908.139	4470
908.256	4428
908.372	4493
908.488	4504
908.604	4344
908.72	4344
908.836	4348
908.952	4379
909.068	4421
909.184	4596
909.3	4497
909.415	4656
909.531	4573
909.647	4383
909.762	4367
909.878	4352
909.993	4443
910.108	4386
910.224	4421
910.339	4508
910.454	4440
910.57	4386
910.685	4291
910.8	4675
910.915	4569
911.03	4493
911.145	4405
911.259	4341
911.374	4367
911.489	4299
911.604	4295
911.718	4207
911.833	4242
911.947	4078
912.062	4055
912.176	4196
912.291	4204
912.405	4257
912.519	4493
912.633	4519
912.748	4390
912.862	4348
912.976	4207
913.09	4074
913.204	4200
913.318	4303
913.431	4390
913.545	4402
913.659	4443
913.772	4341
913.886	4234
914	4223
914.113	4405
914.226	4481
914.34	4417
914.453	4234
914.566	4443
914.68	4318
914.793	4303
914.906	4204
915.019	4116
915.132	4105
915.245	4169
915.358	4211
915.47	4238
915.583	4272
915.696	4337
915.809	4447
915.921	4386
916.034	4287
916.146	4242
916.259	4272
916.371	4363
916.483	4356
916.595	4234
916.708	4314
916.82	4322
916.932	4325
917.044	4371
917.156	4337
917.268	4238
917.38	4337
917.491	4291
917.603	4322
917.715	4409
917.826	4405
917.938	4356
918.049	4265
918.161	4432
918.272	4527
918.384	4588
918.495	4470
918.606	4325
918.717	4284
918.828	4329
918.939	4436
919.05	4276
919.161	4390
919.272	4188
919.383	4284
919.494	4470
919.604	4691
919.715	4436
919.826	4409
919.936	4413
920.047	4531
920.157	4508
920.267	4717
920.378	4599
920.488	4527
920.598	4736
920.708	4927
920.818	4744
920.928	4782
921.038	5022
921.148	5003
921.258	4729
921.368	4573
921.477	4588
921.587	4459
921.697	4462
921.806	4592
921.916	4478
922.025	4333
922.134	4325
922.244	4253
922.353	4390
922.462	4207
922.571	4200
922.68	4048
922.789	3994
922.898	4105
923.007	4082
923.116	4135
923.224	4112
923.333	4169
923.442	4013
923.55	4044
923.659	4078
923.767	4154
923.876	4044
923.984	4188
924.092	4021
924.201	4120
924.309	4120
924.417	4181
924.525	4147
924.633	4181
924.741	4885
924.849	3953
924.956	4200
925.064	4010
925.172	3964
925.279	4048
925.387	4097
925.494	4074
925.602	4211
925.709	4257
925.816	4067
925.924	4185
926.031	4265
926.138	4204
926.245	4268
926.352	4154
926.459	4325
926.566	4337
926.673	4188
926.779	4124
926.886	4150
926.993	4002
927.099	3956
927.206	3983
927.312	3972
927.419	4124
927.525	4059
927.631	4147
927.737	4055
927.843	3960
927.95	3888
928.056	4013
928.162	4017
928.267	4090
928.373	4694
928.479	4204
928.585	3926
928.69	4071
928.796	4093
928.901	4013
929.007	3876
929.112	4063
929.218	4002
929.323	4006
929.428	3991
929.533	4143
929.638	3926
929.743	4013
929.848	4093
929.953	4036
930.058	3972
930.163	3789
930.267	3846
930.372	4010
930.477	3842
930.581	4143
930.685	3975
930.79	3842
930.894	3945
930.998	3918
931.103	4071
931.207	3743
931.311	3762
931.415	3705
931.519	3549
931.623	3549
