Data from test_V78500241_863.txt Node
Date: Fri Mar 25 16:55:00 CST 2022
User: usil
Spectrometer: V785-0024
Trigger mode: 0
Integration Time (sec): 4.000000E-1
Scans to average: 1
Nonlinearity correction enabled: false
Boxcar width: 0
Storing dark spectrum: false
XAxis mode: Wavelengths
Number of Pixels in Spectrum: 1024
>>>>>Begin Spectral Data<<<<<
801.071	8005
801.214	8001
801.356	7913
801.499	7822
801.641	7761
801.783	7784
801.926	7947
802.068	7879
802.211	7932
802.353	7997
802.496	7837
802.638	7951
802.78	7814
802.923	7917
803.065	7875
803.208	7856
803.35	8039
803.492	8069
803.635	8164
803.777	7997
803.919	8043
804.061	8469
804.204	8115
804.346	8043
804.488	7928
804.63	8145
804.773	8058
804.915	8107
805.057	8199
805.199	8183
805.341	8168
805.483	8206
805.626	8134
805.768	8065
805.91	8149
806.052	8218
806.194	8103
806.336	8267
806.478	8069
806.62	8062
806.762	8153
806.904	8202
807.046	8461
807.188	8351
807.33	8267
807.472	8294
807.614	8142
807.756	8134
807.898	7944
808.04	7890
808.182	7860
808.324	7856
808.465	7818
808.607	7974
808.749	8073
808.891	8233
809.033	8180
809.174	8210
809.316	8031
809.458	8126
809.6	7955
809.741	8024
809.883	7978
810.025	8043
810.166	8031
810.308	7932
810.45	8043
810.591	7822
810.733	7700
810.875	7647
811.016	7510
811.158	7499
811.299	7575
811.441	7734
811.582	7655
811.724	7518
811.865	7533
812.007	7571
812.148	7529
812.29	7616
812.431	7715
812.573	7807
812.714	7883
812.855	8138
812.997	8191
813.138	8275
813.279	8107
813.421	8126
813.562	7890
813.703	7875
813.845	7769
813.986	7457
814.127	7266
814.268	7190
814.41	7145
814.551	7053
814.692	7084
814.833	7019
814.974	7103
815.115	7046
815.256	6924
815.397	6913
815.539	6897
815.68	6871
815.821	6745
815.962	6856
816.103	6821
816.244	6726
816.385	6597
816.526	6635
816.666	6475
816.807	6346
816.948	6353
817.089	6464
817.23	6475
817.371	6384
817.512	6399
817.653	6380
817.793	6311
817.934	6369
818.075	6441
818.216	6441
818.356	6338
818.497	6243
818.638	6114
818.778	6194
818.919	6152
819.06	6114
819.2	6258
819.341	6296
819.481	6429
819.622	6544
819.762	6715
819.903	6711
820.043	6631
820.184	6563
820.324	6536
820.465	6623
820.605	6623
820.746	6620
820.886	6479
821.026	6627
821.167	6642
821.307	6768
821.447	6700
821.588	6681
821.728	6578
821.868	6547
822.008	6327
822.149	6285
822.289	6407
822.429	6171
822.569	6076
822.709	6034
822.849	5821
822.99	5832
823.13	5882
823.27	5923
823.41	5836
823.55	5756
823.69	5722
823.83	5821
823.97	5691
824.11	5509
824.25	5516
824.389	5562
824.529	5532
824.669	5524
824.809	5634
824.949	5665
825.089	5581
825.228	5539
825.368	5410
825.508	5349
825.648	5337
825.787	5417
825.927	5364
826.067	5258
826.206	5265
826.346	5372
826.485	5398
826.625	5376
826.765	5528
826.904	5444
827.044	5223
827.183	5159
827.323	5117
827.462	5223
827.601	5113
827.741	5178
827.88	5223
828.02	5086
828.159	5242
828.298	5235
828.437	5414
828.577	5273
828.716	5478
828.855	5280
828.994	5155
829.134	5162
829.273	5185
829.412	5109
829.551	5117
829.69	5151
829.829	5223
829.968	5398
830.107	5239
830.246	5296
830.385	5166
830.524	5124
830.663	5060
830.802	4946
830.941	4877
831.08	4881
831.219	4995
831.357	4980
831.496	5132
831.635	4896
831.774	4824
831.913	4805
832.051	4714
832.19	4778
832.329	4820
832.467	4641
832.606	4596
832.744	4710
832.883	4733
833.022	4702
833.16	4828
833.299	4786
833.437	4805
833.576	4797
833.714	4820
833.852	4793
833.991	4866
834.129	4968
834.267	4961
834.406	4885
834.544	4942
834.682	5006
834.821	4991
834.959	5178
835.097	4949
835.235	5094
835.373	5064
835.511	5052
835.65	4991
835.788	5006
835.926	4858
836.064	4839
836.202	4904
836.34	5117
836.478	5174
836.615	5086
836.753	5178
836.891	5239
837.029	5231
837.167	5201
837.305	5189
837.443	5098
837.58	5075
837.718	5269
837.856	5117
837.993	5109
838.131	5170
838.269	5189
838.406	5113
838.544	5132
838.681	4980
838.819	4968
838.956	4957
839.094	4892
839.231	4957
839.369	5075
839.506	5402
839.643	5223
839.781	5006
839.918	4995
840.055	5064
840.193	5071
840.33	5136
840.467	5071
840.604	5147
840.742	5387
840.879	5064
841.016	5071
841.153	5151
841.29	5417
841.427	5357
841.564	5273
841.701	5376
841.838	5277
841.975	5178
842.112	5246
842.249	5117
842.385	5098
842.522	5334
842.659	5155
842.796	5155
842.933	5178
843.069	5140
843.206	5128
843.343	5284
843.479	5197
843.616	5204
843.752	5018
843.889	4995
844.025	5212
844.162	5041
844.298	5204
844.435	5105
844.571	5037
844.708	5189
844.844	5334
844.98	5341
845.117	5204
845.253	5098
845.389	5071
845.525	5170
845.661	5105
845.798	4991
845.934	5128
846.07	5102
846.206	5170
846.342	5269
846.478	5174
846.614	5014
846.75	5006
846.886	4927
847.022	5094
847.158	5003
847.294	5056
847.429	5045
847.565	5048
847.701	5337
847.837	4854
847.972	4805
848.108	4965
848.244	4968
848.379	4812
848.515	4774
848.65	4771
848.786	4771
848.921	4740
849.057	4892
849.192	4934
849.328	4866
849.463	4885
849.598	4809
849.734	4782
849.869	4702
850.004	4721
850.14	4637
850.275	4596
850.41	4565
850.545	4641
850.68	4569
850.815	4641
850.95	4656
851.085	4862
851.22	4778
851.355	4675
851.49	4645
851.625	4611
851.76	4653
851.895	4630
852.03	4584
852.165	4664
852.299	4755
852.434	4835
852.569	4812
852.703	4809
852.838	4904
852.973	4915
853.107	4873
853.242	4744
853.376	4714
853.511	4573
853.645	4649
853.78	4839
853.914	4714
854.048	4653
854.183	4683
854.317	4744
854.451	4896
854.585	4706
854.72	4645
854.854	4809
854.988	4611
855.122	4641
855.256	4550
855.39	4717
855.524	4782
855.658	4744
855.792	4691
855.926	4782
856.06	4786
856.194	4839
856.327	4702
856.461	4618
856.595	4653
856.729	4637
856.862	4797
856.996	4702
857.13	4771
857.263	4782
857.397	4820
857.53	4649
857.664	4786
857.797	4771
857.931	4812
858.064	4698
858.197	4763
858.331	4694
858.464	4637
858.597	4535
858.731	4637
858.864	4706
858.997	4622
859.13	4683
859.263	4691
859.396	4755
859.529	4615
859.662	4641
859.795	4580
859.928	4615
860.061	4797
860.194	4782
860.327	4618
860.46	4584
860.592	4736
860.725	4717
860.858	4721
860.99	4607
861.123	4542
861.256	4565
861.388	4679
861.521	5322
861.653	4478
861.786	4474
861.918	4478
862.05	4531
862.183	4561
862.315	4656
862.447	4668
862.58	4577
862.712	4459
862.844	4363
862.976	4485
863.108	4474
863.24	4729
863.372	4318
863.504	4394
863.636	4451
863.768	4508
863.9	4466
864.032	4390
864.164	4481
864.296	4500
864.428	4527
864.559	4603
864.691	4523
864.823	4550
864.954	4497
865.086	4561
865.217	4497
865.349	4440
865.48	4485
865.612	4493
865.743	4580
865.875	4466
866.006	4451
866.137	4440
866.269	4443
866.4	4443
866.531	4470
866.662	4402
866.793	4432
866.924	4451
867.055	4519
867.186	4459
867.317	4432
867.448	4413
867.579	4405
867.71	4421
867.841	4356
867.972	4519
868.103	4455
868.233	4478
868.364	4428
868.495	4508
868.625	4706
868.756	4812
868.886	4580
869.017	4672
869.147	4790
869.278	4790
869.408	4694
869.539	4706
869.669	4710
869.799	4683
869.929	4755
870.06	4805
870.19	4987
870.32	4915
870.45	4927
870.58	5029
870.71	5143
870.84	5140
870.97	5010
871.1	4957
871.23	5174
871.36	5197
871.489	5010
871.619	5052
871.749	5140
871.879	5132
872.008	5189
872.138	5075
872.267	4965
872.397	4911
872.526	4816
872.656	4763
872.785	4870
872.915	4995
873.044	5064
873.173	4904
873.303	5010
873.432	4980
873.561	4991
873.69	4885
873.819	4889
873.948	4911
874.077	4797
874.206	4748
874.335	4828
874.464	4904
874.593	5090
874.722	5022
874.851	5113
874.979	5037
875.108	5067
875.237	4923
875.365	4968
875.494	4919
875.623	4995
875.751	4908
875.88	4885
876.008	4938
876.136	5010
876.265	5261
876.393	5307
876.521	5189
876.65	5254
876.778	5178
876.906	5090
877.034	5060
877.162	5037
877.29	5018
877.418	5025
877.546	5075
877.674	5083
877.802	5041
877.93	5029
878.058	4946
878.185	4889
878.313	4965
878.441	4995
878.568	4831
878.696	4877
878.824	4980
878.951	5003
879.079	5174
879.206	5307
879.333	5155
879.461	4999
879.588	5075
879.715	5151
879.842	5254
879.97	5029
880.097	4797
880.224	4771
880.351	4812
880.478	4831
880.605	4801
880.732	4748
880.859	5098
880.986	4923
881.112	4927
881.239	4816
881.366	4694
881.493	4637
881.619	4607
881.746	4721
881.872	4664
881.999	4714
882.125	4691
882.252	4816
882.378	4854
882.505	4946
882.631	4793
882.757	4687
882.883	4710
883.01	4771
883.136	4675
883.262	4611
883.388	4637
883.514	4820
883.64	4843
883.766	4805
883.892	4675
884.018	4812
884.143	4904
884.269	5041
884.395	4702
884.52	4618
884.646	4641
884.772	4622
884.897	4569
885.023	4675
885.148	4763
885.274	4892
885.399	4774
885.524	4725
885.65	4767
885.775	4790
885.9	4748
886.025	4854
886.15	4774
886.275	4717
886.4	4637
886.525	4744
886.65	4698
886.775	4752
886.9	4904
887.025	5037
887.149	4858
887.274	4660
887.399	4596
887.523	4637
887.648	4542
887.773	4588
887.897	4816
888.021	4778
888.146	4710
888.27	4831
888.395	4889
888.519	4744
888.643	4835
888.767	4866
888.891	4714
889.015	4599
889.139	4660
889.263	4607
889.387	4774
889.511	4870
889.635	4805
889.759	4710
889.883	4641
890.006	4736
890.13	4877
890.254	4672
890.377	4679
890.501	4542
890.624	4550
890.748	4698
890.871	4527
890.995	4428
891.118	4394
891.241	4535
891.364	4516
891.488	4603
891.611	4531
891.734	4550
891.857	4561
891.98	4588
892.103	4656
892.226	4596
892.349	4584
892.471	4405
892.594	4504
892.717	4626
892.839	4656
892.962	4577
893.085	4694
893.207	4634
893.33	4531
893.452	4523
893.575	4664
893.697	4558
893.819	4831
893.941	4858
894.064	4793
894.186	4588
894.308	4569
894.43	4797
894.552	4782
894.674	4714
894.796	4546
894.918	4649
895.04	4599
895.161	4717
895.283	4710
895.405	4611
895.526	4672
895.648	4683
895.769	4729
895.891	4717
896.012	4714
896.134	4725
896.255	4687
896.376	4675
896.498	4596
896.619	4672
896.74	4630
896.861	4675
896.982	4896
897.103	5083
897.224	4839
897.345	4706
897.466	4634
897.587	4721
897.708	4835
897.828	4774
897.949	4706
898.07	4569
898.19	4653
898.311	4843
898.431	4694
898.552	4767
898.672	4866
898.792	4774
898.913	4767
899.033	4660
899.153	4550
899.273	4424
899.393	4493
899.513	4516
899.633	4508
899.753	4558
899.873	4561
899.993	4611
900.113	4542
900.232	4626
900.352	4538
900.472	4459
900.591	4432
900.711	4455
900.83	4478
900.95	4599
901.069	4687
901.189	4542
901.308	4356
901.427	4337
901.546	4390
901.665	4493
901.784	4512
901.904	4424
902.023	4352
902.141	4223
902.26	4196
902.379	4284
902.498	4284
902.617	4238
902.735	4386
902.854	4394
902.973	4360
903.091	4219
903.21	4272
903.328	4276
903.446	4223
903.565	4230
903.683	4386
903.801	4314
903.919	4447
904.038	4443
904.156	4329
904.274	4455
904.392	4375
904.51	4447
904.627	4459
904.745	4611
904.863	4630
904.981	4394
905.098	4341
905.216	4371
905.334	4443
905.451	4417
905.569	4443
905.686	4569
905.803	4538
905.921	4421
906.038	4554
906.155	4519
906.272	4390
906.389	4478
906.506	4371
906.623	4367
906.74	4379
906.857	4306
906.974	4394
907.091	4535
907.208	4645
907.324	4569
907.441	4523
907.557	4344
907.674	4337
907.79	4303
907.907	4402
908.023	4466
908.139	4466
908.256	4424
908.372	4470
908.488	4485
908.604	4318
908.72	4295
908.836	4371
908.952	4409
909.068	4428
909.184	4573
909.3	4462
909.415	4615
909.531	4565
909.647	4367
909.762	4386
909.878	4291
909.993	4451
910.108	4405
910.224	4447
910.339	4504
910.454	4409
910.57	4363
910.685	4287
910.8	4675
910.915	4580
911.03	4485
911.145	4329
911.259	4322
911.374	4379
911.489	4257
911.604	4322
911.718	4181
911.833	4196
911.947	4067
912.062	4059
912.176	4207
912.291	4253
912.405	4242
912.519	4500
912.633	4470
912.748	4329
912.862	4280
912.976	4173
913.09	4090
913.204	4204
913.318	4310
913.431	4318
913.545	4371
913.659	4489
913.772	4356
913.886	4272
914	4219
914.113	4363
914.226	4421
914.34	4367
914.453	4253
914.566	4440
914.68	4341
914.793	4306
914.906	4181
915.019	4120
915.132	4093
915.245	4211
915.358	4223
915.47	4238
915.583	4272
915.696	4295
915.809	4409
915.921	4443
916.034	4371
916.146	4276
916.259	4295
916.371	4375
916.483	4405
916.595	4291
916.708	4417
916.82	4337
916.932	4367
917.044	4333
917.156	4375
917.268	4276
917.38	4287
917.491	4265
917.603	4386
917.715	4440
917.826	4455
917.938	4375
918.049	4344
918.161	4421
918.272	4580
918.384	4561
918.495	4466
918.606	4341
918.717	4314
918.828	4390
918.939	4386
919.05	4257
919.161	4352
919.272	4166
919.383	4249
919.494	4474
919.604	4694
919.715	4424
919.826	4417
919.936	4436
920.047	4542
920.157	4535
920.267	4744
920.378	4599
920.488	4527
920.598	4748
920.708	4949
920.818	4778
920.928	4759
921.038	5010
921.148	4961
921.258	4626
921.368	4618
921.477	4558
921.587	4481
921.697	4398
921.806	4634
921.916	4481
922.025	4295
922.134	4318
922.244	4253
922.353	4348
922.462	4211
922.571	4147
922.68	4040
922.789	3991
922.898	4071
923.007	4013
923.116	4192
923.224	4101
923.333	4131
923.442	4032
923.55	4032
923.659	4017
923.767	4105
923.876	3994
923.984	4135
924.092	4010
924.201	4124
924.309	4128
924.417	4173
924.525	4086
924.633	4143
924.741	4900
924.849	3964
924.956	4101
925.064	3991
925.172	3937
925.279	3983
925.387	4105
925.494	4059
925.602	4253
925.709	4188
925.816	4044
925.924	4135
926.031	4261
926.138	4188
926.245	4230
926.352	4143
926.459	4295
926.566	4325
926.673	4196
926.779	4139
926.886	4101
926.993	4029
927.099	4029
927.206	3983
927.312	4017
927.419	4078
927.525	4055
927.631	4169
927.737	3930
927.843	3960
927.95	3857
928.056	3953
928.162	4063
928.267	4048
928.373	4615
928.479	4181
928.585	3896
928.69	4055
928.796	4101
928.901	3975
929.007	3861
929.112	4032
929.218	3998
929.323	3968
929.428	3934
929.533	4135
929.638	3960
929.743	4017
929.848	4051
929.953	4048
930.058	3979
930.163	3789
930.267	3857
930.372	4036
930.477	3846
930.581	4158
930.685	3968
930.79	3831
930.894	3922
930.998	3903
931.103	4032
931.207	3766
931.311	3740
931.415	3736
931.519	3545
931.623	3595
