Data from test_V78500241_231.txt Node
Date: Fri Mar 25 16:50:36 CST 2022
User: usil
Spectrometer: V785-0024
Trigger mode: 0
Integration Time (sec): 4.000000E-1
Scans to average: 1
Nonlinearity correction enabled: false
Boxcar width: 0
Storing dark spectrum: false
XAxis mode: Wavelengths
Number of Pixels in Spectrum: 1024
>>>>>Begin Spectral Data<<<<<
801.071	8073
801.214	8035
801.356	7890
801.499	7879
801.641	7818
801.783	7898
801.926	7963
802.068	7986
802.211	8031
802.353	8039
802.496	7883
802.638	7959
802.78	7928
802.923	7925
803.065	7879
803.208	7894
803.35	7951
803.492	8069
803.635	8123
803.777	7970
803.919	8103
804.061	8381
804.204	8062
804.346	8065
804.488	7959
804.63	8134
804.773	8050
804.915	8073
805.057	8320
805.199	8142
805.341	8298
805.483	8233
805.626	8240
805.768	8119
805.91	8153
806.052	8202
806.194	8081
806.336	8294
806.478	8103
806.62	8073
806.762	8126
806.904	8225
807.046	8454
807.188	8355
807.33	8248
807.472	8267
807.614	8115
807.756	8111
807.898	7989
808.04	7830
808.182	7917
808.324	7978
808.465	7932
808.607	8043
808.749	8077
808.891	8263
809.033	8282
809.174	8206
809.316	7993
809.458	8050
809.6	8012
809.741	8035
809.883	8020
810.025	8142
810.166	8111
810.308	8046
810.45	7974
810.591	7909
810.733	7757
810.875	7529
811.016	7563
811.158	7476
811.299	7563
811.441	7734
811.582	7693
811.724	7582
811.865	7533
812.007	7548
812.148	7601
812.29	7582
812.431	7769
812.573	7902
812.714	7955
812.855	8126
812.997	8210
813.138	8324
813.279	8202
813.421	8096
813.562	8077
813.703	7830
813.845	7769
813.986	7415
814.127	7225
814.268	7221
814.41	7293
814.551	7183
814.692	7202
814.833	7091
814.974	7103
815.115	7145
815.256	6951
815.397	6966
815.539	6943
815.68	6802
815.821	6806
815.962	6882
816.103	6844
816.244	6741
816.385	6612
816.526	6627
816.666	6471
816.807	6277
816.948	6433
817.089	6464
817.23	6464
817.371	6369
817.512	6361
817.653	6429
817.793	6350
817.934	6365
818.075	6445
818.216	6407
818.356	6388
818.497	6308
818.638	6106
818.778	6136
818.919	6106
819.06	6140
819.2	6319
819.341	6300
819.481	6331
819.622	6437
819.762	6700
819.903	6688
820.043	6604
820.184	6631
820.324	6544
820.465	6688
820.605	6616
820.746	6665
820.886	6448
821.026	6627
821.167	6673
821.307	6764
821.447	6753
821.588	6639
821.728	6585
821.868	6532
822.008	6304
822.149	6369
822.289	6323
822.429	6186
822.569	6110
822.709	6129
822.849	5954
822.99	5908
823.13	5897
823.27	5863
823.41	5809
823.55	5844
823.69	5798
823.83	5855
823.97	5691
824.11	5634
824.25	5566
824.389	5501
824.529	5581
824.669	5562
824.809	5634
824.949	5707
825.089	5649
825.228	5566
825.368	5444
825.508	5345
825.648	5398
825.787	5421
825.927	5414
826.067	5311
826.206	5417
826.346	5429
826.485	5448
826.625	5471
826.765	5577
826.904	5509
827.044	5261
827.183	5254
827.323	5185
827.462	5292
827.601	5242
827.741	5261
827.88	5231
828.02	5162
828.159	5273
828.298	5322
828.437	5402
828.577	5368
828.716	5524
828.855	5311
828.994	5193
829.134	5212
829.273	5223
829.412	5201
829.551	5181
829.69	5216
829.829	5277
829.968	5379
830.107	5357
830.246	5307
830.385	5208
830.524	5201
830.663	5079
830.802	5056
830.941	4938
831.08	4942
831.219	5022
831.357	5014
831.496	5223
831.635	4942
831.774	4892
831.913	4911
832.051	4801
832.19	4793
832.329	4843
832.467	4782
832.606	4683
832.744	4733
832.883	4725
833.022	4790
833.16	4858
833.299	4854
833.437	4919
833.576	4885
833.714	4900
833.852	4873
833.991	4957
834.129	5010
834.267	4972
834.406	4987
834.544	5006
834.682	4999
834.821	4995
834.959	5071
835.097	4991
835.235	5178
835.373	5121
835.511	5132
835.65	5098
835.788	4999
835.926	4976
836.064	4949
836.202	4980
836.34	5208
836.478	5250
836.615	5197
836.753	5239
836.891	5372
837.029	5292
837.167	5193
837.305	5273
837.443	5162
837.58	5121
837.718	5258
837.856	5254
837.993	5181
838.131	5277
838.269	5227
838.406	5280
838.544	5242
838.681	5060
838.819	5045
838.956	4919
839.094	4889
839.231	5022
839.369	5121
839.506	5440
839.643	5261
839.781	5140
839.918	5094
840.055	5155
840.193	5098
840.33	5090
840.467	5216
840.604	5216
840.742	5493
840.879	5094
841.016	5128
841.153	5212
841.29	5406
841.427	5376
841.564	5387
841.701	5402
841.838	5334
841.975	5292
842.112	5273
842.249	5132
842.385	5128
842.522	5322
842.659	5231
842.796	5201
842.933	5273
843.069	5216
843.206	5212
843.343	5349
843.479	5311
843.616	5315
843.752	5079
843.889	5048
844.025	5235
844.162	5048
844.298	5269
844.435	5132
844.571	5071
844.708	5189
844.844	5376
844.98	5360
845.117	5311
845.253	5166
845.389	5109
845.525	5216
845.661	5185
845.798	5052
845.934	5193
846.07	5102
846.206	5269
846.342	5303
846.478	5261
846.614	5033
846.75	5006
846.886	5022
847.022	5189
847.158	5102
847.294	5060
847.429	5117
847.565	5113
847.701	5349
847.837	4892
847.972	4873
848.108	4995
848.244	4934
848.379	4797
848.515	4736
848.65	4744
848.786	4778
848.921	4828
849.057	4862
849.192	4930
849.328	4870
849.463	4877
849.598	4820
849.734	4748
849.869	4721
850.004	4687
850.14	4664
850.275	4687
850.41	4550
850.545	4615
850.68	4626
850.815	4706
850.95	4664
851.085	4904
851.22	4824
851.355	4698
851.49	4675
851.625	4637
851.76	4702
851.895	4554
852.03	4538
852.165	4668
852.299	4759
852.434	4862
852.569	4782
852.703	4831
852.838	4911
852.973	4987
853.107	4999
853.242	4755
853.376	4675
853.511	4558
853.645	4683
853.78	4835
853.914	4763
854.048	4675
854.183	4706
854.317	4736
854.451	4892
854.585	4714
854.72	4660
854.854	4797
854.988	4618
855.122	4622
855.256	4596
855.39	4740
855.524	4828
855.658	4801
855.792	4725
855.926	4755
856.06	4763
856.194	4828
856.327	4717
856.461	4637
856.595	4687
856.729	4664
856.862	4839
856.996	4725
857.13	4763
857.263	4763
857.397	4831
857.53	4733
857.664	4774
857.797	4805
857.931	4820
858.064	4706
858.197	4721
858.331	4698
858.464	4626
858.597	4580
858.731	4641
858.864	4653
858.997	4618
859.13	4672
859.263	4702
859.396	4721
859.529	4630
859.662	4611
859.795	4561
859.928	4618
860.061	4771
860.194	4828
860.327	4656
860.46	4569
860.592	4736
860.725	4786
860.858	4744
860.99	4630
861.123	4561
861.256	4569
861.388	4637
861.521	5448
861.653	4542
861.786	4474
861.918	4447
862.05	4546
862.183	4569
862.315	4599
862.447	4675
862.58	4584
862.712	4447
862.844	4375
862.976	4523
863.108	4535
863.24	4972
863.372	4371
863.504	4478
863.636	4417
863.768	4519
863.9	4466
864.032	4409
864.164	4417
864.296	4447
864.428	4558
864.559	4603
864.691	4577
864.823	4550
864.954	4546
865.086	4500
865.217	4508
865.349	4436
865.48	4462
865.612	4493
865.743	4645
865.875	4508
866.006	4508
866.137	4436
866.269	4504
866.4	4432
866.531	4493
866.662	4455
866.793	4356
866.924	4459
867.055	4542
867.186	4474
867.317	4443
867.448	4417
867.579	4413
867.71	4409
867.841	4375
867.972	4485
868.103	4504
868.233	4466
868.364	4466
868.495	4527
868.625	4691
868.756	4793
868.886	4580
869.017	4675
869.147	4801
869.278	4774
869.408	4656
869.539	4702
869.669	4744
869.799	4698
869.929	4759
870.06	4759
870.19	4999
870.32	4976
870.45	4942
870.58	4999
870.71	5086
870.84	5109
870.97	4968
871.1	4923
871.23	5143
871.36	5113
871.489	5052
871.619	5064
871.749	5037
871.879	5166
872.008	5216
872.138	5064
872.267	4991
872.397	4850
872.526	4896
872.656	4729
872.785	4828
872.915	4968
873.044	5067
873.173	4953
873.303	4995
873.432	4923
873.561	5006
873.69	4881
873.819	4847
873.948	4919
874.077	4847
874.206	4786
874.335	4831
874.464	4980
874.593	5094
874.722	5014
874.851	5132
874.979	5132
875.108	5090
875.237	4957
875.365	4911
875.494	4892
875.623	5022
875.751	4873
875.88	4889
876.008	5022
876.136	5006
876.265	5185
876.393	5341
876.521	5318
876.65	5277
876.778	5147
876.906	5086
877.034	5079
877.162	5075
877.29	5010
877.418	5056
877.546	5067
877.674	5094
877.802	5037
877.93	5022
878.058	4911
878.185	4881
878.313	5029
878.441	4934
878.568	4858
878.696	4858
878.824	4946
878.951	5014
879.079	5155
879.206	5315
879.333	5071
879.461	5006
879.588	5018
879.715	5128
879.842	5277
879.97	5010
880.097	4828
880.224	4771
880.351	4850
880.478	4885
880.605	4870
880.732	4831
880.859	5083
880.986	4942
881.112	4889
881.239	4778
881.366	4736
881.493	4679
881.619	4630
881.746	4687
881.872	4706
881.999	4634
882.125	4729
882.252	4847
882.378	4854
882.505	4934
882.631	4881
882.757	4702
882.883	4717
883.01	4759
883.136	4691
883.262	4592
883.388	4649
883.514	4812
883.64	4911
883.766	4771
883.892	4653
884.018	4763
884.143	4896
884.269	5022
884.395	4679
884.52	4618
884.646	4721
884.772	4611
884.897	4584
885.023	4691
885.148	4778
885.274	4828
885.399	4820
885.524	4698
885.65	4691
885.775	4774
885.9	4729
886.025	4930
886.15	4850
886.275	4729
886.4	4710
886.525	4767
886.65	4729
886.775	4721
886.9	4900
887.025	5037
887.149	4797
887.274	4668
887.399	4603
887.523	4630
887.648	4584
887.773	4649
887.897	4805
888.021	4828
888.146	4702
888.27	4828
888.395	4961
888.519	4801
888.643	4839
888.767	4843
888.891	4752
889.015	4641
889.139	4687
889.263	4569
889.387	4805
889.511	4896
889.635	4786
889.759	4630
889.883	4622
890.006	4717
890.13	4866
890.254	4653
890.377	4694
890.501	4561
890.624	4542
890.748	4660
890.871	4516
890.995	4443
891.118	4451
891.241	4519
891.364	4561
891.488	4721
891.611	4493
891.734	4527
891.857	4603
891.98	4546
892.103	4691
892.226	4611
892.349	4561
892.471	4417
892.594	4577
892.717	4618
892.839	4603
892.962	4573
893.085	4694
893.207	4622
893.33	4474
893.452	4569
893.575	4672
893.697	4607
893.819	4782
893.941	4850
894.064	4748
894.186	4580
894.308	4630
894.43	4717
894.552	4881
894.674	4752
894.796	4599
894.918	4630
895.04	4580
895.161	4763
895.283	4637
895.405	4599
895.526	4664
895.648	4653
895.769	4721
895.891	4755
896.012	4767
896.134	4748
896.255	4702
896.376	4683
896.498	4634
896.619	4733
896.74	4626
896.861	4668
896.982	4961
897.103	5098
897.224	4870
897.345	4736
897.466	4691
897.587	4748
897.708	4919
897.828	4805
897.949	4649
898.07	4599
898.19	4656
898.311	4923
898.431	4702
898.552	4759
898.672	4854
898.792	4858
898.913	4790
899.033	4645
899.153	4546
899.273	4466
899.393	4531
899.513	4519
899.633	4519
899.753	4558
899.873	4497
899.993	4584
900.113	4577
900.232	4634
900.352	4573
900.472	4554
900.591	4440
900.711	4519
900.83	4470
900.95	4660
901.069	4733
901.189	4573
901.308	4409
901.427	4314
901.546	4383
901.665	4478
901.784	4500
901.904	4394
902.023	4337
902.141	4207
902.26	4154
902.379	4287
902.498	4287
902.617	4227
902.735	4398
902.854	4413
902.973	4337
903.091	4200
903.21	4253
903.328	4344
903.446	4306
903.565	4287
903.683	4383
903.801	4325
903.919	4402
904.038	4436
904.156	4314
904.274	4428
904.392	4405
904.51	4424
904.627	4478
904.745	4588
904.863	4634
904.981	4424
905.098	4257
905.216	4447
905.334	4470
905.451	4459
905.569	4459
905.686	4565
905.803	4626
905.921	4409
906.038	4599
906.155	4493
906.272	4348
906.389	4481
906.506	4325
906.623	4398
906.74	4379
906.857	4314
906.974	4386
907.091	4577
907.208	4694
907.324	4596
907.441	4474
907.557	4367
907.674	4333
907.79	4314
907.907	4394
908.023	4519
908.139	4485
908.256	4436
908.372	4462
908.488	4440
908.604	4417
908.72	4322
908.836	4398
908.952	4360
909.068	4474
909.184	4630
909.3	4500
909.415	4618
909.531	4592
909.647	4402
909.762	4390
909.878	4348
909.993	4394
910.108	4413
910.224	4432
910.339	4474
910.454	4417
910.57	4379
910.685	4325
910.8	4672
910.915	4668
911.03	4535
911.145	4363
911.259	4383
911.374	4432
911.489	4291
911.604	4272
911.718	4185
911.833	4219
911.947	4036
912.062	4074
912.176	4314
912.291	4261
912.405	4253
912.519	4485
912.633	4554
912.748	4371
912.862	4344
912.976	4234
913.09	4147
913.204	4177
913.318	4230
913.431	4421
913.545	4379
913.659	4443
913.772	4417
913.886	4329
914	4230
914.113	4386
914.226	4432
914.34	4428
914.453	4215
914.566	4478
914.68	4333
914.793	4329
914.906	4173
915.019	4120
915.132	4135
915.245	4177
915.358	4177
915.47	4272
915.583	4287
915.696	4310
915.809	4360
915.921	4451
916.034	4261
916.146	4249
916.259	4246
916.371	4428
916.483	4363
916.595	4215
916.708	4341
916.82	4383
916.932	4390
917.044	4348
917.156	4341
917.268	4242
917.38	4291
917.491	4261
917.603	4325
917.715	4451
917.826	4447
917.938	4344
918.049	4238
918.161	4413
918.272	4565
918.384	4485
918.495	4428
918.606	4314
918.717	4238
918.828	4367
918.939	4409
919.05	4272
919.161	4325
919.272	4150
919.383	4242
919.494	4447
919.604	4634
919.715	4432
919.826	4341
919.936	4443
920.047	4569
920.157	4500
920.267	4698
920.378	4538
920.488	4535
920.598	4721
920.708	4908
920.818	4767
920.928	4744
921.038	4949
921.148	4896
921.258	4649
921.368	4584
921.477	4462
921.587	4523
921.697	4356
921.806	4546
921.916	4462
922.025	4318
922.134	4280
922.244	4242
922.353	4318
922.462	4188
922.571	4128
922.68	3975
922.789	4002
922.898	3998
923.007	4032
923.116	4090
923.224	4093
923.333	4112
923.442	3964
923.55	4029
923.659	4025
923.767	4139
923.876	4010
923.984	4112
924.092	4002
924.201	4101
924.309	4150
924.417	4173
924.525	4093
924.633	4112
924.741	5056
924.849	3915
924.956	4120
925.064	3941
925.172	3975
925.279	3972
925.387	4067
925.494	4074
925.602	4215
925.709	4196
925.816	4074
925.924	4147
926.031	4246
926.138	4188
926.245	4230
926.352	4097
926.459	4272
926.566	4295
926.673	4192
926.779	4082
926.886	4097
926.993	3987
927.099	3987
927.206	3937
927.312	3972
927.419	4086
927.525	4040
927.631	4150
927.737	3994
927.843	3956
927.95	3857
928.056	3953
928.162	3994
928.267	4029
928.373	4611
928.479	4105
928.585	3854
928.69	4017
928.796	4101
928.901	4055
929.007	3888
929.112	4036
929.218	4036
929.323	3956
929.428	3972
929.533	4086
929.638	3907
929.743	3979
929.848	4082
929.953	4002
930.058	3968
930.163	3827
930.267	3861
930.372	3960
930.477	3819
930.581	4074
930.685	3926
930.79	3838
930.894	3884
930.998	3884
931.103	4013
931.207	3713
931.311	3736
931.415	3641
931.519	3564
931.623	3557
