Data from test_V78500241_2098.txt Node
Date: Fri Mar 25 17:03:35 CST 2022
User: usil
Spectrometer: V785-0024
Trigger mode: 0
Integration Time (sec): 4.000000E-1
Scans to average: 1
Nonlinearity correction enabled: false
Boxcar width: 0
Storing dark spectrum: false
XAxis mode: Wavelengths
Number of Pixels in Spectrum: 1024
>>>>>Begin Spectral Data<<<<<
801.071	7944
801.214	7898
801.356	7864
801.499	7814
801.641	7780
801.783	7803
801.926	7955
802.068	7951
802.211	8005
802.353	8020
802.496	7883
802.638	7860
802.78	7913
802.923	7936
803.065	7818
803.208	7868
803.35	7928
803.492	8062
803.635	8164
803.777	7940
803.919	8126
804.061	8434
804.204	8138
804.346	8012
804.488	7898
804.63	8084
804.773	7974
804.915	8081
805.057	8206
805.199	8119
805.341	8210
805.483	8271
805.626	8214
805.768	8126
805.91	8202
806.052	8195
806.194	8088
806.336	8301
806.478	8111
806.62	8103
806.762	8134
806.904	8210
807.046	8457
807.188	8332
807.33	8336
807.472	8286
807.614	8123
807.756	8081
807.898	8020
808.04	7883
808.182	7898
808.324	7868
808.465	7864
808.607	8107
808.749	8069
808.891	8168
809.033	8282
809.174	8172
809.316	8050
809.458	8100
809.6	8020
809.741	8077
809.883	8046
810.025	8168
810.166	8126
810.308	8043
810.45	8001
810.591	7792
810.733	7727
810.875	7655
811.016	7575
811.158	7453
811.299	7525
811.441	7666
811.582	7655
811.724	7605
811.865	7495
812.007	7597
812.148	7616
812.29	7620
812.431	7700
812.573	7959
812.714	7993
812.855	8100
812.997	8210
813.138	8324
813.279	8073
813.421	8024
813.562	7993
813.703	7852
813.845	7731
813.986	7396
814.127	7213
814.268	7160
814.41	7225
814.551	7190
814.692	7179
814.833	7080
814.974	7133
815.115	7156
815.256	6909
815.397	6913
815.539	6951
815.68	6856
815.821	6764
815.962	6897
816.103	6760
816.244	6669
816.385	6673
816.526	6547
816.666	6441
816.807	6323
816.948	6456
817.089	6471
817.23	6452
817.371	6353
817.512	6403
817.653	6384
817.793	6334
817.934	6372
818.075	6464
818.216	6418
818.356	6357
818.497	6216
818.638	6083
818.778	6129
818.919	6159
819.06	6186
819.2	6327
819.341	6289
819.481	6357
819.622	6502
819.762	6776
819.903	6715
820.043	6570
820.184	6559
820.324	6574
820.465	6700
820.605	6700
820.746	6631
820.886	6483
821.026	6646
821.167	6738
821.307	6783
821.447	6776
821.588	6585
821.728	6597
821.868	6559
822.008	6300
822.149	6395
822.289	6380
822.429	6148
822.569	6114
822.709	6102
822.849	5893
822.99	5874
823.13	5935
823.27	5885
823.41	5786
823.55	5802
823.69	5707
823.83	5794
823.97	5627
824.11	5535
824.25	5512
824.389	5551
824.529	5566
824.669	5497
824.809	5649
824.949	5638
825.089	5600
825.228	5581
825.368	5444
825.508	5402
825.648	5299
825.787	5376
825.927	5398
826.067	5299
826.206	5258
826.346	5376
826.485	5395
826.625	5429
826.765	5497
826.904	5474
827.044	5235
827.183	5227
827.323	5121
827.462	5261
827.601	5162
827.741	5193
827.88	5265
828.02	5102
828.159	5239
828.298	5353
828.437	5345
828.577	5204
828.716	5474
828.855	5334
828.994	5117
829.134	5159
829.273	5162
829.412	5170
829.551	5143
829.69	5170
829.829	5223
829.968	5299
830.107	5242
830.246	5250
830.385	5166
830.524	5098
830.663	5018
830.802	4919
830.941	4889
831.08	4877
831.219	4942
831.357	4946
831.496	5117
831.635	4908
831.774	4835
831.913	4824
832.051	4733
832.19	4710
832.329	4831
832.467	4660
832.606	4592
832.744	4725
832.883	4710
833.022	4740
833.16	4812
833.299	4793
833.437	4858
833.576	4866
833.714	4866
833.852	4854
833.991	4881
834.129	4900
834.267	4942
834.406	4900
834.544	4927
834.682	4961
834.821	4965
834.959	5174
835.097	4949
835.235	5094
835.373	5060
835.511	5105
835.65	5022
835.788	4995
835.926	4877
836.064	4877
836.202	4915
836.34	5185
836.478	5197
836.615	5128
836.753	5185
836.891	5277
837.029	5216
837.167	5201
837.305	5147
837.443	5132
837.58	5086
837.718	5242
837.856	5201
837.993	5201
838.131	5227
838.269	5201
838.406	5208
838.544	5189
838.681	5052
838.819	5014
838.956	4904
839.094	4885
839.231	4930
839.369	5140
839.506	5425
839.643	5231
839.781	5048
839.918	5025
840.055	5079
840.193	5102
840.33	5117
840.467	5166
840.604	5143
840.742	5398
840.879	5121
841.016	5079
841.153	5094
841.29	5311
841.427	5322
841.564	5337
841.701	5292
841.838	5254
841.975	5261
842.112	5242
842.249	5113
842.385	5102
842.522	5326
842.659	5121
842.796	5105
842.933	5185
843.069	5102
843.206	5174
843.343	5345
843.479	5254
843.616	5284
843.752	5022
843.889	5022
844.025	5178
844.162	5029
844.298	5201
844.435	5056
844.571	4980
844.708	5151
844.844	5341
844.98	5349
845.117	5292
845.253	5143
845.389	5117
845.525	5136
845.661	5170
845.798	5029
845.934	5147
846.07	5014
846.206	5136
846.342	5242
846.478	5201
846.614	4987
846.75	4953
846.886	4915
847.022	5105
847.158	5045
847.294	5052
847.429	5075
847.565	5056
847.701	5322
847.837	4858
847.972	4824
848.108	4919
848.244	4934
848.379	4828
848.515	4736
848.65	4721
848.786	4733
848.921	4786
849.057	4908
849.192	4885
849.328	4774
849.463	4805
849.598	4805
849.734	4729
849.869	4672
850.004	4634
850.14	4653
850.275	4630
850.41	4558
850.545	4554
850.68	4615
850.815	4630
850.95	4607
851.085	4862
851.22	4744
851.355	4675
851.49	4637
851.625	4615
851.76	4615
851.895	4558
852.03	4466
852.165	4637
852.299	4706
852.434	4793
852.569	4744
852.703	4763
852.838	4831
852.973	4904
853.107	4877
853.242	4767
853.376	4637
853.511	4546
853.645	4607
853.78	4812
853.914	4702
854.048	4710
854.183	4641
854.317	4698
854.451	4843
854.585	4710
854.72	4603
854.854	4733
854.988	4592
855.122	4679
855.256	4500
855.39	4653
855.524	4759
855.658	4687
855.792	4729
855.926	4714
856.06	4748
856.194	4793
856.327	4736
856.461	4573
856.595	4603
856.729	4626
856.862	4748
856.996	4683
857.13	4706
857.263	4763
857.397	4828
857.53	4656
857.664	4721
857.797	4714
857.931	4786
858.064	4675
858.197	4771
858.331	4683
858.464	4645
858.597	4489
858.731	4664
858.864	4668
858.997	4611
859.13	4626
859.263	4660
859.396	4683
859.529	4550
859.662	4565
859.795	4527
859.928	4656
860.061	4740
860.194	4755
860.327	4542
860.46	4500
860.592	4710
860.725	4706
860.858	4736
860.99	4580
861.123	4535
861.256	4561
861.388	4599
861.521	5467
861.653	4481
861.786	4417
861.918	4478
862.05	4504
862.183	4542
862.315	4569
862.447	4656
862.58	4489
862.712	4417
862.844	4329
862.976	4451
863.108	4466
863.24	4755
863.372	4329
863.504	4394
863.636	4428
863.768	4470
863.9	4440
864.032	4447
864.164	4371
864.296	4428
864.428	4535
864.559	4577
864.691	4512
864.823	4508
864.954	4508
865.086	4485
865.217	4440
865.349	4459
865.48	4440
865.612	4527
865.743	4607
865.875	4527
866.006	4440
866.137	4470
866.269	4440
866.4	4436
866.531	4405
866.662	4383
866.793	4432
866.924	4371
867.055	4462
867.186	4440
867.317	4405
867.448	4363
867.579	4341
867.71	4375
867.841	4390
867.972	4432
868.103	4447
868.233	4447
868.364	4447
868.495	4504
868.625	4656
868.756	4721
868.886	4577
869.017	4599
869.147	4767
869.278	4755
869.408	4622
869.539	4622
869.669	4736
869.799	4672
869.929	4755
870.06	4752
870.19	4957
870.32	4934
870.45	4957
870.58	4999
870.71	5102
870.84	5079
870.97	4927
871.1	4900
871.23	5132
871.36	5136
871.489	5056
871.619	5083
871.749	5090
871.879	5105
872.008	5178
872.138	5086
872.267	4923
872.397	4873
872.526	4816
872.656	4714
872.785	4774
872.915	4968
873.044	5033
873.173	4892
873.303	5014
873.432	4968
873.561	4999
873.69	4847
873.819	4873
873.948	4942
874.077	4877
874.206	4790
874.335	4786
874.464	4915
874.593	5037
874.722	4927
874.851	5083
874.979	5071
875.108	5022
875.237	4892
875.365	4889
875.494	4900
875.623	4949
875.751	4797
875.88	4896
876.008	5022
876.136	4999
876.265	5201
876.393	5349
876.521	5204
876.65	5201
876.778	5147
876.906	5006
877.034	5045
877.162	5071
877.29	4953
877.418	5014
877.546	4976
877.674	5067
877.802	4980
877.93	4991
878.058	4938
878.185	4904
878.313	4923
878.441	4889
878.568	4812
878.696	4835
878.824	4984
878.951	4984
879.079	5113
879.206	5292
879.333	5052
879.461	4995
879.588	5003
879.715	5155
879.842	5204
879.97	4957
880.097	4759
880.224	4694
880.351	4831
880.478	4759
880.605	4759
880.732	4797
880.859	5075
880.986	4850
881.112	4923
881.239	4873
881.366	4634
881.493	4611
881.619	4546
881.746	4615
881.872	4653
881.999	4611
882.125	4664
882.252	4778
882.378	4801
882.505	4946
882.631	4816
882.757	4668
882.883	4744
883.01	4740
883.136	4656
883.262	4618
883.388	4649
883.514	4835
883.64	4892
883.766	4736
883.892	4634
884.018	4725
884.143	4866
884.269	4965
884.395	4694
884.52	4622
884.646	4641
884.772	4645
884.897	4561
885.023	4694
885.148	4801
885.274	4881
885.399	4812
885.524	4729
885.65	4672
885.775	4717
885.9	4714
886.025	4850
886.15	4828
886.275	4748
886.4	4634
886.525	4778
886.65	4744
886.775	4672
886.9	4889
887.025	5048
887.149	4805
887.274	4668
887.399	4588
887.523	4596
887.648	4622
887.773	4584
887.897	4759
888.021	4767
888.146	4694
888.27	4778
888.395	4900
888.519	4805
888.643	4805
888.767	4820
888.891	4634
889.015	4596
889.139	4691
889.263	4599
889.387	4763
889.511	4862
889.635	4809
889.759	4660
889.883	4675
890.006	4740
890.13	4763
890.254	4618
890.377	4668
890.501	4493
890.624	4519
890.748	4630
890.871	4493
890.995	4421
891.118	4398
891.241	4519
891.364	4497
891.488	4565
891.611	4485
891.734	4512
891.857	4607
891.98	4558
892.103	4649
892.226	4607
892.349	4485
892.471	4413
892.594	4504
892.717	4550
892.839	4592
892.962	4622
893.085	4645
893.207	4607
893.33	4497
893.452	4474
893.575	4675
893.697	4558
893.819	4824
893.941	4828
894.064	4729
894.186	4561
894.308	4592
894.43	4706
894.552	4812
894.674	4759
894.796	4550
894.918	4573
895.04	4527
895.161	4694
895.283	4622
895.405	4546
895.526	4622
895.648	4694
895.769	4714
895.891	4694
896.012	4694
896.134	4725
896.255	4653
896.376	4702
896.498	4626
896.619	4683
896.74	4630
896.861	4668
896.982	4896
897.103	5083
897.224	4816
897.345	4763
897.466	4691
897.587	4729
897.708	4824
897.828	4778
897.949	4694
898.07	4580
898.19	4592
898.311	4831
898.431	4729
898.552	4729
898.672	4786
898.792	4778
898.913	4729
899.033	4580
899.153	4474
899.273	4432
899.393	4493
899.513	4584
899.633	4558
899.753	4504
899.873	4481
899.993	4558
900.113	4588
900.232	4649
900.352	4550
900.472	4535
900.591	4386
900.711	4447
900.83	4402
900.95	4599
901.069	4660
901.189	4531
901.308	4356
901.427	4337
901.546	4402
901.665	4489
901.784	4538
901.904	4379
902.023	4333
902.141	4219
902.26	4128
902.379	4295
902.498	4234
902.617	4215
902.735	4386
902.854	4352
902.973	4352
903.091	4207
903.21	4223
903.328	4341
903.446	4268
903.565	4246
903.683	4333
903.801	4276
903.919	4390
904.038	4443
904.156	4314
904.274	4432
904.392	4386
904.51	4440
904.627	4462
904.745	4611
904.863	4637
904.981	4443
905.098	4310
905.216	4329
905.334	4424
905.451	4417
905.569	4470
905.686	4542
905.803	4550
905.921	4417
906.038	4550
906.155	4436
906.272	4363
906.389	4432
906.506	4337
906.623	4447
906.74	4344
906.857	4299
906.974	4375
907.091	4577
907.208	4656
907.324	4615
907.441	4535
907.557	4337
907.674	4329
907.79	4348
907.907	4390
908.023	4455
908.139	4516
908.256	4440
908.372	4424
908.488	4466
908.604	4386
908.72	4329
908.836	4379
908.952	4341
909.068	4390
909.184	4550
909.3	4485
909.415	4588
909.531	4535
909.647	4383
909.762	4386
909.878	4341
909.993	4421
910.108	4379
910.224	4417
910.339	4508
910.454	4428
910.57	4360
910.685	4310
910.8	4675
910.915	4634
911.03	4504
911.145	4360
911.259	4303
911.374	4322
911.489	4360
911.604	4287
911.718	4177
911.833	4188
911.947	4051
912.062	4063
912.176	4211
912.291	4238
912.405	4234
912.519	4440
912.633	4504
912.748	4371
912.862	4291
912.976	4204
913.09	4074
913.204	4219
913.318	4238
913.431	4348
913.545	4344
913.659	4409
913.772	4371
913.886	4246
914	4242
914.113	4344
914.226	4436
914.34	4352
914.453	4261
914.566	4440
914.68	4242
914.793	4310
914.906	4143
915.019	4135
915.132	4082
915.245	4223
915.358	4192
915.47	4215
915.583	4257
915.696	4276
915.809	4379
915.921	4421
916.034	4227
916.146	4272
916.259	4249
916.371	4363
916.483	4367
916.595	4287
916.708	4348
916.82	4356
916.932	4306
917.044	4356
917.156	4356
917.268	4219
917.38	4234
917.491	4276
917.603	4291
917.715	4405
917.826	4447
917.938	4390
918.049	4238
918.161	4390
918.272	4577
918.384	4481
918.495	4440
918.606	4276
918.717	4192
918.828	4325
918.939	4325
919.05	4211
919.161	4291
919.272	4139
919.383	4207
919.494	4409
919.604	4634
919.715	4432
919.826	4363
919.936	4371
920.047	4478
920.157	4500
920.267	4691
920.378	4523
920.488	4516
920.598	4755
920.708	4870
920.818	4748
920.928	4774
921.038	4942
921.148	4934
921.258	4580
921.368	4519
921.477	4493
921.587	4481
921.697	4352
921.806	4519
921.916	4436
922.025	4249
922.134	4257
922.244	4215
922.353	4280
922.462	4169
922.571	4147
922.68	4006
922.789	3953
922.898	4048
923.007	3991
923.116	4086
923.224	4048
923.333	4067
923.442	3983
923.55	4017
923.659	4021
923.767	4048
923.876	4032
923.984	4090
924.092	3998
924.201	4078
924.309	4093
924.417	4101
924.525	4055
924.633	4158
924.741	5052
924.849	3915
924.956	4135
925.064	3972
925.172	3857
925.279	3945
925.387	4074
925.494	4044
925.602	4242
925.709	4219
925.816	4025
925.924	4120
926.031	4192
926.138	4162
926.245	4192
926.352	4044
926.459	4223
926.566	4306
926.673	4169
926.779	4086
926.886	4063
926.993	3983
927.099	3926
927.206	3949
927.312	3930
927.419	4071
927.525	4059
927.631	4112
927.737	3987
927.843	3926
927.95	3876
928.056	3941
928.162	3922
928.267	4078
928.373	4637
928.479	4105
928.585	3842
928.69	4059
928.796	4048
928.901	3991
929.007	3812
929.112	4029
929.218	3972
929.323	3934
929.428	3922
929.533	4097
929.638	3915
929.743	3926
929.848	4021
929.953	3960
930.058	3937
930.163	3804
930.267	3781
930.372	3972
930.477	3823
930.581	4120
930.685	3918
930.79	3804
930.894	3892
930.998	3797
931.103	4025
931.207	3728
931.311	3663
931.415	3660
931.519	3519
931.623	3587
