Data from test_V78500241_1126.txt Node
Date: Fri Mar 25 16:56:49 CST 2022
User: usil
Spectrometer: V785-0024
Trigger mode: 0
Integration Time (sec): 4.000000E-1
Scans to average: 1
Nonlinearity correction enabled: false
Boxcar width: 0
Storing dark spectrum: false
XAxis mode: Wavelengths
Number of Pixels in Spectrum: 1024
>>>>>Begin Spectral Data<<<<<
801.071	8058
801.214	8020
801.356	7864
801.499	7890
801.641	7693
801.783	7772
801.926	7909
802.068	7906
802.211	7925
802.353	7955
802.496	7841
802.638	7875
802.78	7822
802.923	7909
803.065	7879
803.208	7917
803.35	7940
803.492	8073
803.635	8126
803.777	7982
803.919	8142
804.061	8419
804.204	8187
804.346	8024
804.488	7951
804.63	8073
804.773	8027
804.915	8043
805.057	8279
805.199	8172
805.341	8164
805.483	8233
805.626	8161
805.768	8157
805.91	8218
806.052	8176
806.194	8138
806.336	8286
806.478	8142
806.62	8016
806.762	8058
806.904	8271
807.046	8408
807.188	8309
807.33	8294
807.472	8355
807.614	8157
807.756	8100
807.898	7913
808.04	7883
808.182	7890
808.324	7871
808.465	7883
808.607	8005
808.749	8088
808.891	8153
809.033	8282
809.174	8138
809.316	8043
809.458	8054
809.6	7955
809.741	8046
809.883	8016
810.025	8084
810.166	7986
810.308	8027
810.45	7993
810.591	7875
810.733	7689
810.875	7628
811.016	7521
811.158	7438
811.299	7609
811.441	7696
811.582	7620
811.724	7567
811.865	7476
812.007	7578
812.148	7548
812.29	7613
812.431	7727
812.573	7864
812.714	7963
812.855	8092
812.997	8202
813.138	8336
813.279	8180
813.421	8084
813.562	8027
813.703	7792
813.845	7681
813.986	7384
814.127	7270
814.268	7213
814.41	7110
814.551	7110
814.692	7175
814.833	7061
814.974	7046
815.115	7084
815.256	6924
815.397	6913
815.539	6928
815.68	6821
815.821	6741
815.962	6856
816.103	6833
816.244	6734
816.385	6559
816.526	6616
816.666	6532
816.807	6285
816.948	6426
817.089	6528
817.23	6407
817.371	6311
817.512	6399
817.653	6384
817.793	6292
817.934	6376
818.075	6467
818.216	6399
818.356	6315
818.497	6247
818.638	6133
818.778	6171
818.919	6155
819.06	6125
819.2	6346
819.341	6338
819.481	6338
819.622	6513
819.762	6684
819.903	6700
820.043	6585
820.184	6597
820.324	6559
820.465	6642
820.605	6620
820.746	6623
820.886	6467
821.026	6597
821.167	6597
821.307	6795
821.447	6764
821.588	6601
821.728	6547
821.868	6475
822.008	6277
822.149	6369
822.289	6391
822.429	6159
822.569	6057
822.709	6182
822.849	5870
822.99	5889
823.13	5923
823.27	5912
823.41	5722
823.55	5771
823.69	5760
823.83	5779
823.97	5688
824.11	5497
824.25	5455
824.389	5554
824.529	5497
824.669	5592
824.809	5528
824.949	5684
825.089	5562
825.228	5493
825.368	5395
825.508	5292
825.648	5307
825.787	5368
825.927	5345
826.067	5307
826.206	5235
826.346	5349
826.485	5410
826.625	5433
826.765	5501
826.904	5493
827.044	5242
827.183	5208
827.323	5094
827.462	5220
827.601	5086
827.741	5155
827.88	5174
828.02	5132
828.159	5239
828.298	5307
828.437	5307
828.577	5284
828.716	5474
828.855	5307
828.994	5166
829.134	5136
829.273	5212
829.412	5090
829.551	5079
829.69	5113
829.829	5216
829.968	5360
830.107	5242
830.246	5246
830.385	5140
830.524	5083
830.663	5014
830.802	4930
830.941	4843
831.08	4831
831.219	4957
831.357	4938
831.496	5136
831.635	4942
831.774	4850
831.913	4778
832.051	4698
832.19	4714
832.329	4873
832.467	4668
832.606	4626
832.744	4717
832.883	4694
833.022	4698
833.16	4771
833.299	4828
833.437	4793
833.576	4828
833.714	4839
833.852	4831
833.991	4870
834.129	4972
834.267	4896
834.406	4862
834.544	4927
834.682	4984
834.821	4984
834.959	5140
835.097	5010
835.235	5128
835.373	5075
835.511	5052
835.65	5022
835.788	5018
835.926	4850
836.064	4900
836.202	4870
836.34	5105
836.478	5208
836.615	5105
836.753	5227
836.891	5292
837.029	5250
837.167	5216
837.305	5201
837.443	5117
837.58	5037
837.718	5212
837.856	5109
837.993	5151
838.131	5235
838.269	5155
838.406	5178
838.544	5136
838.681	5018
838.819	5014
838.956	4877
839.094	4934
839.231	4957
839.369	5071
839.506	5425
839.643	5277
839.781	5048
839.918	4980
840.055	5098
840.193	5090
840.33	5121
840.467	5121
840.604	5162
840.742	5448
840.879	5045
841.016	5045
841.153	5136
841.29	5334
841.427	5330
841.564	5307
841.701	5368
841.838	5273
841.975	5242
842.112	5220
842.249	5109
842.385	5083
842.522	5269
842.659	5193
842.796	5105
842.933	5159
843.069	5136
843.206	5170
843.343	5239
843.479	5223
843.616	5235
843.752	5022
843.889	4991
844.025	5166
844.162	4968
844.298	5181
844.435	5067
844.571	5003
844.708	5162
844.844	5258
844.98	5303
845.117	5261
845.253	5113
845.389	5083
845.525	5170
845.661	5113
845.798	4976
845.934	5128
846.07	5041
846.206	5151
846.342	5273
846.478	5128
846.614	5006
846.75	4908
846.886	4957
847.022	5067
847.158	4987
847.294	5018
847.429	5041
847.565	5048
847.701	5296
847.837	4904
847.972	4797
848.108	4942
848.244	4873
848.379	4771
848.515	4714
848.65	4660
848.786	4733
848.921	4714
849.057	4839
849.192	4911
849.328	4763
849.463	4831
849.598	4797
849.734	4752
849.869	4656
850.004	4630
850.14	4641
850.275	4615
850.41	4512
850.545	4542
850.68	4584
850.815	4626
850.95	4641
851.085	4812
851.22	4702
851.355	4649
851.49	4618
851.625	4577
851.76	4630
851.895	4569
852.03	4478
852.165	4615
852.299	4694
852.434	4744
852.569	4721
852.703	4759
852.838	4790
852.973	4889
853.107	4866
853.242	4729
853.376	4656
853.511	4519
853.645	4607
853.78	4748
853.914	4714
854.048	4641
854.183	4641
854.317	4645
854.451	4828
854.585	4668
854.72	4634
854.854	4729
854.988	4550
855.122	4580
855.256	4481
855.39	4649
855.524	4790
855.658	4634
855.792	4664
855.926	4740
856.06	4782
856.194	4744
856.327	4672
856.461	4565
856.595	4615
856.729	4584
856.862	4763
856.996	4668
857.13	4729
857.263	4733
857.397	4793
857.53	4679
857.664	4755
857.797	4702
857.931	4820
858.064	4656
858.197	4725
858.331	4683
858.464	4535
858.597	4493
858.731	4599
858.864	4618
858.997	4538
859.13	4675
859.263	4653
859.396	4641
859.529	4558
859.662	4527
859.795	4516
859.928	4592
860.061	4748
860.194	4733
860.327	4531
860.46	4546
860.592	4683
860.725	4641
860.858	4752
860.99	4542
861.123	4500
861.256	4481
861.388	4607
861.521	5326
861.653	4500
861.786	4398
861.918	4440
862.05	4485
862.183	4497
862.315	4577
862.447	4615
862.58	4554
862.712	4398
862.844	4310
862.976	4516
863.108	4417
863.24	4839
863.372	4303
863.504	4363
863.636	4371
863.768	4474
863.9	4424
864.032	4356
864.164	4352
864.296	4455
864.428	4580
864.559	4569
864.691	4580
864.823	4588
864.954	4497
865.086	4554
865.217	4436
865.349	4470
865.48	4497
865.612	4535
865.743	4592
865.875	4481
866.006	4421
866.137	4485
866.269	4497
866.4	4489
866.531	4474
866.662	4386
866.793	4409
866.924	4436
867.055	4538
867.186	4455
867.317	4485
867.448	4436
867.579	4424
867.71	4417
867.841	4417
867.972	4455
868.103	4512
868.233	4493
868.364	4428
868.495	4550
868.625	4721
868.756	4816
868.886	4634
869.017	4634
869.147	4790
869.278	4816
869.408	4679
869.539	4679
869.669	4736
869.799	4668
869.929	4797
870.06	4755
870.19	4991
870.32	4942
870.45	4946
870.58	5064
870.71	5143
870.84	5117
870.97	4942
871.1	4904
871.23	5113
871.36	5162
871.489	5052
871.619	5117
871.749	5140
871.879	5246
872.008	5143
872.138	5071
872.267	4972
872.397	4938
872.526	4812
872.656	4771
872.785	4843
872.915	4987
873.044	5003
873.173	4961
873.303	4938
873.432	4946
873.561	5029
873.69	4915
873.819	4889
873.948	4923
874.077	4843
874.206	4767
874.335	4847
874.464	4972
874.593	5105
874.722	5010
874.851	5170
874.979	5117
875.108	5045
875.237	4953
875.365	4911
875.494	4972
875.623	5048
875.751	4870
875.88	4877
876.008	5022
876.136	5086
876.265	5212
876.393	5364
876.521	5261
876.65	5250
876.778	5204
876.906	5079
877.034	5033
877.162	5048
877.29	5029
877.418	5094
877.546	5090
877.674	5071
877.802	5075
877.93	4965
878.058	4957
878.185	4938
878.313	5006
878.441	4987
878.568	4820
878.696	4900
878.824	4949
878.951	5048
879.079	5155
879.206	5322
879.333	5117
879.461	4927
879.588	5048
879.715	5105
879.842	5201
879.97	5014
880.097	4843
880.224	4740
880.351	4835
880.478	4881
880.605	4820
880.732	4831
880.859	5132
880.986	4957
881.112	4911
881.239	4801
881.366	4717
881.493	4577
881.619	4618
881.746	4714
881.872	4736
881.999	4645
882.125	4759
882.252	4831
882.378	4881
882.505	4938
882.631	4847
882.757	4660
882.883	4710
883.01	4778
883.136	4694
883.262	4618
883.388	4645
883.514	4828
883.64	4942
883.766	4843
883.892	4691
884.018	4694
884.143	4892
884.269	5022
884.395	4714
884.52	4649
884.646	4691
884.772	4626
884.897	4554
885.023	4759
885.148	4816
885.274	4862
885.399	4793
885.524	4694
885.65	4748
885.775	4752
885.9	4786
886.025	4904
886.15	4778
886.275	4740
886.4	4672
886.525	4767
886.65	4771
886.775	4679
886.9	4949
887.025	5098
887.149	4793
887.274	4691
887.399	4622
887.523	4634
887.648	4618
887.773	4565
887.897	4809
888.021	4839
888.146	4725
888.27	4824
888.395	4919
888.519	4824
888.643	4835
888.767	4839
888.891	4691
889.015	4626
889.139	4698
889.263	4649
889.387	4774
889.511	4923
889.635	4812
889.759	4649
889.883	4736
890.006	4763
890.13	4824
890.254	4592
890.377	4687
890.501	4512
890.624	4558
890.748	4675
890.871	4485
890.995	4497
891.118	4413
891.241	4554
891.364	4599
891.488	4675
891.611	4497
891.734	4531
891.857	4622
891.98	4573
892.103	4656
892.226	4649
892.349	4580
892.471	4466
892.594	4596
892.717	4577
892.839	4592
892.962	4588
893.085	4637
893.207	4641
893.33	4474
893.452	4516
893.575	4740
893.697	4611
893.819	4820
893.941	4831
894.064	4759
894.186	4592
894.308	4535
894.43	4763
894.552	4847
894.674	4774
894.796	4607
894.918	4584
895.04	4535
895.161	4763
895.283	4679
895.405	4577
895.526	4656
895.648	4702
895.769	4710
895.891	4736
896.012	4752
896.134	4714
896.255	4653
896.376	4618
896.498	4588
896.619	4675
896.74	4599
896.861	4645
896.982	4961
897.103	5094
897.224	4873
897.345	4801
897.466	4679
897.587	4752
897.708	4854
897.828	4828
897.949	4675
898.07	4599
898.19	4702
898.311	4877
898.431	4675
898.552	4801
898.672	4854
898.792	4828
898.913	4736
899.033	4637
899.153	4497
899.273	4462
899.393	4512
899.513	4569
899.633	4573
899.753	4558
899.873	4512
899.993	4615
900.113	4550
900.232	4558
900.352	4569
900.472	4508
900.591	4409
900.711	4474
900.83	4489
900.95	4618
901.069	4733
901.189	4558
901.308	4390
901.427	4318
901.546	4390
901.665	4554
901.784	4535
901.904	4436
902.023	4367
902.141	4227
902.26	4188
902.379	4291
902.498	4284
902.617	4280
902.735	4375
902.854	4383
902.973	4394
903.091	4215
903.21	4257
903.328	4284
903.446	4299
903.565	4287
903.683	4356
903.801	4322
903.919	4417
904.038	4485
904.156	4303
904.274	4459
904.392	4409
904.51	4394
904.627	4451
904.745	4565
904.863	4706
904.981	4367
905.098	4253
905.216	4352
905.334	4455
905.451	4443
905.569	4497
905.686	4550
905.803	4603
905.921	4455
906.038	4592
906.155	4485
906.272	4405
906.389	4489
906.506	4333
906.623	4379
906.74	4383
906.857	4310
906.974	4383
907.091	4573
907.208	4694
907.324	4577
907.441	4516
907.557	4352
907.674	4341
907.79	4344
907.907	4421
908.023	4538
908.139	4485
908.256	4436
908.372	4447
908.488	4470
908.604	4348
908.72	4352
908.836	4436
908.952	4379
909.068	4432
909.184	4538
909.3	4466
909.415	4607
909.531	4580
909.647	4386
909.762	4428
909.878	4325
909.993	4470
910.108	4417
910.224	4390
910.339	4481
910.454	4428
910.57	4398
910.685	4318
910.8	4630
910.915	4599
911.03	4481
911.145	4356
911.259	4352
911.374	4371
911.489	4303
911.604	4261
911.718	4185
911.833	4211
911.947	4105
912.062	4074
912.176	4204
912.291	4188
912.405	4272
912.519	4459
912.633	4531
912.748	4424
912.862	4318
912.976	4200
913.09	4082
913.204	4143
913.318	4253
913.431	4390
913.545	4398
913.659	4455
913.772	4363
913.886	4276
914	4268
914.113	4383
914.226	4443
914.34	4379
914.453	4265
914.566	4432
914.68	4383
914.793	4375
914.906	4173
915.019	4150
915.132	4116
915.245	4185
915.358	4200
915.47	4204
915.583	4284
915.696	4325
915.809	4432
915.921	4413
916.034	4295
916.146	4268
916.259	4242
916.371	4367
916.483	4428
916.595	4337
916.708	4337
916.82	4310
916.932	4325
917.044	4306
917.156	4314
917.268	4204
917.38	4257
917.491	4280
917.603	4337
917.715	4428
917.826	4462
917.938	4348
918.049	4265
918.161	4413
918.272	4546
918.384	4542
918.495	4512
918.606	4287
918.717	4257
918.828	4295
918.939	4360
919.05	4322
919.161	4299
919.272	4139
919.383	4253
919.494	4451
919.604	4561
919.715	4470
919.826	4375
919.936	4390
920.047	4527
920.157	4542
920.267	4683
920.378	4561
920.488	4504
920.598	4714
920.708	4896
920.818	4790
920.928	4790
921.038	4908
921.148	4877
921.258	4645
921.368	4592
921.477	4546
921.587	4470
921.697	4386
921.806	4531
921.916	4451
922.025	4329
922.134	4268
922.244	4215
922.353	4394
922.462	4215
922.571	4074
922.68	4032
922.789	3991
922.898	4071
923.007	4048
923.116	4150
923.224	4074
923.333	4078
923.442	3983
923.55	3979
923.659	4017
923.767	4143
923.876	3991
923.984	4101
924.092	4025
924.201	4071
924.309	4093
924.417	4112
924.525	4048
924.633	4139
924.741	5029
924.849	3941
924.956	4169
925.064	3983
925.172	3865
925.279	3994
925.387	4051
925.494	4002
925.602	4181
925.709	4169
925.816	4048
925.924	4116
926.031	4253
926.138	4177
926.245	4200
926.352	4097
926.459	4291
926.566	4272
926.673	4147
926.779	4101
926.886	4128
926.993	3960
927.099	4006
927.206	3972
927.312	3964
927.419	4036
927.525	4032
927.631	4112
927.737	4010
927.843	3937
927.95	3850
928.056	3956
928.162	3972
928.267	3991
928.373	4645
928.479	4074
928.585	3884
928.69	4051
928.796	4051
928.901	3972
929.007	3903
929.112	4013
929.218	3998
929.323	3960
929.428	3945
929.533	4147
929.638	3896
929.743	3926
929.848	4097
929.953	3972
930.058	3945
930.163	3759
930.267	3816
930.372	3994
930.477	3846
930.581	4128
930.685	3934
930.79	3869
930.894	3930
930.998	3899
931.103	4071
931.207	3736
931.311	3694
931.415	3705
931.519	3564
931.623	3572
