Data from test_V78500241_1110.txt Node
Date: Fri Mar 25 16:56:43 CST 2022
User: usil
Spectrometer: V785-0024
Trigger mode: 0
Integration Time (sec): 4.000000E-1
Scans to average: 1
Nonlinearity correction enabled: false
Boxcar width: 0
Storing dark spectrum: false
XAxis mode: Wavelengths
Number of Pixels in Spectrum: 1024
>>>>>Begin Spectral Data<<<<<
801.071	8084
801.214	8020
801.356	7822
801.499	7780
801.641	7780
801.783	7845
801.926	7875
802.068	7871
802.211	7913
802.353	7974
802.496	7837
802.638	7765
802.78	7898
802.923	7932
803.065	7864
803.208	7849
803.35	8035
803.492	8092
803.635	8172
803.777	8069
803.919	8142
804.061	8396
804.204	8157
804.346	8016
804.488	7936
804.63	8069
804.773	8016
804.915	8027
805.057	8248
805.199	8123
805.341	8225
805.483	8259
805.626	8111
805.768	8145
805.91	8145
806.052	8164
806.194	8073
806.336	8286
806.478	8039
806.62	7974
806.762	8149
806.904	8294
807.046	8431
807.188	8332
807.33	8240
807.472	8256
807.614	8142
807.756	8088
807.898	7936
808.04	7883
808.182	7917
808.324	7917
808.465	7913
808.607	8077
808.749	8062
808.891	8191
809.033	8298
809.174	8157
809.316	7989
809.458	8062
809.6	7963
809.741	8077
809.883	8062
810.025	8081
810.166	8077
810.308	8035
810.45	7997
810.591	7860
810.733	7715
810.875	7628
811.016	7499
811.158	7487
811.299	7552
811.441	7708
811.582	7712
811.724	7632
811.865	7491
812.007	7502
812.148	7594
812.29	7643
812.431	7700
812.573	7909
812.714	7921
812.855	8008
812.997	8172
813.138	8206
813.279	8142
813.421	8050
813.562	7986
813.703	7830
813.845	7693
813.986	7464
814.127	7266
814.268	7221
814.41	7179
814.551	7088
814.692	7175
814.833	7015
814.974	7061
815.115	7118
815.256	6932
815.397	6901
815.539	6973
815.68	6852
815.821	6791
815.962	6852
816.103	6802
816.244	6753
816.385	6532
816.526	6620
816.666	6540
816.807	6262
816.948	6369
817.089	6433
817.23	6445
817.371	6399
817.512	6346
817.653	6429
817.793	6327
817.934	6418
818.075	6490
818.216	6429
818.356	6414
818.497	6182
818.638	6129
818.778	6201
818.919	6102
819.06	6182
819.2	6277
819.341	6315
819.481	6376
819.622	6506
819.762	6707
819.903	6681
820.043	6540
820.184	6555
820.324	6559
820.465	6684
820.605	6635
820.746	6635
820.886	6483
821.026	6604
821.167	6700
821.307	6798
821.447	6798
821.588	6620
821.728	6593
821.868	6494
822.008	6262
822.149	6410
822.289	6350
822.429	6148
822.569	6098
822.709	6068
822.849	5973
822.99	5950
823.13	5931
823.27	5904
823.41	5779
823.55	5790
823.69	5794
823.83	5798
823.97	5642
824.11	5532
824.25	5516
824.389	5608
824.529	5577
824.669	5497
824.809	5638
824.949	5699
825.089	5619
825.228	5585
825.368	5364
825.508	5349
825.648	5326
825.787	5429
825.927	5391
826.067	5311
826.206	5284
826.346	5387
826.485	5478
826.625	5463
826.765	5528
826.904	5486
827.044	5277
827.183	5284
827.323	5159
827.462	5296
827.601	5235
827.741	5250
827.88	5265
828.02	5170
828.159	5265
828.298	5258
828.437	5402
828.577	5326
828.716	5490
828.855	5334
828.994	5197
829.134	5155
829.273	5181
829.412	5147
829.551	5208
829.69	5185
829.829	5265
829.968	5414
830.107	5284
830.246	5299
830.385	5166
830.524	5181
830.663	5071
830.802	5037
830.941	4949
831.08	4870
831.219	5056
831.357	5037
831.496	5147
831.635	4961
831.774	4881
831.913	4854
832.051	4782
832.19	4793
832.329	4892
832.467	4733
832.606	4656
832.744	4752
832.883	4740
833.022	4797
833.16	4828
833.299	4850
833.437	4881
833.576	4873
833.714	4892
833.852	4927
833.991	4938
834.129	4980
834.267	5045
834.406	4904
834.544	4991
834.682	4991
834.821	4999
834.959	5178
835.097	5025
835.235	5159
835.373	5098
835.511	5155
835.65	5041
835.788	5041
835.926	4953
836.064	4908
836.202	4972
836.34	5181
836.478	5273
836.615	5124
836.753	5242
836.891	5280
837.029	5269
837.167	5280
837.305	5216
837.443	5235
837.58	5086
837.718	5273
837.856	5216
837.993	5140
838.131	5277
838.269	5239
838.406	5239
838.544	5250
838.681	5083
838.819	5014
838.956	4976
839.094	4915
839.231	5010
839.369	5132
839.506	5490
839.643	5292
839.781	5075
839.918	5022
840.055	5121
840.193	5132
840.33	5132
840.467	5143
840.604	5201
840.742	5459
840.879	5113
841.016	5155
841.153	5185
841.29	5436
841.427	5353
841.564	5299
841.701	5345
841.838	5265
841.975	5273
842.112	5341
842.249	5178
842.385	5140
842.522	5395
842.659	5212
842.796	5197
842.933	5231
843.069	5189
843.206	5113
843.343	5387
843.479	5223
843.616	5254
843.752	5090
843.889	5045
844.025	5208
844.162	5018
844.298	5246
844.435	5102
844.571	5064
844.708	5231
844.844	5330
844.98	5383
845.117	5368
845.253	5174
845.389	5098
845.525	5178
845.661	5155
845.798	5048
845.934	5132
846.07	5064
846.206	5162
846.342	5299
846.478	5178
846.614	5048
846.75	5025
846.886	4938
847.022	5113
847.158	5025
847.294	5045
847.429	5056
847.565	5090
847.701	5303
847.837	4854
847.972	4793
848.108	4968
848.244	4923
848.379	4843
848.515	4725
848.65	4744
848.786	4782
848.921	4835
849.057	4881
849.192	4919
849.328	4877
849.463	4850
849.598	4793
849.734	4793
849.869	4691
850.004	4660
850.14	4653
850.275	4660
850.41	4550
850.545	4599
850.68	4653
850.815	4630
850.95	4660
851.085	4843
851.22	4767
851.355	4740
851.49	4592
851.625	4649
851.76	4672
851.895	4580
852.03	4618
852.165	4675
852.299	4717
852.434	4828
852.569	4744
852.703	4778
852.838	4862
852.973	4957
853.107	4946
853.242	4774
853.376	4710
853.511	4558
853.645	4626
853.78	4877
853.914	4714
854.048	4702
854.183	4668
854.317	4725
854.451	4854
854.585	4744
854.72	4615
854.854	4828
854.988	4618
855.122	4675
855.256	4519
855.39	4637
855.524	4759
855.658	4725
855.792	4725
855.926	4752
856.06	4809
856.194	4797
856.327	4694
856.461	4607
856.595	4641
856.729	4660
856.862	4793
856.996	4694
857.13	4721
857.263	4740
857.397	4786
857.53	4698
857.664	4729
857.797	4816
857.931	4771
858.064	4702
858.197	4778
858.331	4687
858.464	4622
858.597	4538
858.731	4656
858.864	4694
858.997	4626
859.13	4675
859.263	4660
859.396	4710
859.529	4607
859.662	4615
859.795	4573
859.928	4634
860.061	4752
860.194	4820
860.327	4649
860.46	4618
860.592	4706
860.725	4679
860.858	4710
860.99	4561
861.123	4527
861.256	4565
861.388	4577
861.521	5349
861.653	4470
861.786	4424
861.918	4478
862.05	4512
862.183	4592
862.315	4649
862.447	4649
862.58	4584
862.712	4436
862.844	4341
862.976	4500
863.108	4504
863.24	4759
863.372	4363
863.504	4436
863.636	4417
863.768	4504
863.9	4455
864.032	4375
864.164	4470
864.296	4500
864.428	4523
864.559	4634
864.691	4546
864.823	4584
864.954	4546
865.086	4504
865.217	4459
865.349	4432
865.48	4470
865.612	4470
865.743	4641
865.875	4497
866.006	4455
866.137	4470
866.269	4478
866.4	4489
866.531	4405
866.662	4337
866.793	4402
866.924	4424
867.055	4504
867.186	4443
867.317	4367
867.448	4386
867.579	4421
867.71	4447
867.841	4405
867.972	4500
868.103	4493
868.233	4478
868.364	4421
868.495	4500
868.625	4702
868.756	4759
868.886	4607
869.017	4637
869.147	4797
869.278	4763
869.408	4653
869.539	4698
869.669	4714
869.799	4675
869.929	4801
870.06	4736
870.19	4927
870.32	4965
870.45	4961
870.58	5018
870.71	5102
870.84	5102
870.97	4968
871.1	4877
871.23	5140
871.36	5140
871.489	5071
871.619	5067
871.749	5121
871.879	5105
872.008	5212
872.138	4995
872.267	4980
872.397	4816
872.526	4809
872.656	4725
872.785	4805
872.915	4972
873.044	4999
873.173	4915
873.303	4972
873.432	4972
873.561	5006
873.69	4896
873.819	4889
873.948	4896
874.077	4843
874.206	4797
874.335	4755
874.464	4942
874.593	5075
874.722	4953
874.851	5079
874.979	5014
875.108	5037
875.237	4995
875.365	4873
875.494	4908
875.623	4991
875.751	4873
875.88	4873
876.008	5006
876.136	5071
876.265	5204
876.393	5353
876.521	5254
876.65	5220
876.778	5185
876.906	5045
877.034	5033
877.162	5045
877.29	4987
877.418	5094
877.546	5071
877.674	5079
877.802	5041
877.93	5018
878.058	4923
878.185	4892
878.313	4984
878.441	4953
878.568	4797
878.696	4873
878.824	4900
878.951	4991
879.079	5132
879.206	5288
879.333	5048
879.461	5010
879.588	5033
879.715	5060
879.842	5208
879.97	5003
880.097	4786
880.224	4778
880.351	4801
880.478	4816
880.605	4786
880.732	4801
880.859	5090
880.986	4881
881.112	4942
881.239	4759
881.366	4687
881.493	4580
881.619	4645
881.746	4653
881.872	4664
881.999	4675
882.125	4733
882.252	4755
882.378	4831
882.505	4946
882.631	4774
882.757	4714
882.883	4736
883.01	4725
883.136	4694
883.262	4554
883.388	4660
883.514	4828
883.64	4858
883.766	4736
883.892	4698
884.018	4691
884.143	4896
884.269	5056
884.395	4675
884.52	4653
884.646	4694
884.772	4622
884.897	4569
885.023	4672
885.148	4801
885.274	4881
885.399	4809
885.524	4729
885.65	4691
885.775	4790
885.9	4748
886.025	4858
886.15	4843
886.275	4736
886.4	4691
886.525	4687
886.65	4733
886.775	4683
886.9	4919
887.025	5033
887.149	4812
887.274	4634
887.399	4611
887.523	4653
887.648	4554
887.773	4580
887.897	4797
888.021	4820
888.146	4687
888.27	4812
888.395	4896
888.519	4790
888.643	4843
888.767	4816
888.891	4744
889.015	4573
889.139	4645
889.263	4611
889.387	4812
889.511	4873
889.635	4752
889.759	4675
889.883	4691
890.006	4721
890.13	4831
890.254	4615
890.377	4645
890.501	4535
890.624	4535
890.748	4649
890.871	4565
890.995	4394
891.118	4394
891.241	4527
891.364	4580
891.488	4702
891.611	4459
891.734	4565
891.857	4622
891.98	4512
892.103	4596
892.226	4546
892.349	4508
892.471	4394
892.594	4546
892.717	4603
892.839	4577
892.962	4607
893.085	4683
893.207	4603
893.33	4455
893.452	4523
893.575	4660
893.697	4527
893.819	4763
893.941	4835
894.064	4706
894.186	4550
894.308	4523
894.43	4748
894.552	4805
894.674	4805
894.796	4538
894.918	4626
895.04	4538
895.161	4672
895.283	4645
895.405	4558
895.526	4630
895.648	4683
895.769	4744
895.891	4759
896.012	4733
896.134	4694
896.255	4603
896.376	4634
896.498	4637
896.619	4675
896.74	4645
896.861	4664
896.982	4923
897.103	5090
897.224	4778
897.345	4755
897.466	4702
897.587	4725
897.708	4870
897.828	4752
897.949	4729
898.07	4561
898.19	4626
898.311	4854
898.431	4687
898.552	4694
898.672	4793
898.792	4812
898.913	4706
899.033	4615
899.153	4508
899.273	4447
899.393	4531
899.513	4500
899.633	4489
899.753	4535
899.873	4500
899.993	4599
900.113	4538
900.232	4618
900.352	4527
900.472	4466
900.591	4443
900.711	4489
900.83	4402
900.95	4611
901.069	4679
901.189	4519
901.308	4348
901.427	4322
901.546	4405
901.665	4424
901.784	4512
901.904	4478
902.023	4341
902.141	4192
902.26	4188
902.379	4291
902.498	4196
902.617	4227
902.735	4367
902.854	4398
902.973	4329
903.091	4196
903.21	4234
903.328	4299
903.446	4257
903.565	4246
903.683	4363
903.801	4272
903.919	4428
904.038	4516
904.156	4322
904.274	4447
904.392	4413
904.51	4440
904.627	4474
904.745	4584
904.863	4615
904.981	4383
905.098	4306
905.216	4379
905.334	4436
905.451	4421
905.569	4462
905.686	4516
905.803	4554
905.921	4436
906.038	4607
906.155	4443
906.272	4383
906.389	4462
906.506	4356
906.623	4348
906.74	4402
906.857	4314
906.974	4375
907.091	4580
907.208	4668
907.324	4584
907.441	4500
907.557	4363
907.674	4371
907.79	4348
907.907	4371
908.023	4535
908.139	4478
908.256	4402
908.372	4485
908.488	4428
908.604	4344
908.72	4306
908.836	4398
908.952	4379
909.068	4421
909.184	4615
909.3	4489
909.415	4565
909.531	4554
909.647	4367
909.762	4383
909.878	4329
909.993	4459
910.108	4375
910.224	4375
910.339	4443
910.454	4402
910.57	4329
910.685	4306
910.8	4645
910.915	4672
911.03	4455
911.145	4299
911.259	4333
911.374	4386
911.489	4261
911.604	4276
911.718	4192
911.833	4196
911.947	4040
912.062	4006
912.176	4173
912.291	4242
912.405	4234
912.519	4417
912.633	4474
912.748	4371
912.862	4333
912.976	4207
913.09	4074
913.204	4162
913.318	4223
913.431	4383
913.545	4299
913.659	4413
913.772	4383
913.886	4272
914	4181
914.113	4371
914.226	4462
914.34	4398
914.453	4219
914.566	4428
914.68	4322
914.793	4314
914.906	4135
915.019	4147
915.132	4124
915.245	4166
915.358	4238
915.47	4196
915.583	4272
915.696	4303
915.809	4375
915.921	4417
916.034	4303
916.146	4238
916.259	4196
916.371	4348
916.483	4333
916.595	4246
916.708	4360
916.82	4299
916.932	4363
917.044	4318
917.156	4291
917.268	4219
917.38	4287
917.491	4303
917.603	4363
917.715	4462
917.826	4424
917.938	4356
918.049	4238
918.161	4417
918.272	4535
918.384	4561
918.495	4493
918.606	4295
918.717	4234
918.828	4333
918.939	4337
919.05	4246
919.161	4303
919.272	4135
919.383	4223
919.494	4417
919.604	4622
919.715	4421
919.826	4310
919.936	4386
920.047	4497
920.157	4512
920.267	4694
920.378	4573
920.488	4500
920.598	4698
920.708	4862
920.818	4733
920.928	4759
921.038	4984
921.148	4946
921.258	4649
921.368	4584
921.477	4455
921.587	4489
921.697	4386
921.806	4565
921.916	4432
922.025	4310
922.134	4234
922.244	4200
922.353	4371
922.462	4196
922.571	4135
922.68	4029
922.789	3994
922.898	4002
923.007	3968
923.116	4109
923.224	4055
923.333	4055
923.442	3964
923.55	3983
923.659	4044
923.767	4093
923.876	3983
923.984	4116
924.092	3949
924.201	4109
924.309	4078
924.417	4169
924.525	4063
924.633	4090
924.741	4843
924.849	3880
924.956	4154
925.064	3975
925.172	3880
925.279	3968
925.387	4036
925.494	4048
925.602	4188
925.709	4192
925.816	3998
925.924	4154
926.031	4200
926.138	4215
926.245	4207
926.352	4105
926.459	4242
926.566	4318
926.673	4143
926.779	4078
926.886	4078
926.993	3968
927.099	3983
927.206	3884
927.312	3899
927.419	4025
927.525	3983
927.631	4063
927.737	3983
927.843	3926
927.95	3869
928.056	3956
928.162	3953
928.267	4082
928.373	4664
928.479	4093
928.585	3926
928.69	4029
928.796	4074
928.901	3972
929.007	3869
929.112	3960
929.218	4006
929.323	3915
929.428	3964
929.533	4078
929.638	3888
929.743	3941
929.848	4071
929.953	3968
930.058	3953
930.163	3747
930.267	3838
930.372	4010
930.477	3762
930.581	4074
930.685	3972
930.79	3827
930.894	3861
930.998	3827
931.103	4044
931.207	3709
931.311	3679
931.415	3720
931.519	3545
931.623	3557
