Data from test_V78500241_984.txt Node
Date: Fri Mar 25 16:55:50 CST 2022
User: usil
Spectrometer: V785-0024
Trigger mode: 0
Integration Time (sec): 4.000000E-1
Scans to average: 1
Nonlinearity correction enabled: false
Boxcar width: 0
Storing dark spectrum: false
XAxis mode: Wavelengths
Number of Pixels in Spectrum: 1024
>>>>>Begin Spectral Data<<<<<
801.071	8046
801.214	7982
801.356	7894
801.499	7799
801.641	7753
801.783	7757
801.926	7894
802.068	7894
802.211	7928
802.353	7890
802.496	7871
802.638	7852
802.78	7864
802.923	7978
803.065	7811
803.208	7883
803.35	8012
803.492	8081
803.635	8145
803.777	8046
803.919	8012
804.061	8484
804.204	8142
804.346	8016
804.488	7909
804.63	8119
804.773	8005
804.915	8119
805.057	8233
805.199	8187
805.341	8157
805.483	8195
805.626	8092
805.768	8145
805.91	8195
806.052	8134
806.194	8088
806.336	8271
806.478	8016
806.62	8027
806.762	8138
806.904	8176
807.046	8419
807.188	8332
807.33	8195
807.472	8294
807.614	8123
807.756	8084
807.898	8008
808.04	7879
808.182	7837
808.324	7868
808.465	7898
808.607	8005
808.749	8046
808.891	8138
809.033	8263
809.174	8233
809.316	8081
809.458	8016
809.6	8005
809.741	8012
809.883	8035
810.025	8039
810.166	8035
810.308	7959
810.45	8008
810.591	7925
810.733	7746
810.875	7632
811.016	7499
811.158	7480
811.299	7590
811.441	7685
811.582	7662
811.724	7537
811.865	7491
812.007	7472
812.148	7609
812.29	7628
812.431	7727
812.573	7803
812.714	7932
812.855	8039
812.997	8153
813.138	8256
813.279	8157
813.421	8069
813.562	8031
813.703	7803
813.845	7715
813.986	7438
814.127	7324
814.268	7213
814.41	7190
814.551	7103
814.692	7118
814.833	7019
814.974	7107
815.115	7133
815.256	6916
815.397	6932
815.539	6970
815.68	6810
815.821	6764
815.962	6837
816.103	6859
816.244	6703
816.385	6616
816.526	6654
816.666	6475
816.807	6311
816.948	6429
817.089	6483
817.23	6388
817.371	6365
817.512	6327
817.653	6350
817.793	6437
817.934	6388
818.075	6395
818.216	6414
818.356	6422
818.497	6178
818.638	6133
818.778	6125
818.919	6095
819.06	6114
819.2	6300
819.341	6258
819.481	6350
819.622	6525
819.762	6715
819.903	6646
820.043	6593
820.184	6483
820.324	6517
820.465	6623
820.605	6658
820.746	6574
820.886	6490
821.026	6597
821.167	6722
821.307	6818
821.447	6703
821.588	6677
821.728	6540
821.868	6429
822.008	6323
822.149	6365
822.289	6323
822.429	6114
822.569	6102
822.709	6087
822.849	5912
822.99	5908
823.13	5885
823.27	5878
823.41	5695
823.55	5783
823.69	5752
823.83	5714
823.97	5649
824.11	5551
824.25	5505
824.389	5547
824.529	5570
824.669	5524
824.809	5646
824.949	5627
825.089	5596
825.228	5551
825.368	5395
825.508	5360
825.648	5345
825.787	5299
825.927	5345
826.067	5284
826.206	5296
826.346	5360
826.485	5383
826.625	5383
826.765	5535
826.904	5486
827.044	5128
827.183	5227
827.323	5067
827.462	5174
827.601	5166
827.741	5185
827.88	5223
828.02	5075
828.159	5261
828.298	5288
828.437	5334
828.577	5239
828.716	5440
828.855	5299
828.994	5151
829.134	5094
829.273	5124
829.412	5109
829.551	5098
829.69	5086
829.829	5254
829.968	5315
830.107	5235
830.246	5265
830.385	5136
830.524	5083
830.663	5037
830.802	4968
830.941	4854
831.08	4885
831.219	4953
831.357	4965
831.496	5151
831.635	4892
831.774	4797
831.913	4862
832.051	4717
832.19	4736
832.329	4812
832.467	4702
832.606	4603
832.744	4714
832.883	4717
833.022	4672
833.16	4774
833.299	4793
833.437	4759
833.576	4790
833.714	4805
833.852	4831
833.991	4831
834.129	4987
834.267	4957
834.406	4896
834.544	4919
834.682	4965
834.821	4957
834.959	5090
835.097	4934
835.235	5117
835.373	5045
835.511	5064
835.65	4999
835.788	5014
835.926	4877
836.064	4850
836.202	4904
836.34	5098
836.478	5189
836.615	5098
836.753	5204
836.891	5212
837.029	5246
837.167	5113
837.305	5121
837.443	5170
837.58	5029
837.718	5189
837.856	5204
837.993	5117
838.131	5208
838.269	5189
838.406	5204
838.544	5159
838.681	4987
838.819	5029
838.956	4850
839.094	4873
839.231	4968
839.369	5083
839.506	5414
839.643	5250
839.781	5041
839.918	5052
840.055	5041
840.193	5075
840.33	5048
840.467	5098
840.604	5132
840.742	5387
840.879	4953
841.016	5083
841.153	5143
841.29	5326
841.427	5303
841.564	5235
841.701	5360
841.838	5223
841.975	5239
842.112	5223
842.249	5147
842.385	5128
842.522	5307
842.659	5143
842.796	5109
842.933	5178
843.069	5094
843.206	5159
843.343	5273
843.479	5242
843.616	5208
843.752	5037
843.889	4995
844.025	5185
844.162	5033
844.298	5208
844.435	5033
844.571	5003
844.708	5178
844.844	5261
844.98	5318
845.117	5345
845.253	5147
845.389	5098
845.525	5162
845.661	5128
845.798	5033
845.934	5185
846.07	5037
846.206	5189
846.342	5303
846.478	5170
846.614	5010
846.75	4999
846.886	4927
847.022	5162
847.158	5014
847.294	5105
847.429	5178
847.565	5010
847.701	5334
847.837	4866
847.972	4820
848.108	4999
848.244	4957
848.379	4812
848.515	4714
848.65	4752
848.786	4755
848.921	4782
849.057	4908
849.192	4908
849.328	4831
849.463	4866
849.598	4809
849.734	4744
849.869	4710
850.004	4622
850.14	4691
850.275	4664
850.41	4554
850.545	4588
850.68	4641
850.815	4626
850.95	4649
851.085	4828
851.22	4744
851.355	4683
851.49	4668
851.625	4672
851.76	4618
851.895	4580
852.03	4542
852.165	4687
852.299	4733
852.434	4805
852.569	4816
852.703	4786
852.838	4892
852.973	4953
853.107	4984
853.242	4797
853.376	4691
853.511	4615
853.645	4622
853.78	4824
853.914	4649
854.048	4691
854.183	4675
854.317	4736
854.451	4839
854.585	4691
854.72	4694
854.854	4778
854.988	4615
855.122	4664
855.256	4531
855.39	4683
855.524	4782
855.658	4759
855.792	4691
855.926	4729
856.06	4740
856.194	4839
856.327	4694
856.461	4637
856.595	4615
856.729	4664
856.862	4828
856.996	4748
857.13	4755
857.263	4782
857.397	4816
857.53	4630
857.664	4733
857.797	4767
857.931	4790
858.064	4660
858.197	4767
858.331	4679
858.464	4622
858.597	4512
858.731	4641
858.864	4592
858.997	4649
859.13	4694
859.263	4694
859.396	4725
859.529	4577
859.662	4588
859.795	4538
859.928	4645
860.061	4790
860.194	4744
860.327	4588
860.46	4603
860.592	4733
860.725	4767
860.858	4717
860.99	4592
861.123	4523
861.256	4558
861.388	4653
861.521	5265
861.653	4512
861.786	4447
861.918	4497
862.05	4558
862.183	4607
862.315	4603
862.447	4687
862.58	4565
862.712	4451
862.844	4352
862.976	4462
863.108	4474
863.24	4862
863.372	4333
863.504	4417
863.636	4443
863.768	4504
863.9	4440
864.032	4405
864.164	4402
864.296	4493
864.428	4554
864.559	4569
864.691	4577
864.823	4550
864.954	4516
865.086	4512
865.217	4489
865.349	4398
865.48	4489
865.612	4508
865.743	4615
865.875	4538
866.006	4455
866.137	4512
866.269	4466
866.4	4432
866.531	4447
866.662	4405
866.793	4428
866.924	4443
867.055	4504
867.186	4516
867.317	4432
867.448	4375
867.579	4459
867.71	4402
867.841	4383
867.972	4504
868.103	4474
868.233	4485
868.364	4481
868.495	4508
868.625	4656
868.756	4717
868.886	4596
869.017	4611
869.147	4790
869.278	4778
869.408	4656
869.539	4637
869.669	4744
869.799	4675
869.929	4771
870.06	4786
870.19	4957
870.32	4919
870.45	4987
870.58	5029
870.71	5102
870.84	5128
870.97	4946
871.1	4965
871.23	5170
871.36	5136
871.489	5064
871.619	5071
871.749	5121
871.879	5178
872.008	5261
872.138	5075
872.267	4980
872.397	4873
872.526	4873
872.656	4759
872.785	4847
872.915	4965
873.044	5041
873.173	4957
873.303	4961
873.432	4953
873.561	4976
873.69	4904
873.819	4889
873.948	4938
874.077	4831
874.206	4771
874.335	4797
874.464	4957
874.593	5155
874.722	4995
874.851	5086
874.979	5071
875.108	5003
875.237	4965
875.365	4873
875.494	4850
875.623	4987
875.751	4847
875.88	4911
876.008	5041
876.136	4999
876.265	5220
876.393	5303
876.521	5280
876.65	5208
876.778	5197
876.906	5014
877.034	5014
877.162	5033
877.29	5025
877.418	5022
877.546	5060
877.674	5029
877.802	5022
877.93	5003
878.058	4915
878.185	4896
878.313	4942
878.441	5003
878.568	4790
878.696	4881
878.824	4942
878.951	5010
879.079	5117
879.206	5269
879.333	5102
879.461	5037
879.588	5025
879.715	5067
879.842	5208
879.97	5033
880.097	4843
880.224	4755
880.351	4790
880.478	4862
880.605	4847
880.732	4767
880.859	5079
880.986	4873
881.112	4915
881.239	4831
881.366	4672
881.493	4641
881.619	4615
881.746	4641
881.872	4664
881.999	4691
882.125	4706
882.252	4801
882.378	4835
882.505	4999
882.631	4824
882.757	4694
882.883	4771
883.01	4755
883.136	4691
883.262	4660
883.388	4611
883.514	4786
883.64	4805
883.766	4797
883.892	4714
884.018	4733
884.143	4930
884.269	5022
884.395	4755
884.52	4634
884.646	4649
884.772	4569
884.897	4569
885.023	4714
885.148	4809
885.274	4843
885.399	4790
885.524	4706
885.65	4679
885.775	4752
885.9	4752
886.025	4858
886.15	4835
886.275	4717
886.4	4672
886.525	4748
886.65	4672
886.775	4687
886.9	4908
887.025	5056
887.149	4854
887.274	4611
887.399	4618
887.523	4618
887.648	4588
887.773	4588
887.897	4782
888.021	4752
888.146	4683
888.27	4805
888.395	4911
888.519	4801
888.643	4812
888.767	4862
888.891	4698
889.015	4592
889.139	4687
889.263	4641
889.387	4733
889.511	4877
889.635	4843
889.759	4656
889.883	4679
890.006	4721
890.13	4786
890.254	4626
890.377	4683
890.501	4531
890.624	4538
890.748	4607
890.871	4531
890.995	4462
891.118	4394
891.241	4542
891.364	4535
891.488	4641
891.611	4481
891.734	4573
891.857	4615
891.98	4546
892.103	4660
892.226	4580
892.349	4527
892.471	4417
892.594	4550
892.717	4607
892.839	4550
892.962	4603
893.085	4668
893.207	4611
893.33	4474
893.452	4531
893.575	4637
893.697	4599
893.819	4812
893.941	4858
894.064	4759
894.186	4535
894.308	4599
894.43	4736
894.552	4835
894.674	4752
894.796	4611
894.918	4626
895.04	4584
895.161	4675
895.283	4637
895.405	4603
895.526	4649
895.648	4672
895.769	4706
895.891	4729
896.012	4725
896.134	4752
896.255	4687
896.376	4573
896.498	4615
896.619	4675
896.74	4626
896.861	4622
896.982	4938
897.103	5083
897.224	4839
897.345	4710
897.466	4660
897.587	4759
897.708	4854
897.828	4824
897.949	4698
898.07	4542
898.19	4645
898.311	4774
898.431	4744
898.552	4664
898.672	4881
898.792	4835
898.913	4725
899.033	4584
899.153	4561
899.273	4451
899.393	4546
899.513	4573
899.633	4493
899.753	4554
899.873	4542
899.993	4615
900.113	4588
900.232	4630
900.352	4565
900.472	4500
900.591	4436
900.711	4466
900.83	4451
900.95	4630
901.069	4710
901.189	4550
901.308	4356
901.427	4344
901.546	4341
901.665	4409
901.784	4573
901.904	4413
902.023	4230
902.141	4211
902.26	4166
902.379	4314
902.498	4234
902.617	4242
902.735	4386
902.854	4447
902.973	4348
903.091	4200
903.21	4234
903.328	4314
903.446	4246
903.565	4238
903.683	4375
903.801	4242
903.919	4428
904.038	4455
904.156	4306
904.274	4455
904.392	4447
904.51	4413
904.627	4451
904.745	4588
904.863	4634
904.981	4402
905.098	4367
905.216	4337
905.334	4402
905.451	4481
905.569	4481
905.686	4523
905.803	4573
905.921	4417
906.038	4584
906.155	4436
906.272	4394
906.389	4462
906.506	4348
906.623	4383
906.74	4398
906.857	4299
906.974	4356
907.091	4542
907.208	4729
907.324	4577
907.441	4497
907.557	4348
907.674	4360
907.79	4284
907.907	4421
908.023	4485
908.139	4481
908.256	4421
908.372	4466
908.488	4489
908.604	4333
908.72	4341
908.836	4360
908.952	4356
909.068	4432
909.184	4584
909.3	4485
909.415	4554
909.531	4569
909.647	4333
909.762	4379
909.878	4329
909.993	4405
910.108	4394
910.224	4436
910.339	4455
910.454	4383
910.57	4352
910.685	4329
910.8	4599
910.915	4580
911.03	4493
911.145	4344
911.259	4360
911.374	4383
911.489	4276
911.604	4314
911.718	4143
911.833	4211
911.947	4082
912.062	3979
912.176	4215
912.291	4242
912.405	4253
912.519	4504
912.633	4508
912.748	4356
912.862	4284
912.976	4169
913.09	4101
913.204	4192
913.318	4242
913.431	4371
913.545	4348
913.659	4451
913.772	4371
913.886	4287
914	4257
914.113	4344
914.226	4508
914.34	4352
914.453	4242
914.566	4440
914.68	4352
914.793	4325
914.906	4181
915.019	4139
915.132	4071
915.245	4177
915.358	4227
915.47	4249
915.583	4280
915.696	4318
915.809	4421
915.921	4440
916.034	4280
916.146	4272
916.259	4284
916.371	4360
916.483	4386
916.595	4291
916.708	4360
916.82	4341
916.932	4341
917.044	4363
917.156	4341
917.268	4249
917.38	4337
917.491	4329
917.603	4375
917.715	4466
917.826	4466
917.938	4421
918.049	4242
918.161	4424
918.272	4584
918.384	4573
918.495	4519
918.606	4333
918.717	4268
918.828	4322
918.939	4402
919.05	4287
919.161	4383
919.272	4158
919.383	4257
919.494	4459
919.604	4691
919.715	4417
919.826	4367
919.936	4432
920.047	4596
920.157	4527
920.267	4748
920.378	4584
920.488	4542
920.598	4736
920.708	4927
920.818	4812
920.928	4801
921.038	5003
921.148	4927
921.258	4653
921.368	4569
921.477	4516
921.587	4500
921.697	4386
921.806	4561
921.916	4455
922.025	4272
922.134	4333
922.244	4276
922.353	4405
922.462	4219
922.571	4150
922.68	4044
922.789	4040
922.898	4086
923.007	4010
923.116	4135
923.224	4135
923.333	4116
923.442	4017
923.55	4013
923.659	4055
923.767	4150
923.876	4051
923.984	4128
924.092	4086
924.201	4124
924.309	4109
924.417	4188
924.525	4131
924.633	4090
924.741	5048
924.849	3964
924.956	4181
925.064	4025
925.172	3945
925.279	3991
925.387	4071
925.494	4071
925.602	4246
925.709	4234
925.816	4082
925.924	4181
926.031	4299
926.138	4192
926.245	4207
926.352	4131
926.459	4295
926.566	4356
926.673	4162
926.779	4139
926.886	4097
926.993	3979
927.099	3987
927.206	4006
927.312	3983
927.419	4143
927.525	4040
927.631	4116
927.737	4017
927.843	3975
927.95	3880
928.056	3964
928.162	4044
928.267	4063
928.373	4710
928.479	4135
928.585	3911
928.69	4036
928.796	4086
928.901	4032
929.007	3880
929.112	4044
929.218	4010
929.323	3972
929.428	3956
929.533	4143
929.638	3960
929.743	3979
929.848	4082
929.953	4055
930.058	3941
930.163	3808
930.267	3838
930.372	3994
930.477	3869
930.581	4116
930.685	3987
930.79	3850
930.894	3918
930.998	3896
931.103	4051
931.207	3766
931.311	3713
931.415	3720
931.519	3523
931.623	3587
