Data from test_V78500241_2637.txt Node
Date: Fri Mar 25 17:07:20 CST 2022
User: usil
Spectrometer: V785-0024
Trigger mode: 0
Integration Time (sec): 4.000000E-1
Scans to average: 1
Nonlinearity correction enabled: false
Boxcar width: 0
Storing dark spectrum: false
XAxis mode: Wavelengths
Number of Pixels in Spectrum: 1024
>>>>>Begin Spectral Data<<<<<
801.071	8077
801.214	8016
801.356	7921
801.499	7890
801.641	7776
801.783	7826
801.926	8012
802.068	7989
802.211	8046
802.353	8065
802.496	7959
802.638	7955
802.78	7970
802.923	8050
803.065	7887
803.208	7925
803.35	7974
803.492	8126
803.635	8210
803.777	8142
803.919	8126
804.061	8495
804.204	8161
804.346	8145
804.488	7974
804.63	8088
804.773	8084
804.915	8180
805.057	8339
805.199	8168
805.341	8229
805.483	8358
805.626	8343
805.768	8145
805.91	8240
806.052	8298
806.194	8096
806.336	8294
806.478	8115
806.62	8001
806.762	8180
806.904	8237
807.046	8549
807.188	8438
807.33	8313
807.472	8343
807.614	8168
807.756	8145
807.898	8046
808.04	7932
808.182	7947
808.324	7852
808.465	7951
808.607	8111
808.749	8130
808.891	8237
809.033	8389
809.174	8218
809.316	8103
809.458	8138
809.6	8050
809.741	8107
809.883	8084
810.025	8100
810.166	8130
810.308	8035
810.45	8035
810.591	7845
810.733	7769
810.875	7731
811.016	7609
811.158	7502
811.299	7662
811.441	7780
811.582	7712
811.724	7582
811.865	7605
812.007	7597
812.148	7636
812.29	7620
812.431	7803
812.573	7864
812.714	8008
812.855	8161
812.997	8248
813.138	8237
813.279	8199
813.421	8077
813.562	8001
813.703	7917
813.845	7738
813.986	7521
814.127	7285
814.268	7274
814.41	7270
814.551	7221
814.692	7221
814.833	7050
814.974	7110
815.115	7194
815.256	6993
815.397	6958
815.539	6977
815.68	6909
815.821	6795
815.962	6924
816.103	6878
816.244	6757
816.385	6646
816.526	6616
816.666	6517
816.807	6300
816.948	6498
817.089	6494
817.23	6456
817.371	6391
817.512	6441
817.653	6414
817.793	6418
817.934	6380
818.075	6494
818.216	6460
818.356	6395
818.497	6273
818.638	6159
818.778	6209
818.919	6194
819.06	6155
819.2	6319
819.341	6365
819.481	6407
819.622	6593
819.762	6734
819.903	6707
820.043	6601
820.184	6620
820.324	6620
820.465	6806
820.605	6707
820.746	6681
820.886	6593
821.026	6741
821.167	6791
821.307	6779
821.447	6848
821.588	6738
821.728	6658
821.868	6532
822.008	6384
822.149	6407
822.289	6395
822.429	6175
822.569	6148
822.709	6152
822.849	5999
822.99	5999
823.13	5984
823.27	5939
823.41	5817
823.55	5809
823.69	5798
823.83	5855
823.97	5634
824.11	5570
824.25	5490
824.389	5592
824.529	5688
824.669	5570
824.809	5608
824.949	5665
825.089	5665
825.228	5608
825.368	5440
825.508	5360
825.648	5376
825.787	5406
825.927	5421
826.067	5337
826.206	5299
826.346	5417
826.485	5429
826.625	5379
826.765	5535
826.904	5497
827.044	5303
827.183	5216
827.323	5162
827.462	5201
827.601	5223
827.741	5227
827.88	5235
828.02	5155
828.159	5273
828.298	5303
828.437	5398
828.577	5311
828.716	5478
828.855	5349
828.994	5181
829.134	5193
829.273	5204
829.412	5159
829.551	5212
829.69	5162
829.829	5265
829.968	5353
830.107	5311
830.246	5311
830.385	5201
830.524	5151
830.663	5105
830.802	5037
830.941	4911
831.08	4896
831.219	5010
831.357	5014
831.496	5132
831.635	4995
831.774	4885
831.913	4862
832.051	4725
832.19	4759
832.329	4870
832.467	4698
832.606	4683
832.744	4763
832.883	4744
833.022	4748
833.16	4809
833.299	4809
833.437	4889
833.576	4866
833.714	4877
833.852	4896
833.991	4885
834.129	4987
834.267	4987
834.406	4915
834.544	4972
834.682	5022
834.821	4965
834.959	5185
835.097	5003
835.235	5181
835.373	5143
835.511	5170
835.65	5060
835.788	5075
835.926	4927
836.064	4900
836.202	4961
836.34	5189
836.478	5258
836.615	5117
836.753	5231
836.891	5277
837.029	5284
837.167	5242
837.305	5178
837.443	5155
837.58	5109
837.718	5311
837.856	5201
837.993	5162
838.131	5261
838.269	5242
838.406	5193
838.544	5197
838.681	5041
838.819	5003
838.956	4930
839.094	4949
839.231	5018
839.369	5105
839.506	5421
839.643	5303
839.781	5075
839.918	5113
840.055	5124
840.193	5090
840.33	5121
840.467	5143
840.604	5181
840.742	5467
840.879	5109
841.016	5155
841.153	5159
841.29	5368
841.427	5349
841.564	5318
841.701	5349
841.838	5322
841.975	5299
842.112	5299
842.249	5128
842.385	5162
842.522	5322
842.659	5166
842.796	5204
842.933	5147
843.069	5170
843.206	5174
843.343	5337
843.479	5223
843.616	5258
843.752	5060
843.889	5003
844.025	5235
844.162	5003
844.298	5246
844.435	5124
844.571	5090
844.708	5220
844.844	5318
844.98	5368
845.117	5288
845.253	5147
845.389	5105
845.525	5212
845.661	5166
845.798	5060
845.934	5159
846.07	5079
846.206	5235
846.342	5357
846.478	5178
846.614	5048
846.75	5018
846.886	4957
847.022	5166
847.158	5056
847.294	5079
847.429	5140
847.565	5090
847.701	5353
847.837	4889
847.972	4831
848.108	4968
848.244	4927
848.379	4828
848.515	4748
848.65	4736
848.786	4835
848.921	4828
849.057	4904
849.192	4911
849.328	4858
849.463	4870
849.598	4767
849.734	4782
849.869	4714
850.004	4687
850.14	4694
850.275	4603
850.41	4546
850.545	4573
850.68	4622
850.815	4672
850.95	4714
851.085	4866
851.22	4763
851.355	4668
851.49	4626
851.625	4664
851.76	4710
851.895	4569
852.03	4523
852.165	4645
852.299	4733
852.434	4771
852.569	4763
852.703	4740
852.838	4847
852.973	4965
853.107	4980
853.242	4759
853.376	4675
853.511	4580
853.645	4637
853.78	4828
853.914	4717
854.048	4698
854.183	4649
854.317	4679
854.451	4835
854.585	4710
854.72	4622
854.854	4774
854.988	4599
855.122	4649
855.256	4550
855.39	4656
855.524	4812
855.658	4748
855.792	4687
855.926	4717
856.06	4717
856.194	4793
856.327	4736
856.461	4656
856.595	4656
856.729	4622
856.862	4759
856.996	4714
857.13	4721
857.263	4767
857.397	4820
857.53	4675
857.664	4736
857.797	4733
857.931	4733
858.064	4744
858.197	4694
858.331	4626
858.464	4634
858.597	4531
858.731	4675
858.864	4656
858.997	4607
859.13	4672
859.263	4668
859.396	4714
859.529	4588
859.662	4558
859.795	4516
859.928	4603
860.061	4778
860.194	4797
860.327	4599
860.46	4599
860.592	4721
860.725	4740
860.858	4729
860.99	4607
861.123	4516
861.256	4523
861.388	4645
861.521	5433
861.653	4489
861.786	4470
861.918	4493
862.05	4523
862.183	4542
862.315	4615
862.447	4706
862.58	4588
862.712	4394
862.844	4344
862.976	4421
863.108	4481
863.24	4809
863.372	4284
863.504	4417
863.636	4451
863.768	4508
863.9	4451
864.032	4424
864.164	4405
864.296	4474
864.428	4516
864.559	4584
864.691	4554
864.823	4527
864.954	4516
865.086	4516
865.217	4478
865.349	4436
865.48	4443
865.612	4470
865.743	4637
865.875	4459
866.006	4462
866.137	4516
866.269	4394
866.4	4462
866.531	4459
866.662	4398
866.793	4421
866.924	4432
867.055	4485
867.186	4470
867.317	4383
867.448	4390
867.579	4424
867.71	4371
867.841	4367
867.972	4508
868.103	4508
868.233	4413
868.364	4436
868.495	4504
868.625	4691
868.756	4767
868.886	4554
869.017	4611
869.147	4805
869.278	4797
869.408	4656
869.539	4668
869.669	4683
869.799	4634
869.929	4809
870.06	4763
870.19	4946
870.32	4889
870.45	4965
870.58	5010
870.71	5083
870.84	5090
870.97	4953
871.1	4900
871.23	5174
871.36	5132
871.489	5048
871.619	5064
871.749	5098
871.879	5113
872.008	5159
872.138	5045
872.267	5003
872.397	4892
872.526	4820
872.656	4698
872.785	4774
872.915	4961
873.044	5045
873.173	4934
873.303	4961
873.432	4938
873.561	4957
873.69	4854
873.819	4831
873.948	4927
874.077	4828
874.206	4759
874.335	4786
874.464	4942
874.593	5071
874.722	4999
874.851	5151
874.979	5090
875.108	5079
875.237	4957
875.365	4854
875.494	4854
875.623	4987
875.751	4850
875.88	4885
876.008	4987
876.136	5052
876.265	5197
876.393	5353
876.521	5235
876.65	5288
876.778	5212
876.906	5064
877.034	5052
877.162	5052
877.29	5052
877.418	5075
877.546	5037
877.674	5098
877.802	4995
877.93	4984
878.058	4961
878.185	4904
878.313	4995
878.441	4987
878.568	4828
878.696	4858
878.824	4949
878.951	4961
879.079	5143
879.206	5372
879.333	5102
879.461	5010
879.588	5010
879.715	5166
879.842	5216
879.97	5037
880.097	4824
880.224	4729
880.351	4797
880.478	4816
880.605	4805
880.732	4771
880.859	5083
880.986	4911
881.112	4885
881.239	4805
881.366	4679
881.493	4596
881.619	4584
881.746	4706
881.872	4649
881.999	4603
882.125	4679
882.252	4854
882.378	4858
882.505	4942
882.631	4782
882.757	4645
882.883	4771
883.01	4733
883.136	4634
883.262	4596
883.388	4618
883.514	4850
883.64	4866
883.766	4778
883.892	4683
884.018	4721
884.143	4915
884.269	4999
884.395	4721
884.52	4679
884.646	4630
884.772	4573
884.897	4523
885.023	4687
885.148	4809
885.274	4854
885.399	4809
885.524	4752
885.65	4694
885.775	4790
885.9	4691
886.025	4835
886.15	4850
886.275	4687
886.4	4675
886.525	4740
886.65	4691
886.775	4683
886.9	4892
887.025	5010
887.149	4828
887.274	4615
887.399	4611
887.523	4634
887.648	4558
887.773	4615
887.897	4759
888.021	4786
888.146	4714
888.27	4797
888.395	4889
888.519	4801
888.643	4801
888.767	4824
888.891	4656
889.015	4588
889.139	4603
889.263	4641
889.387	4752
889.511	4877
889.635	4767
889.759	4580
889.883	4637
890.006	4763
890.13	4843
890.254	4626
890.377	4679
890.501	4523
890.624	4546
890.748	4653
890.871	4519
890.995	4417
891.118	4352
891.241	4558
891.364	4561
891.488	4615
891.611	4508
891.734	4558
891.857	4588
891.98	4516
892.103	4660
892.226	4588
892.349	4523
892.471	4394
892.594	4592
892.717	4599
892.839	4573
892.962	4577
893.085	4618
893.207	4603
893.33	4474
893.452	4546
893.575	4649
893.697	4512
893.819	4786
893.941	4778
894.064	4820
894.186	4546
894.308	4569
894.43	4721
894.552	4816
894.674	4740
894.796	4569
894.918	4596
895.04	4565
895.161	4729
895.283	4706
895.405	4561
895.526	4630
895.648	4698
895.769	4683
895.891	4687
896.012	4771
896.134	4733
896.255	4691
896.376	4599
896.498	4592
896.619	4683
896.74	4672
896.861	4660
896.982	4949
897.103	5117
897.224	4850
897.345	4744
897.466	4710
897.587	4710
897.708	4824
897.828	4786
897.949	4702
898.07	4550
898.19	4653
898.311	4831
898.431	4710
898.552	4721
898.672	4843
898.792	4820
898.913	4725
899.033	4691
899.153	4485
899.273	4398
899.393	4493
899.513	4519
899.633	4512
899.753	4538
899.873	4508
899.993	4599
900.113	4596
900.232	4573
900.352	4546
900.472	4451
900.591	4409
900.711	4493
900.83	4466
900.95	4618
901.069	4702
901.189	4527
901.308	4325
901.427	4322
901.546	4379
901.665	4470
901.784	4497
901.904	4383
902.023	4291
902.141	4200
902.26	4166
902.379	4295
902.498	4276
902.617	4196
902.735	4344
902.854	4413
902.973	4337
903.091	4185
903.21	4249
903.328	4249
903.446	4249
903.565	4280
903.683	4405
903.801	4268
903.919	4375
904.038	4428
904.156	4379
904.274	4432
904.392	4390
904.51	4409
904.627	4428
904.745	4542
904.863	4622
904.981	4417
905.098	4287
905.216	4352
905.334	4417
905.451	4428
905.569	4440
905.686	4519
905.803	4561
905.921	4436
906.038	4500
906.155	4500
906.272	4375
906.389	4485
906.506	4379
906.623	4352
906.74	4379
906.857	4322
906.974	4390
907.091	4577
907.208	4691
907.324	4618
907.441	4474
907.557	4363
907.674	4352
907.79	4329
907.907	4394
908.023	4470
908.139	4538
908.256	4462
908.372	4470
908.488	4451
908.604	4325
908.72	4341
908.836	4337
908.952	4318
909.068	4451
909.184	4584
909.3	4481
909.415	4565
909.531	4535
909.647	4375
909.762	4390
909.878	4318
909.993	4459
910.108	4428
910.224	4398
910.339	4466
910.454	4455
910.57	4356
910.685	4325
910.8	4656
910.915	4603
911.03	4504
911.145	4360
911.259	4310
911.374	4379
911.489	4348
911.604	4230
911.718	4204
911.833	4185
911.947	4048
912.062	4017
912.176	4227
912.291	4246
912.405	4215
912.519	4478
912.633	4481
912.748	4390
912.862	4272
912.976	4188
913.09	4101
913.204	4207
913.318	4261
913.431	4348
913.545	4344
913.659	4478
913.772	4306
913.886	4219
914	4223
914.113	4352
914.226	4421
914.34	4413
914.453	4272
914.566	4398
914.68	4284
914.793	4352
914.906	4150
915.019	4173
915.132	4128
915.245	4188
915.358	4196
915.47	4234
915.583	4299
915.696	4287
915.809	4363
915.921	4375
916.034	4299
916.146	4223
916.259	4234
916.371	4371
916.483	4352
916.595	4249
916.708	4310
916.82	4325
916.932	4341
917.044	4348
917.156	4306
917.268	4211
917.38	4287
917.491	4249
917.603	4325
917.715	4432
917.826	4440
917.938	4386
918.049	4242
918.161	4386
918.272	4550
918.384	4554
918.495	4474
918.606	4314
918.717	4188
918.828	4363
918.939	4363
919.05	4257
919.161	4329
919.272	4120
919.383	4223
919.494	4443
919.604	4588
919.715	4459
919.826	4314
919.936	4424
920.047	4535
920.157	4516
920.267	4714
920.378	4558
920.488	4466
920.598	4729
920.708	4896
920.818	4721
920.928	4771
921.038	4953
921.148	4881
921.258	4634
921.368	4569
921.477	4508
921.587	4451
921.697	4363
921.806	4542
921.916	4466
922.025	4291
922.134	4242
922.244	4261
922.353	4318
922.462	4177
922.571	4116
922.68	3979
922.789	3960
922.898	4032
923.007	3994
923.116	4109
923.224	4078
923.333	4078
923.442	4002
923.55	4006
923.659	4051
923.767	4078
923.876	3994
923.984	4101
924.092	4006
924.201	4074
924.309	4097
924.417	4154
924.525	4036
924.633	4135
924.741	5067
924.849	3903
924.956	4124
925.064	3968
925.172	3892
925.279	3972
925.387	4063
925.494	4055
925.602	4227
925.709	4150
925.816	4006
925.924	4124
926.031	4196
926.138	4147
926.245	4207
926.352	4093
926.459	4242
926.566	4329
926.673	4185
926.779	4109
926.886	4101
926.993	4006
927.099	3964
927.206	3953
927.312	3926
927.419	4067
927.525	4017
927.631	4112
927.737	3937
927.843	3937
927.95	3850
928.056	3949
928.162	3964
928.267	4059
928.373	4607
928.479	4143
928.585	3888
928.69	4051
928.796	4105
928.901	3964
929.007	3835
929.112	3994
929.218	3987
929.323	3903
929.428	3956
929.533	4101
929.638	3850
929.743	3987
929.848	4013
929.953	4021
930.058	3945
930.163	3762
930.267	3838
930.372	3983
930.477	3816
930.581	4074
930.685	3926
930.79	3781
930.894	3945
930.998	3800
931.103	4017
931.207	3713
931.311	3686
931.415	3701
931.519	3526
931.623	3523
