Data from test_V78500241_1421.txt Node
Date: Fri Mar 25 16:58:52 CST 2022
User: usil
Spectrometer: V785-0024
Trigger mode: 0
Integration Time (sec): 4.000000E-1
Scans to average: 1
Nonlinearity correction enabled: false
Boxcar width: 0
Storing dark spectrum: false
XAxis mode: Wavelengths
Number of Pixels in Spectrum: 1024
>>>>>Begin Spectral Data<<<<<
801.071	8035
801.214	8046
801.356	7887
801.499	7906
801.641	7807
801.783	7833
801.926	8054
802.068	8039
802.211	7982
802.353	7963
802.496	7803
802.638	7856
802.78	7978
802.923	7955
803.065	7925
803.208	7871
803.35	7940
803.492	8149
803.635	8176
803.777	8111
803.919	8271
804.061	8495
804.204	8164
804.346	8164
804.488	7989
804.63	8138
804.773	8058
804.915	8157
805.057	8294
805.199	8142
805.341	8191
805.483	8279
805.626	8267
805.768	8202
805.91	8206
806.052	8199
806.194	8157
806.336	8347
806.478	8123
806.62	8084
806.762	8183
806.904	8282
807.046	8518
807.188	8434
807.33	8362
807.472	8294
807.614	8107
807.756	8088
807.898	8043
808.04	7917
808.182	7955
808.324	7906
808.465	7887
808.607	8130
808.749	8100
808.891	8210
809.033	8305
809.174	8183
809.316	8088
809.458	8092
809.6	7982
809.741	8084
809.883	8111
810.025	8069
810.166	8043
810.308	8065
810.45	8005
810.591	7898
810.733	7776
810.875	7689
811.016	7544
811.158	7514
811.299	7624
811.441	7765
811.582	7715
811.724	7609
811.865	7563
812.007	7578
812.148	7556
812.29	7616
812.431	7761
812.573	7890
812.714	7993
812.855	8176
812.997	8248
813.138	8343
813.279	8240
813.421	8130
813.562	8043
813.703	7849
813.845	7666
813.986	7441
814.127	7251
814.268	7251
814.41	7198
814.551	7103
814.692	7236
814.833	7069
814.974	7145
815.115	7137
815.256	6958
815.397	6958
815.539	6951
815.68	6848
815.821	6772
815.962	6886
816.103	6802
816.244	6772
816.385	6631
816.526	6620
816.666	6509
816.807	6323
816.948	6441
817.089	6467
817.23	6437
817.371	6365
817.512	6426
817.653	6407
817.793	6380
817.934	6410
818.075	6509
818.216	6395
818.356	6445
818.497	6243
818.638	6125
818.778	6163
818.919	6163
819.06	6155
819.2	6304
819.341	6296
819.481	6372
819.622	6551
819.762	6722
819.903	6722
820.043	6589
820.184	6589
820.324	6616
820.465	6696
820.605	6700
820.746	6688
820.886	6479
821.026	6673
821.167	6738
821.307	6757
821.447	6802
821.588	6703
821.728	6635
821.868	6490
822.008	6311
822.149	6414
822.289	6403
822.429	6136
822.569	6083
822.709	6163
822.849	5950
822.99	5942
823.13	5950
823.27	5920
823.41	5767
823.55	5783
823.69	5809
823.83	5824
823.97	5665
824.11	5611
824.25	5551
824.389	5524
824.529	5585
824.669	5581
824.809	5619
824.949	5695
825.089	5627
825.228	5577
825.368	5440
825.508	5368
825.648	5345
825.787	5391
825.927	5433
826.067	5269
826.206	5337
826.346	5414
826.485	5395
826.625	5383
826.765	5562
826.904	5459
827.044	5273
827.183	5212
827.323	5113
827.462	5261
827.601	5132
827.741	5166
827.88	5216
828.02	5136
828.159	5284
828.298	5318
828.437	5349
828.577	5337
828.716	5448
828.855	5318
828.994	5197
829.134	5136
829.273	5212
829.412	5181
829.551	5109
829.69	5189
829.829	5227
829.968	5425
830.107	5337
830.246	5277
830.385	5193
830.524	5128
830.663	5143
830.802	4968
830.941	4930
831.08	4927
831.219	4980
831.357	4987
831.496	5132
831.635	4930
831.774	4904
831.913	4824
832.051	4748
832.19	4710
832.329	4862
832.467	4672
832.606	4672
832.744	4721
832.883	4763
833.022	4729
833.16	4736
833.299	4820
833.437	4778
833.576	4828
833.714	4885
833.852	4858
833.991	4866
834.129	4980
834.267	4976
834.406	4911
834.544	4984
834.682	4991
834.821	4938
834.959	5170
835.097	5056
835.235	5189
835.373	5045
835.511	5029
835.65	5045
835.788	5041
835.926	4911
836.064	4843
836.202	4957
836.34	5128
836.478	5242
836.615	5128
836.753	5159
836.891	5269
837.029	5227
837.167	5235
837.305	5258
837.443	5121
837.58	5113
837.718	5242
837.856	5212
837.993	5140
838.131	5269
838.269	5121
838.406	5204
838.544	5189
838.681	5025
838.819	5045
838.956	4904
839.094	4854
839.231	4927
839.369	5098
839.506	5395
839.643	5250
839.781	5090
839.918	5079
840.055	5117
840.193	5060
840.33	5117
840.467	5136
840.604	5204
840.742	5478
840.879	5071
841.016	5090
841.153	5204
841.29	5360
841.427	5337
841.564	5322
841.701	5341
841.838	5311
841.975	5231
842.112	5254
842.249	5124
842.385	5060
842.522	5280
842.659	5189
842.796	5117
842.933	5181
843.069	5155
843.206	5143
843.343	5353
843.479	5254
843.616	5246
843.752	5048
843.889	5018
844.025	5204
844.162	5041
844.298	5212
844.435	5037
844.571	5056
844.708	5220
844.844	5250
844.98	5372
845.117	5364
845.253	5143
845.389	5121
845.525	5185
845.661	5136
845.798	5094
845.934	5170
846.07	5071
846.206	5189
846.342	5280
846.478	5162
846.614	5018
846.75	4938
846.886	4900
847.022	5102
847.158	5022
847.294	5006
847.429	5117
847.565	5052
847.701	5284
847.837	4866
847.972	4805
848.108	4984
848.244	4965
848.379	4816
848.515	4748
848.65	4683
848.786	4763
848.921	4782
849.057	4904
849.192	4904
849.328	4812
849.463	4839
849.598	4740
849.734	4782
849.869	4729
850.004	4645
850.14	4672
850.275	4664
850.41	4531
850.545	4550
850.68	4615
850.815	4622
850.95	4634
851.085	4812
851.22	4774
851.355	4698
851.49	4641
851.625	4649
851.76	4687
851.895	4622
852.03	4523
852.165	4649
852.299	4729
852.434	4820
852.569	4755
852.703	4797
852.838	4858
852.973	4976
853.107	4889
853.242	4717
853.376	4691
853.511	4561
853.645	4611
853.78	4835
853.914	4717
854.048	4683
854.183	4634
854.317	4679
854.451	4877
854.585	4694
854.72	4630
854.854	4752
854.988	4622
855.122	4653
855.256	4531
855.39	4691
855.524	4748
855.658	4733
855.792	4748
855.926	4733
856.06	4752
856.194	4816
856.327	4672
856.461	4618
856.595	4634
856.729	4664
856.862	4721
856.996	4706
857.13	4755
857.263	4733
857.397	4786
857.53	4664
857.664	4717
857.797	4767
857.931	4767
858.064	4672
858.197	4744
858.331	4679
858.464	4580
858.597	4516
858.731	4611
858.864	4637
858.997	4622
859.13	4603
859.263	4744
859.396	4706
859.529	4580
859.662	4554
859.795	4516
859.928	4630
860.061	4809
860.194	4744
860.327	4611
860.46	4550
860.592	4702
860.725	4733
860.858	4725
860.99	4580
861.123	4508
861.256	4531
861.388	4588
861.521	5406
861.653	4508
861.786	4436
861.918	4447
862.05	4531
862.183	4523
862.315	4611
862.447	4668
862.58	4561
862.712	4421
862.844	4291
862.976	4504
863.108	4417
863.24	4927
863.372	4329
863.504	4424
863.636	4413
863.768	4500
863.9	4447
864.032	4341
864.164	4363
864.296	4428
864.428	4497
864.559	4573
864.691	4497
864.823	4493
864.954	4489
865.086	4504
865.217	4462
865.349	4462
865.48	4409
865.612	4512
865.743	4641
865.875	4500
866.006	4432
866.137	4436
866.269	4447
866.4	4428
866.531	4383
866.662	4367
866.793	4386
866.924	4421
867.055	4451
867.186	4493
867.317	4363
867.448	4337
867.579	4379
867.71	4405
867.841	4322
867.972	4497
868.103	4455
868.233	4440
868.364	4459
868.495	4459
868.625	4653
868.756	4790
868.886	4558
869.017	4603
869.147	4839
869.278	4721
869.408	4649
869.539	4653
869.669	4714
869.799	4679
869.929	4748
870.06	4729
870.19	4953
870.32	4938
870.45	4911
870.58	4999
870.71	5132
870.84	5075
870.97	4961
871.1	4904
871.23	5151
871.36	5159
871.489	5033
871.619	5045
871.749	5064
871.879	5094
872.008	5201
872.138	5006
872.267	4999
872.397	4904
872.526	4790
872.656	4733
872.785	4782
872.915	4999
873.044	5014
873.173	4927
873.303	4949
873.432	4980
873.561	4915
873.69	4934
873.819	4850
873.948	4915
874.077	4824
874.206	4744
874.335	4828
874.464	4885
874.593	5079
874.722	4949
874.851	5079
874.979	5056
875.108	5033
875.237	4972
875.365	4854
875.494	4934
875.623	4934
875.751	4831
875.88	4900
876.008	4980
876.136	5037
876.265	5128
876.393	5273
876.521	5223
876.65	5227
876.778	5147
876.906	5060
877.034	5045
877.162	5006
877.29	4987
877.418	5018
877.546	5064
877.674	4987
877.802	5071
877.93	5041
878.058	4938
878.185	4850
878.313	4938
878.441	4930
878.568	4782
878.696	4854
878.824	4927
878.951	4946
879.079	5143
879.206	5239
879.333	5132
879.461	4957
879.588	5048
879.715	5132
879.842	5204
879.97	5033
880.097	4835
880.224	4759
880.351	4793
880.478	4843
880.605	4835
880.732	4843
880.859	5071
880.986	4908
881.112	4873
881.239	4793
881.366	4615
881.493	4618
881.619	4584
881.746	4588
881.872	4584
881.999	4637
882.125	4653
882.252	4786
882.378	4847
882.505	4972
882.631	4771
882.757	4664
882.883	4755
883.01	4691
883.136	4664
883.262	4607
883.388	4588
883.514	4748
883.64	4854
883.766	4782
883.892	4694
884.018	4687
884.143	4900
884.269	5010
884.395	4660
884.52	4660
884.646	4710
884.772	4550
884.897	4523
885.023	4660
885.148	4778
885.274	4843
885.399	4812
885.524	4714
885.65	4694
885.775	4755
885.9	4748
886.025	4847
886.15	4767
886.275	4714
886.4	4694
886.525	4714
886.65	4603
886.775	4706
886.9	4961
887.025	5033
887.149	4820
887.274	4649
887.399	4592
887.523	4569
887.648	4546
887.773	4584
887.897	4694
888.021	4790
888.146	4649
888.27	4812
888.395	4911
888.519	4763
888.643	4839
888.767	4816
888.891	4649
889.015	4588
889.139	4611
889.263	4603
889.387	4733
889.511	4850
889.635	4797
889.759	4630
889.883	4622
890.006	4736
890.13	4831
890.254	4660
890.377	4672
890.501	4527
890.624	4554
890.748	4656
890.871	4523
890.995	4398
891.118	4371
891.241	4542
891.364	4538
891.488	4641
891.611	4485
891.734	4538
891.857	4603
891.98	4512
892.103	4645
892.226	4542
892.349	4558
892.471	4485
892.594	4519
892.717	4634
892.839	4596
892.962	4580
893.085	4641
893.207	4653
893.33	4459
893.452	4527
893.575	4641
893.697	4611
893.819	4847
893.941	4824
894.064	4763
894.186	4580
894.308	4542
894.43	4717
894.552	4831
894.674	4740
894.796	4531
894.918	4603
895.04	4558
895.161	4698
895.283	4679
895.405	4546
895.526	4630
895.648	4664
895.769	4687
895.891	4694
896.012	4733
896.134	4717
896.255	4649
896.376	4607
896.498	4607
896.619	4653
896.74	4607
896.861	4599
896.982	4942
897.103	5045
897.224	4828
897.345	4767
897.466	4660
897.587	4729
897.708	4835
897.828	4778
897.949	4649
898.07	4516
898.19	4603
898.311	4843
898.431	4683
898.552	4679
898.672	4816
898.792	4790
898.913	4752
899.033	4675
899.153	4519
899.273	4417
899.393	4508
899.513	4508
899.633	4512
899.753	4538
899.873	4531
899.993	4573
900.113	4535
900.232	4607
900.352	4527
900.472	4474
900.591	4367
900.711	4542
900.83	4424
900.95	4622
901.069	4706
901.189	4592
901.308	4375
901.427	4322
901.546	4402
901.665	4424
901.784	4462
901.904	4360
902.023	4291
902.141	4169
902.26	4124
902.379	4276
902.498	4253
902.617	4185
902.735	4383
902.854	4386
902.973	4383
903.091	4211
903.21	4219
903.328	4303
903.446	4246
903.565	4253
903.683	4337
903.801	4314
903.919	4367
904.038	4436
904.156	4329
904.274	4409
904.392	4367
904.51	4466
904.627	4405
904.745	4596
904.863	4592
904.981	4432
905.098	4284
905.216	4356
905.334	4398
905.451	4409
905.569	4470
905.686	4569
905.803	4542
905.921	4436
906.038	4531
906.155	4485
906.272	4375
906.389	4459
906.506	4341
906.623	4417
906.74	4360
906.857	4265
906.974	4367
907.091	4538
907.208	4687
907.324	4565
907.441	4504
907.557	4341
907.674	4325
907.79	4337
907.907	4363
908.023	4481
908.139	4451
908.256	4398
908.372	4500
908.488	4398
908.604	4356
908.72	4310
908.836	4409
908.952	4383
909.068	4383
909.184	4626
909.3	4455
909.415	4637
909.531	4538
909.647	4329
909.762	4333
909.878	4337
909.993	4455
910.108	4413
910.224	4375
910.339	4478
910.454	4440
910.57	4310
910.685	4325
910.8	4634
910.915	4653
911.03	4455
911.145	4367
911.259	4303
911.374	4383
911.489	4314
911.604	4268
911.718	4154
911.833	4185
911.947	4078
912.062	4048
912.176	4173
912.291	4238
912.405	4215
912.519	4462
912.633	4546
912.748	4402
912.862	4325
912.976	4200
913.09	4078
913.204	4173
913.318	4287
913.431	4375
913.545	4341
913.659	4451
913.772	4383
913.886	4246
914	4204
914.113	4398
914.226	4451
914.34	4383
914.453	4173
914.566	4409
914.68	4268
914.793	4337
914.906	4124
915.019	4135
915.132	4036
915.245	4207
915.358	4192
915.47	4181
915.583	4188
915.696	4303
915.809	4402
915.921	4367
916.034	4265
916.146	4265
916.259	4211
916.371	4375
916.483	4360
916.595	4227
916.708	4318
916.82	4314
916.932	4318
917.044	4341
917.156	4303
917.268	4223
917.38	4299
917.491	4287
917.603	4375
917.715	4413
917.826	4443
917.938	4348
918.049	4207
918.161	4417
918.272	4535
918.384	4546
918.495	4436
918.606	4310
918.717	4234
918.828	4306
918.939	4310
919.05	4207
919.161	4318
919.272	4097
919.383	4219
919.494	4436
919.604	4592
919.715	4360
919.826	4386
919.936	4398
920.047	4500
920.157	4489
920.267	4672
920.378	4531
920.488	4474
920.598	4656
920.708	4835
920.818	4755
920.928	4729
921.038	4927
921.148	4892
921.258	4580
921.368	4519
921.477	4512
921.587	4413
921.697	4360
921.806	4538
921.916	4398
922.025	4257
922.134	4265
922.244	4234
922.353	4329
922.462	4112
922.571	4105
922.68	3937
922.789	4002
922.898	4029
923.007	3968
923.116	4101
923.224	4010
923.333	4063
923.442	4006
923.55	3964
923.659	4044
923.767	4116
923.876	4006
923.984	4090
924.092	4013
924.201	4090
924.309	4097
924.417	4124
924.525	4006
924.633	4109
924.741	5052
924.849	3899
924.956	4074
925.064	3960
925.172	3846
925.279	3937
925.387	4055
925.494	4025
925.602	4223
925.709	4185
925.816	4010
925.924	4154
926.031	4204
926.138	4166
926.245	4192
926.352	4090
926.459	4204
926.566	4295
926.673	4097
926.779	4074
926.886	4063
926.993	4032
927.099	3926
927.206	3953
927.312	3945
927.419	4063
927.525	4017
927.631	4078
927.737	3975
927.843	3941
927.95	3838
928.056	3945
928.162	3987
928.267	3991
928.373	4573
928.479	4086
928.585	3827
928.69	4010
928.796	4055
928.901	3960
929.007	3819
929.112	4013
929.218	3937
929.323	3861
929.428	3907
929.533	4112
929.638	3907
929.743	3937
929.848	4010
929.953	4006
930.058	3903
930.163	3770
930.267	3800
930.372	3956
930.477	3827
930.581	4097
930.685	3907
930.79	3823
930.894	3850
930.998	3850
931.103	4013
931.207	3686
931.311	3709
931.415	3682
931.519	3485
931.623	3549
