Data from test_V78500241_594.txt Node
Date: Fri Mar 25 16:53:07 CST 2022
User: usil
Spectrometer: V785-0024
Trigger mode: 0
Integration Time (sec): 4.000000E-1
Scans to average: 1
Nonlinearity correction enabled: false
Boxcar width: 0
Storing dark spectrum: false
XAxis mode: Wavelengths
Number of Pixels in Spectrum: 1024
>>>>>Begin Spectral Data<<<<<
801.071	7993
801.214	7928
801.356	7830
801.499	7849
801.641	7830
801.783	7841
801.926	8005
802.068	7944
802.211	7989
802.353	7997
802.496	7909
802.638	7875
802.78	7921
802.923	7925
803.065	7830
803.208	7849
803.35	7944
803.492	7989
803.635	8115
803.777	8058
803.919	8107
804.061	8408
804.204	8107
804.346	8008
804.488	7902
804.63	8092
804.773	7909
804.915	8020
805.057	8259
805.199	8145
805.341	8176
805.483	8256
805.626	8225
805.768	8050
805.91	8123
806.052	8180
806.194	8035
806.336	8309
806.478	8123
806.62	7955
806.762	8103
806.904	8229
807.046	8495
807.188	8332
807.33	8298
807.472	8282
807.614	8149
807.756	8069
807.898	7936
808.04	7803
808.182	7925
808.324	7947
808.465	7906
808.607	8005
808.749	8084
808.891	8221
809.033	8271
809.174	8130
809.316	8031
809.458	8058
809.6	7947
809.741	7989
809.883	7936
810.025	8096
810.166	8062
810.308	7913
810.45	8039
810.591	7841
810.733	7750
810.875	7662
811.016	7518
811.158	7499
811.299	7609
811.441	7708
811.582	7620
811.724	7563
811.865	7499
812.007	7594
812.148	7563
812.29	7609
812.431	7727
812.573	7799
812.714	7993
812.855	8195
812.997	8202
813.138	8305
813.279	8210
813.421	8126
813.562	8058
813.703	7864
813.845	7776
813.986	7521
814.127	7285
814.268	7259
814.41	7194
814.551	7190
814.692	7175
814.833	7019
814.974	7126
815.115	7088
815.256	6981
815.397	6943
815.539	6935
815.68	6821
815.821	6829
815.962	6856
816.103	6875
816.244	6715
816.385	6623
816.526	6623
816.666	6483
816.807	6308
816.948	6399
817.089	6433
817.23	6426
817.371	6388
817.512	6342
817.653	6350
817.793	6350
817.934	6452
818.075	6410
818.216	6475
818.356	6426
818.497	6281
818.638	6140
818.778	6133
818.919	6117
819.06	6144
819.2	6311
819.341	6296
819.481	6304
819.622	6498
819.762	6715
819.903	6722
820.043	6521
820.184	6547
820.324	6589
820.465	6646
820.605	6604
820.746	6540
820.886	6490
821.026	6642
821.167	6707
821.307	6787
821.447	6768
821.588	6589
821.728	6517
821.868	6426
822.008	6315
822.149	6331
822.289	6346
822.429	6114
822.569	6038
822.709	6095
822.849	5897
822.99	5889
823.13	5893
823.27	5897
823.41	5745
823.55	5786
823.69	5764
823.83	5840
823.97	5665
824.11	5532
824.25	5452
824.389	5577
824.529	5554
824.669	5509
824.809	5627
824.949	5676
825.089	5589
825.228	5573
825.368	5372
825.508	5360
825.648	5326
825.787	5334
825.927	5322
826.067	5299
826.206	5277
826.346	5383
826.485	5417
826.625	5414
826.765	5577
826.904	5459
827.044	5258
827.183	5227
827.323	5170
827.462	5185
827.601	5181
827.741	5178
827.88	5216
828.02	5128
828.159	5220
828.298	5269
828.437	5353
828.577	5280
828.716	5474
828.855	5341
828.994	5181
829.134	5147
829.273	5147
829.412	5170
829.551	5117
829.69	5185
829.829	5235
829.968	5395
830.107	5261
830.246	5280
830.385	5201
830.524	5136
830.663	5079
830.802	4957
830.941	4942
831.08	4919
831.219	5041
831.357	4972
831.496	5185
831.635	4957
831.774	4896
831.913	4854
832.051	4755
832.19	4752
832.329	4873
832.467	4702
832.606	4630
832.744	4774
832.883	4790
833.022	4786
833.16	4824
833.299	4854
833.437	4858
833.576	4847
833.714	4877
833.852	4892
833.991	4915
834.129	5003
834.267	4999
834.406	4972
834.544	5006
834.682	4987
834.821	5006
834.959	5159
835.097	4999
835.235	5155
835.373	5083
835.511	5143
835.65	5121
835.788	5041
835.926	4972
836.064	4934
836.202	4919
836.34	5216
836.478	5288
836.615	5174
836.753	5189
836.891	5379
837.029	5326
837.167	5204
837.305	5235
837.443	5201
837.58	5102
837.718	5265
837.856	5242
837.993	5197
838.131	5292
838.269	5258
838.406	5223
838.544	5227
838.681	5071
838.819	5025
838.956	4915
839.094	4930
839.231	4976
839.369	5098
839.506	5436
839.643	5292
839.781	5079
839.918	5071
840.055	5132
840.193	5132
840.33	5170
840.467	5166
840.604	5242
840.742	5474
840.879	5117
841.016	5102
841.153	5193
841.29	5444
841.427	5330
841.564	5337
841.701	5429
841.838	5326
841.975	5296
842.112	5280
842.249	5193
842.385	5105
842.522	5330
842.659	5181
842.796	5189
842.933	5147
843.069	5178
843.206	5170
843.343	5315
843.479	5288
843.616	5307
843.752	5037
843.889	5056
844.025	5265
844.162	5075
844.298	5223
844.435	5102
844.571	5102
844.708	5258
844.844	5357
844.98	5341
845.117	5261
845.253	5155
845.389	5136
845.525	5136
845.661	5174
845.798	5128
845.934	5189
846.07	5105
846.206	5170
846.342	5353
846.478	5170
846.614	5056
846.75	4976
846.886	5006
847.022	5170
847.158	5052
847.294	5124
847.429	5132
847.565	5155
847.701	5292
847.837	4889
847.972	4828
848.108	4953
848.244	4965
848.379	4843
848.515	4774
848.65	4759
848.786	4782
848.921	4820
849.057	4885
849.192	5022
849.328	4816
849.463	4900
849.598	4793
849.734	4767
849.869	4702
850.004	4615
850.14	4717
850.275	4618
850.41	4531
850.545	4550
850.68	4596
850.815	4653
850.95	4694
851.085	4843
851.22	4790
851.355	4763
851.49	4634
851.625	4660
851.76	4672
851.895	4580
852.03	4580
852.165	4679
852.299	4755
852.434	4816
852.569	4793
852.703	4774
852.838	4870
852.973	4995
853.107	4911
853.242	4805
853.376	4725
853.511	4622
853.645	4679
853.78	4812
853.914	4729
854.048	4721
854.183	4702
854.317	4721
854.451	4885
854.585	4706
854.72	4672
854.854	4771
854.988	4630
855.122	4672
855.256	4577
855.39	4672
855.524	4835
855.658	4778
855.792	4755
855.926	4748
856.06	4831
856.194	4812
856.327	4790
856.461	4672
856.595	4660
856.729	4675
856.862	4740
856.996	4687
857.13	4801
857.263	4763
857.397	4820
857.53	4668
857.664	4733
857.797	4812
857.931	4793
858.064	4706
858.197	4793
858.331	4702
858.464	4660
858.597	4577
858.731	4691
858.864	4679
858.997	4645
859.13	4668
859.263	4706
859.396	4725
859.529	4584
859.662	4584
859.795	4599
859.928	4622
860.061	4793
860.194	4771
860.327	4630
860.46	4569
860.592	4752
860.725	4714
860.858	4755
860.99	4611
861.123	4565
861.256	4561
861.388	4691
861.521	5444
861.653	4516
861.786	4478
861.918	4535
862.05	4519
862.183	4569
862.315	4622
862.447	4679
862.58	4561
862.712	4402
862.844	4344
862.976	4508
863.108	4474
863.24	4889
863.372	4352
863.504	4466
863.636	4409
863.768	4516
863.9	4455
864.032	4417
864.164	4421
864.296	4474
864.428	4535
864.559	4546
864.691	4599
864.823	4531
864.954	4504
865.086	4504
865.217	4462
865.349	4459
865.48	4485
865.612	4493
865.743	4664
865.875	4504
866.006	4424
866.137	4504
866.269	4470
866.4	4443
866.531	4432
866.662	4485
866.793	4485
866.924	4413
867.055	4546
867.186	4493
867.317	4398
867.448	4375
867.579	4405
867.71	4390
867.841	4375
867.972	4508
868.103	4470
868.233	4440
868.364	4478
868.495	4497
868.625	4672
868.756	4790
868.886	4584
869.017	4664
869.147	4782
869.278	4759
869.408	4679
869.539	4687
869.669	4729
869.799	4698
869.929	4809
870.06	4771
870.19	5003
870.32	4919
870.45	4946
870.58	5045
870.71	5117
870.84	5140
870.97	4976
871.1	4957
871.23	5181
871.36	5159
871.489	5056
871.619	5109
871.749	5140
871.879	5178
872.008	5159
872.138	5094
872.267	5022
872.397	4911
872.526	4850
872.656	4778
872.785	4774
872.915	4980
873.044	5067
873.173	4915
873.303	5037
873.432	4984
873.561	4968
873.69	4911
873.819	4942
873.948	4904
874.077	4801
874.206	4782
874.335	4850
874.464	4927
874.593	5048
874.722	5014
874.851	5098
874.979	5056
875.108	5071
875.237	4946
875.365	4866
875.494	4900
875.623	4987
875.751	4870
875.88	4873
876.008	5022
876.136	5075
876.265	5223
876.393	5337
876.521	5284
876.65	5235
876.778	5235
876.906	5079
877.034	5041
877.162	5086
877.29	5041
877.418	5086
877.546	5033
877.674	5029
877.802	5117
877.93	5010
878.058	4930
878.185	4873
878.313	4987
878.441	4938
878.568	4797
878.696	4870
878.824	4934
878.951	5029
879.079	5197
879.206	5311
879.333	5090
879.461	4965
879.588	5037
879.715	5147
879.842	5258
879.97	5006
880.097	4839
880.224	4778
880.351	4843
880.478	4828
880.605	4835
880.732	4801
880.859	5098
880.986	4908
881.112	4961
881.239	4831
881.366	4683
881.493	4653
881.619	4615
881.746	4656
881.872	4656
881.999	4683
882.125	4694
882.252	4786
882.378	4824
882.505	4991
882.631	4847
882.757	4702
882.883	4763
883.01	4755
883.136	4664
883.262	4656
883.388	4603
883.514	4850
883.64	4835
883.766	4755
883.892	4649
884.018	4729
884.143	4915
884.269	4987
884.395	4702
884.52	4615
884.646	4687
884.772	4573
884.897	4588
885.023	4706
885.148	4839
885.274	4820
885.399	4835
885.524	4721
885.65	4683
885.775	4771
885.9	4687
886.025	4873
886.15	4820
886.275	4729
886.4	4649
886.525	4771
886.65	4710
886.775	4706
886.9	4915
887.025	5071
887.149	4847
887.274	4634
887.399	4626
887.523	4615
887.648	4637
887.773	4618
887.897	4790
888.021	4824
888.146	4683
888.27	4801
888.395	4900
888.519	4828
888.643	4763
888.767	4854
888.891	4664
889.015	4596
889.139	4679
889.263	4603
889.387	4797
889.511	4858
889.635	4797
889.759	4645
889.883	4637
890.006	4763
890.13	4843
890.254	4641
890.377	4702
890.501	4561
890.624	4558
890.748	4645
890.871	4512
890.995	4394
891.118	4398
891.241	4558
891.364	4573
891.488	4645
891.611	4561
891.734	4535
891.857	4615
891.98	4550
892.103	4611
892.226	4588
892.349	4531
892.471	4470
892.594	4527
892.717	4637
892.839	4588
892.962	4603
893.085	4626
893.207	4645
893.33	4470
893.452	4554
893.575	4664
893.697	4558
893.819	4812
893.941	4835
894.064	4759
894.186	4588
894.308	4561
894.43	4725
894.552	4812
894.674	4755
894.796	4535
894.918	4607
895.04	4664
895.161	4744
895.283	4698
895.405	4565
895.526	4634
895.648	4702
895.769	4725
895.891	4736
896.012	4744
896.134	4698
896.255	4668
896.376	4622
896.498	4645
896.619	4687
896.74	4649
896.861	4637
896.982	4965
897.103	5124
897.224	4850
897.345	4782
897.466	4683
897.587	4687
897.708	4824
897.828	4759
897.949	4706
898.07	4538
898.19	4634
898.311	4866
898.431	4626
898.552	4801
898.672	4809
898.792	4828
898.913	4755
899.033	4615
899.153	4523
899.273	4405
899.393	4481
899.513	4580
899.633	4531
899.753	4599
899.873	4519
899.993	4603
900.113	4596
900.232	4626
900.352	4558
900.472	4500
900.591	4428
900.711	4508
900.83	4459
900.95	4584
901.069	4683
901.189	4542
901.308	4413
901.427	4344
901.546	4363
901.665	4497
901.784	4504
901.904	4402
902.023	4329
902.141	4177
902.26	4196
902.379	4356
902.498	4223
902.617	4204
902.735	4375
902.854	4383
902.973	4371
903.091	4211
903.21	4272
903.328	4325
903.446	4287
903.565	4261
903.683	4337
903.801	4295
903.919	4398
904.038	4413
904.156	4337
904.274	4459
904.392	4356
904.51	4405
904.627	4500
904.745	4584
904.863	4622
904.981	4409
905.098	4329
905.216	4360
905.334	4466
905.451	4470
905.569	4451
905.686	4599
905.803	4596
905.921	4481
906.038	4618
906.155	4538
906.272	4424
906.389	4550
906.506	4436
906.623	4417
906.74	4413
906.857	4341
906.974	4424
907.091	4618
907.208	4714
907.324	4664
907.441	4542
907.557	4394
907.674	4417
907.79	4306
907.907	4413
908.023	4554
908.139	4519
908.256	4466
908.372	4519
908.488	4459
908.604	4383
908.72	4356
908.836	4398
908.952	4440
909.068	4527
909.184	4622
909.3	4512
909.415	4630
909.531	4664
909.647	4440
909.762	4417
909.878	4375
909.993	4504
910.108	4451
910.224	4470
910.339	4535
910.454	4455
910.57	4417
910.685	4367
910.8	4668
910.915	4641
911.03	4554
911.145	4421
911.259	4337
911.374	4436
911.489	4280
911.604	4322
911.718	4268
911.833	4249
911.947	4120
912.062	4086
912.176	4234
912.291	4268
912.405	4310
912.519	4466
912.633	4516
912.748	4409
912.862	4348
912.976	4223
913.09	4120
913.204	4223
913.318	4299
913.431	4398
913.545	4405
913.659	4451
913.772	4375
913.886	4253
914	4246
914.113	4413
914.226	4474
914.34	4466
914.453	4238
914.566	4459
914.68	4356
914.793	4322
914.906	4219
915.019	4177
915.132	4105
915.245	4253
915.358	4207
915.47	4284
915.583	4303
915.696	4352
915.809	4485
915.921	4451
916.034	4310
916.146	4287
916.259	4253
916.371	4409
916.483	4409
916.595	4318
916.708	4363
916.82	4333
916.932	4322
917.044	4379
917.156	4363
917.268	4265
917.38	4306
917.491	4299
917.603	4409
917.715	4485
917.826	4527
917.938	4436
918.049	4287
918.161	4470
918.272	4599
918.384	4580
918.495	4497
918.606	4337
918.717	4257
918.828	4375
918.939	4405
919.05	4272
919.161	4360
919.272	4181
919.383	4272
919.494	4489
919.604	4660
919.715	4497
919.826	4386
919.936	4447
920.047	4592
920.157	4535
920.267	4740
920.378	4611
920.488	4535
920.598	4714
920.708	4923
920.818	4790
920.928	4801
921.038	4934
921.148	4938
921.258	4660
921.368	4622
921.477	4546
921.587	4436
921.697	4417
921.806	4611
921.916	4443
922.025	4284
922.134	4299
922.244	4249
922.353	4337
922.462	4211
922.571	4188
922.68	4025
922.789	3975
922.898	4059
923.007	4036
923.116	4120
923.224	4131
923.333	4105
923.442	4017
923.55	4013
923.659	4074
923.767	4101
923.876	4059
923.984	4150
924.092	4082
924.201	4154
924.309	4154
924.417	4139
924.525	4093
924.633	4135
924.741	5121
924.849	3934
924.956	4192
925.064	4002
925.172	3930
925.279	3987
925.387	4078
925.494	4067
925.602	4265
925.709	4188
925.816	4006
925.924	4169
926.031	4261
926.138	4173
926.245	4230
926.352	4093
926.459	4246
926.566	4306
926.673	4158
926.779	4147
926.886	4188
926.993	4036
927.099	3968
927.206	3972
927.312	3983
927.419	4116
927.525	4055
927.631	4158
927.737	3979
927.843	3968
927.95	3899
928.056	3941
928.162	3994
928.267	4082
928.373	4698
928.479	4150
928.585	3880
928.69	4010
928.796	4116
928.901	3994
929.007	3861
929.112	4010
929.218	4017
929.323	3964
929.428	3949
929.533	4173
929.638	3956
929.743	4010
929.848	4090
929.953	3998
930.058	3983
930.163	3846
930.267	3903
930.372	3994
930.477	3835
930.581	4128
930.685	4013
930.79	3854
930.894	3930
930.998	3899
931.103	4105
931.207	3759
931.311	3705
931.415	3713
931.519	3561
931.623	3606
