Data from test_V78500241_2276.txt Node
Date: Fri Mar 25 17:04:49 CST 2022
User: usil
Spectrometer: V785-0024
Trigger mode: 0
Integration Time (sec): 4.000000E-1
Scans to average: 1
Nonlinearity correction enabled: false
Boxcar width: 0
Storing dark spectrum: false
XAxis mode: Wavelengths
Number of Pixels in Spectrum: 1024
>>>>>Begin Spectral Data<<<<<
801.071	8005
801.214	7982
801.356	7871
801.499	7887
801.641	7803
801.783	7803
801.926	7970
802.068	7849
802.211	7967
802.353	8054
802.496	7822
802.638	7898
802.78	7841
802.923	7890
803.065	7860
803.208	7887
803.35	8024
803.492	8031
803.635	8187
803.777	8005
803.919	8069
804.061	8374
804.204	8119
804.346	8077
804.488	7947
804.63	8096
804.773	7970
804.915	8103
805.057	8275
805.199	8119
805.341	8161
805.483	8210
805.626	8229
805.768	8073
805.91	8107
806.052	8172
806.194	8062
806.336	8233
806.478	8107
806.62	8020
806.762	8062
806.904	8290
807.046	8381
807.188	8248
807.33	8267
807.472	8313
807.614	8164
807.756	8130
807.898	7955
808.04	7887
808.182	7837
808.324	7894
808.465	7906
808.607	8046
808.749	8149
808.891	8229
809.033	8320
809.174	8176
809.316	8073
809.458	8069
809.6	8024
809.741	8027
809.883	8012
810.025	8073
810.166	8020
810.308	8050
810.45	8024
810.591	7845
810.733	7689
810.875	7567
811.016	7518
811.158	7388
811.299	7537
811.441	7708
811.582	7655
811.724	7563
811.865	7525
812.007	7548
812.148	7594
812.29	7624
812.431	7704
812.573	7902
812.714	7963
812.855	8206
812.997	8267
813.138	8294
813.279	8111
813.421	8020
813.562	7928
813.703	7849
813.845	7727
813.986	7400
814.127	7232
814.268	7183
814.41	7164
814.551	7110
814.692	7187
814.833	7088
814.974	7053
815.115	7129
815.256	6932
815.397	6943
815.539	6966
815.68	6806
815.821	6764
815.962	6859
816.103	6779
816.244	6696
816.385	6631
816.526	6597
816.666	6498
816.807	6258
816.948	6361
817.089	6414
817.23	6418
817.371	6369
817.512	6369
817.653	6391
817.793	6334
817.934	6369
818.075	6426
818.216	6437
818.356	6365
818.497	6201
818.638	6136
818.778	6114
818.919	6102
819.06	6102
819.2	6300
819.341	6365
819.481	6350
819.622	6502
819.762	6726
819.903	6669
820.043	6642
820.184	6547
820.324	6601
820.465	6650
820.605	6681
820.746	6616
820.886	6551
821.026	6665
821.167	6749
821.307	6791
821.447	6722
821.588	6722
821.728	6563
821.868	6475
822.008	6342
822.149	6380
822.289	6331
822.429	6095
822.569	6087
822.709	6057
822.849	5923
822.99	5912
823.13	5904
823.27	5923
823.41	5798
823.55	5836
823.69	5775
823.83	5767
823.97	5638
824.11	5524
824.25	5490
824.389	5528
824.529	5532
824.669	5535
824.809	5668
824.949	5649
825.089	5649
825.228	5592
825.368	5360
825.508	5326
825.648	5311
825.787	5379
825.927	5357
826.067	5311
826.206	5299
826.346	5379
826.485	5417
826.625	5391
826.765	5490
826.904	5524
827.044	5246
827.183	5239
827.323	5159
827.462	5235
827.601	5178
827.741	5197
827.88	5235
828.02	5113
828.159	5273
828.298	5269
828.437	5360
828.577	5307
828.716	5497
828.855	5376
828.994	5189
829.134	5143
829.273	5223
829.412	5193
829.551	5170
829.69	5208
829.829	5201
829.968	5455
830.107	5322
830.246	5315
830.385	5181
830.524	5193
830.663	5113
830.802	5022
830.941	4892
831.08	4911
831.219	5041
831.357	5033
831.496	5143
831.635	4919
831.774	4900
831.913	4889
832.051	4805
832.19	4793
832.329	4881
832.467	4740
832.606	4675
832.744	4759
832.883	4786
833.022	4793
833.16	4816
833.299	4858
833.437	4892
833.576	4850
833.714	4866
833.852	4877
833.991	4942
834.129	4976
834.267	5022
834.406	4938
834.544	5025
834.682	4980
834.821	5029
834.959	5212
835.097	5003
835.235	5128
835.373	5166
835.511	5166
835.65	5098
835.788	5067
835.926	4946
836.064	4927
836.202	4980
836.34	5227
836.478	5242
836.615	5189
836.753	5201
836.891	5288
837.029	5273
837.167	5239
837.305	5193
837.443	5201
837.58	5094
837.718	5273
837.856	5174
837.993	5204
838.131	5330
838.269	5242
838.406	5269
838.544	5265
838.681	5052
838.819	5079
838.956	4896
839.094	4927
839.231	4995
839.369	5113
839.506	5482
839.643	5284
839.781	5090
839.918	5060
840.055	5117
840.193	5121
840.33	5159
840.467	5143
840.604	5254
840.742	5429
840.879	5105
841.016	5094
841.153	5178
841.29	5402
841.427	5364
841.564	5353
841.701	5357
841.838	5315
841.975	5235
842.112	5296
842.249	5098
842.385	5159
842.522	5376
842.659	5185
842.796	5143
842.933	5235
843.069	5117
843.206	5143
843.343	5353
843.479	5250
843.616	5288
843.752	5045
843.889	5033
844.025	5239
844.162	5041
844.298	5258
844.435	5159
844.571	5079
844.708	5231
844.844	5353
844.98	5345
845.117	5349
845.253	5185
845.389	5140
845.525	5162
845.661	5212
845.798	5071
845.934	5147
846.07	5045
846.206	5220
846.342	5284
846.478	5170
846.614	5060
846.75	4927
846.886	4991
847.022	5147
847.158	5022
847.294	5094
847.429	5083
847.565	5102
847.701	5292
847.837	4923
847.972	4850
848.108	4995
848.244	4980
848.379	4828
848.515	4740
848.65	4733
848.786	4771
848.921	4824
849.057	4927
849.192	4911
849.328	4843
849.463	4885
849.598	4805
849.734	4736
849.869	4733
850.004	4584
850.14	4694
850.275	4637
850.41	4561
850.545	4584
850.68	4656
850.815	4634
850.95	4683
851.085	4892
851.22	4755
851.355	4725
851.49	4618
851.625	4634
851.76	4668
851.895	4641
852.03	4538
852.165	4645
852.299	4702
852.434	4911
852.569	4790
852.703	4820
852.838	4900
852.973	4972
853.107	4965
853.242	4725
853.376	4687
853.511	4573
853.645	4687
853.78	4820
853.914	4683
854.048	4679
854.183	4653
854.317	4698
854.451	4904
854.585	4714
854.72	4698
854.854	4839
854.988	4668
855.122	4656
855.256	4531
855.39	4694
855.524	4755
855.658	4706
855.792	4733
855.926	4706
856.06	4774
856.194	4809
856.327	4710
856.461	4626
856.595	4630
856.729	4637
856.862	4759
856.996	4740
857.13	4767
857.263	4782
857.397	4786
857.53	4660
857.664	4763
857.797	4744
857.931	4835
858.064	4710
858.197	4763
858.331	4717
858.464	4656
858.597	4516
858.731	4687
858.864	4630
858.997	4615
859.13	4653
859.263	4725
859.396	4721
859.529	4599
859.662	4615
859.795	4512
859.928	4687
860.061	4820
860.194	4790
860.327	4679
860.46	4599
860.592	4725
860.725	4816
860.858	4790
860.99	4573
861.123	4558
861.256	4485
861.388	4679
861.521	5315
861.653	4474
861.786	4409
861.918	4504
862.05	4519
862.183	4523
862.315	4637
862.447	4660
862.58	4569
862.712	4390
862.844	4360
862.976	4443
863.108	4504
863.24	4934
863.372	4329
863.504	4478
863.636	4417
863.768	4508
863.9	4424
864.032	4405
864.164	4485
864.296	4497
864.428	4588
864.559	4573
864.691	4569
864.823	4573
864.954	4493
865.086	4538
865.217	4466
865.349	4394
865.48	4485
865.612	4519
865.743	4668
865.875	4493
866.006	4497
866.137	4508
866.269	4485
866.4	4474
866.531	4497
866.662	4398
866.793	4447
866.924	4421
867.055	4554
867.186	4470
867.317	4447
867.448	4409
867.579	4386
867.71	4398
867.841	4341
867.972	4478
868.103	4459
868.233	4485
868.364	4478
868.495	4500
868.625	4694
868.756	4744
868.886	4569
869.017	4634
869.147	4801
869.278	4759
869.408	4721
869.539	4668
869.669	4714
869.799	4710
869.929	4755
870.06	4752
870.19	4980
870.32	4961
870.45	4885
870.58	4987
870.71	5113
870.84	5109
870.97	5010
871.1	4904
871.23	5166
871.36	5159
871.489	5094
871.619	5098
871.749	5094
871.879	5147
872.008	5181
872.138	5071
872.267	5037
872.397	4892
872.526	4866
872.656	4740
872.785	4839
872.915	5006
873.044	5029
873.173	4965
873.303	4999
873.432	5025
873.561	4987
873.69	4847
873.819	4885
873.948	4873
874.077	4885
874.206	4755
874.335	4828
874.464	4961
874.593	5075
874.722	5006
874.851	5151
874.979	5071
875.108	5018
875.237	4957
875.365	4911
875.494	4881
875.623	4987
875.751	4854
875.88	4896
876.008	4965
876.136	5075
876.265	5201
876.393	5307
876.521	5269
876.65	5231
876.778	5185
876.906	5113
877.034	5048
877.162	5041
877.29	5025
877.418	5037
877.546	4968
877.674	5075
877.802	5048
877.93	5048
878.058	4908
878.185	4885
878.313	4942
878.441	4995
878.568	4824
878.696	4904
878.824	4965
878.951	4999
879.079	5159
879.206	5349
879.333	5121
879.461	5022
879.588	5033
879.715	5124
879.842	5204
879.97	5052
880.097	4816
880.224	4778
880.351	4877
880.478	4816
880.605	4828
880.732	4797
880.859	5121
880.986	4896
881.112	4908
881.239	4831
881.366	4710
881.493	4596
881.619	4554
881.746	4649
881.872	4683
881.999	4637
882.125	4733
882.252	4805
882.378	4850
882.505	4972
882.631	4858
882.757	4694
882.883	4774
883.01	4702
883.136	4649
883.262	4603
883.388	4584
883.514	4805
883.64	4885
883.766	4835
883.892	4714
884.018	4687
884.143	4911
884.269	5018
884.395	4683
884.52	4618
884.646	4694
884.772	4592
884.897	4535
885.023	4675
885.148	4835
885.274	4873
885.399	4801
885.524	4717
885.65	4687
885.775	4744
885.9	4679
886.025	4866
886.15	4786
886.275	4736
886.4	4622
886.525	4763
886.65	4710
886.775	4733
886.9	4934
887.025	5064
887.149	4782
887.274	4691
887.399	4573
887.523	4675
887.648	4611
887.773	4554
887.897	4767
888.021	4805
888.146	4702
888.27	4824
888.395	4915
888.519	4831
888.643	4831
888.767	4866
888.891	4679
889.015	4656
889.139	4679
889.263	4607
889.387	4782
889.511	4908
889.635	4835
889.759	4679
889.883	4634
890.006	4717
890.13	4809
890.254	4645
890.377	4683
890.501	4546
890.624	4561
890.748	4626
890.871	4542
890.995	4459
891.118	4432
891.241	4546
891.364	4531
891.488	4668
891.611	4538
891.734	4573
891.857	4584
891.98	4596
892.103	4630
892.226	4668
892.349	4561
892.471	4428
892.594	4558
892.717	4611
892.839	4630
892.962	4634
893.085	4637
893.207	4584
893.33	4512
893.452	4470
893.575	4698
893.697	4561
893.819	4805
893.941	4831
894.064	4809
894.186	4538
894.308	4573
894.43	4778
894.552	4790
894.674	4767
894.796	4573
894.918	4641
895.04	4565
895.161	4683
895.283	4694
895.405	4550
895.526	4664
895.648	4660
895.769	4702
895.891	4771
896.012	4740
896.134	4778
896.255	4706
896.376	4637
896.498	4611
896.619	4710
896.74	4634
896.861	4683
896.982	4942
897.103	5064
897.224	4778
897.345	4763
897.466	4691
897.587	4759
897.708	4847
897.828	4797
897.949	4714
898.07	4611
898.19	4683
898.311	4839
898.431	4675
898.552	4752
898.672	4854
898.792	4801
898.913	4736
899.033	4656
899.153	4512
899.273	4417
899.393	4538
899.513	4493
899.633	4538
899.753	4527
899.873	4538
899.993	4637
900.113	4508
900.232	4611
900.352	4565
900.472	4451
900.591	4413
900.711	4519
900.83	4432
900.95	4603
901.069	4691
901.189	4546
901.308	4402
901.427	4314
901.546	4379
901.665	4481
901.784	4546
901.904	4390
902.023	4360
902.141	4162
902.26	4154
902.379	4295
902.498	4204
902.617	4196
902.735	4386
902.854	4424
902.973	4310
903.091	4230
903.21	4242
903.328	4310
903.446	4306
903.565	4303
903.683	4367
903.801	4299
903.919	4379
904.038	4440
904.156	4333
904.274	4462
904.392	4424
904.51	4474
904.627	4466
904.745	4649
904.863	4637
904.981	4424
905.098	4318
905.216	4402
905.334	4466
905.451	4485
905.569	4485
905.686	4622
905.803	4630
905.921	4519
906.038	4626
906.155	4542
906.272	4443
906.389	4504
906.506	4386
906.623	4409
906.74	4398
906.857	4337
906.974	4402
907.091	4603
907.208	4725
907.324	4615
907.441	4546
907.557	4337
907.674	4386
907.79	4428
907.907	4462
908.023	4542
908.139	4519
908.256	4474
908.372	4516
908.488	4489
908.604	4428
908.72	4413
908.836	4409
908.952	4432
909.068	4474
909.184	4637
909.3	4542
909.415	4618
909.531	4588
909.647	4398
909.762	4409
909.878	4405
909.993	4497
910.108	4493
910.224	4455
910.339	4542
910.454	4405
910.57	4409
910.685	4299
910.8	4714
910.915	4649
911.03	4561
911.145	4329
911.259	4367
911.374	4405
911.489	4348
911.604	4310
911.718	4204
911.833	4185
911.947	4112
912.062	4071
912.176	4276
912.291	4303
912.405	4310
912.519	4531
912.633	4542
912.748	4379
912.862	4329
912.976	4242
913.09	4169
913.204	4192
913.318	4333
913.431	4462
913.545	4402
913.659	4470
913.772	4417
913.886	4306
914	4242
914.113	4424
914.226	4478
914.34	4440
914.453	4276
914.566	4470
914.68	4333
914.793	4413
914.906	4200
915.019	4207
915.132	4143
915.245	4185
915.358	4268
915.47	4246
915.583	4249
915.696	4306
915.809	4436
915.921	4432
916.034	4337
916.146	4299
916.259	4215
916.371	4432
916.483	4360
916.595	4287
916.708	4383
916.82	4356
916.932	4310
917.044	4348
917.156	4287
917.268	4261
917.38	4306
917.491	4314
917.603	4413
917.715	4424
917.826	4512
917.938	4360
918.049	4268
918.161	4474
918.272	4615
918.384	4615
918.495	4466
918.606	4352
918.717	4276
918.828	4409
918.939	4409
919.05	4276
919.161	4371
919.272	4158
919.383	4219
919.494	4466
919.604	4611
919.715	4451
919.826	4409
919.936	4424
920.047	4546
920.157	4516
920.267	4740
920.378	4577
920.488	4516
920.598	4752
920.708	4946
920.818	4831
920.928	4816
921.038	4980
921.148	4934
921.258	4675
921.368	4641
921.477	4554
921.587	4516
921.697	4436
921.806	4573
921.916	4478
922.025	4287
922.134	4249
922.244	4215
922.353	4356
922.462	4261
922.571	4158
922.68	4040
922.789	3991
922.898	4090
923.007	4010
923.116	4082
923.224	4090
923.333	4158
923.442	4029
923.55	3998
923.659	4055
923.767	4124
923.876	4040
923.984	4154
924.092	4025
924.201	4097
924.309	4082
924.417	4139
924.525	4071
924.633	4162
924.741	5052
924.849	3960
924.956	4162
925.064	3972
925.172	3941
925.279	4002
925.387	4105
925.494	4097
925.602	4207
925.709	4166
925.816	4040
925.924	4173
926.031	4192
926.138	4204
926.245	4276
926.352	4158
926.459	4249
926.566	4299
926.673	4177
926.779	4109
926.886	4112
926.993	3998
927.099	3994
927.206	3987
927.312	3987
927.419	4105
927.525	4025
927.631	4109
927.737	4010
927.843	3953
927.95	3869
928.056	3975
928.162	4029
928.267	4097
928.373	4714
928.479	4116
928.585	3907
928.69	4074
928.796	4086
928.901	4017
929.007	3915
929.112	4013
929.218	3998
929.323	3979
929.428	3972
929.533	4147
929.638	3945
929.743	4002
929.848	4093
929.953	4040
930.058	3968
930.163	3808
930.267	3850
930.372	3979
930.477	3850
930.581	4120
930.685	3975
930.79	3903
930.894	3911
930.998	3899
931.103	4097
931.207	3751
931.311	3728
931.415	3679
931.519	3542
931.623	3603
