Data from test_V78500241_865.txt Node
Date: Fri Mar 25 16:55:01 CST 2022
User: usil
Spectrometer: V785-0024
Trigger mode: 0
Integration Time (sec): 4.000000E-1
Scans to average: 1
Nonlinearity correction enabled: false
Boxcar width: 0
Storing dark spectrum: false
XAxis mode: Wavelengths
Number of Pixels in Spectrum: 1024
>>>>>Begin Spectral Data<<<<<
801.071	8039
801.214	7963
801.356	7864
801.499	7887
801.641	7830
801.783	7772
801.926	7986
802.068	7807
802.211	7982
802.353	7967
802.496	7765
802.638	7868
802.78	7898
802.923	7906
803.065	7883
803.208	7852
803.35	7970
803.492	8100
803.635	8176
803.777	8001
803.919	8035
804.061	8385
804.204	8126
804.346	8008
804.488	7940
804.63	8134
804.773	8020
804.915	8103
805.057	8275
805.199	8138
805.341	8195
805.483	8275
805.626	8157
805.768	8142
805.91	8168
806.052	8123
806.194	8107
806.336	8252
806.478	8046
806.62	8039
806.762	8069
806.904	8267
807.046	8438
807.188	8279
807.33	8305
807.472	8328
807.614	8157
807.756	8153
807.898	7982
808.04	7921
808.182	7936
808.324	7818
808.465	7902
808.607	7959
808.749	8081
808.891	8183
809.033	8237
809.174	8244
809.316	8046
809.458	8107
809.6	7967
809.741	7978
809.883	7970
810.025	8130
810.166	8065
810.308	8035
810.45	8016
810.591	7917
810.733	7734
810.875	7624
811.016	7499
811.158	7502
811.299	7628
811.441	7662
811.582	7662
811.724	7525
811.865	7510
812.007	7533
812.148	7620
812.29	7624
812.431	7666
812.573	7818
812.714	7928
812.855	8077
812.997	8218
813.138	8259
813.279	8145
813.421	8092
813.562	8027
813.703	7925
813.845	7746
813.986	7441
814.127	7289
814.268	7263
814.41	7225
814.551	7095
814.692	7110
814.833	7023
814.974	7057
815.115	7107
815.256	6920
815.397	6833
815.539	6932
815.68	6856
815.821	6662
815.962	6856
816.103	6776
816.244	6715
816.385	6650
816.526	6642
816.666	6479
816.807	6239
816.948	6448
817.089	6483
817.23	6445
817.371	6353
817.512	6403
817.653	6350
817.793	6388
817.934	6388
818.075	6475
818.216	6448
818.356	6414
818.497	6201
818.638	6053
818.778	6102
818.919	6114
819.06	6194
819.2	6315
819.341	6258
819.481	6338
819.622	6532
819.762	6707
819.903	6597
820.043	6540
820.184	6544
820.324	6566
820.465	6696
820.605	6642
820.746	6631
820.886	6460
821.026	6673
821.167	6654
821.307	6776
821.447	6719
821.588	6566
821.728	6559
821.868	6441
822.008	6296
822.149	6315
822.289	6315
822.429	6148
822.569	6083
822.709	6102
822.849	5874
822.99	5840
823.13	5889
823.27	5939
823.41	5756
823.55	5745
823.69	5809
823.83	5710
823.97	5638
824.11	5554
824.25	5490
824.389	5505
824.529	5543
824.669	5512
824.809	5646
824.949	5634
825.089	5596
825.228	5535
825.368	5410
825.508	5353
825.648	5318
825.787	5383
825.927	5436
826.067	5303
826.206	5303
826.346	5379
826.485	5410
826.625	5406
826.765	5505
826.904	5478
827.044	5280
827.183	5151
827.323	5170
827.462	5269
827.601	5136
827.741	5193
827.88	5242
828.02	5083
828.159	5303
828.298	5292
828.437	5410
828.577	5261
828.716	5490
828.855	5322
828.994	5174
829.134	5197
829.273	5170
829.412	5143
829.551	5147
829.69	5140
829.829	5284
829.968	5364
830.107	5254
830.246	5288
830.385	5231
830.524	5117
830.663	5086
830.802	5014
830.941	4873
831.08	4877
831.219	5022
831.357	4995
831.496	5178
831.635	4976
831.774	4923
831.913	4892
832.051	4740
832.19	4782
832.329	4828
832.467	4717
832.606	4687
832.744	4729
832.883	4774
833.022	4778
833.16	4793
833.299	4824
833.437	4820
833.576	4877
833.714	4949
833.852	4911
833.991	4870
834.129	4972
834.267	4934
834.406	4946
834.544	5022
834.682	4987
834.821	5003
834.959	5147
835.097	4980
835.235	5185
835.373	5090
835.511	5159
835.65	5018
835.788	5113
835.926	4927
836.064	4949
836.202	4976
836.34	5197
836.478	5258
836.615	5105
836.753	5265
836.891	5345
837.029	5292
837.167	5204
837.305	5193
837.443	5201
837.58	5098
837.718	5330
837.856	5227
837.993	5143
838.131	5258
838.269	5250
838.406	5181
838.544	5197
838.681	5071
838.819	5022
838.956	4911
839.094	4953
839.231	5064
839.369	5098
839.506	5459
839.643	5265
839.781	5090
839.918	5052
840.055	5064
840.193	5128
840.33	5128
840.467	5166
840.604	5185
840.742	5474
840.879	5128
841.016	5109
841.153	5201
841.29	5436
841.427	5376
841.564	5337
841.701	5387
841.838	5299
841.975	5299
842.112	5284
842.249	5079
842.385	5109
842.522	5379
842.659	5143
842.796	5155
842.933	5216
843.069	5193
843.206	5162
843.343	5334
843.479	5273
843.616	5273
843.752	5052
843.889	4976
844.025	5303
844.162	5052
844.298	5223
844.435	5090
844.571	5079
844.708	5258
844.844	5353
844.98	5379
845.117	5322
845.253	5193
845.389	5109
845.525	5201
845.661	5155
845.798	5105
845.934	5185
846.07	5079
846.206	5231
846.342	5315
846.478	5178
846.614	5056
846.75	5003
846.886	4980
847.022	5132
847.158	5033
847.294	5052
847.429	5128
847.565	5086
847.701	5318
847.837	4885
847.972	4839
848.108	4915
848.244	4953
848.379	4797
848.515	4752
848.65	4717
848.786	4763
848.921	4831
849.057	4858
849.192	4908
849.328	4847
849.463	4900
849.598	4797
849.734	4763
849.869	4729
850.004	4634
850.14	4675
850.275	4634
850.41	4546
850.545	4584
850.68	4618
850.815	4634
850.95	4641
851.085	4892
851.22	4839
851.355	4691
851.49	4630
851.625	4637
851.76	4630
851.895	4622
852.03	4523
852.165	4660
852.299	4752
852.434	4793
852.569	4729
852.703	4809
852.838	4820
852.973	4968
853.107	4904
853.242	4767
853.376	4691
853.511	4569
853.645	4630
853.78	4797
853.914	4725
854.048	4668
854.183	4637
854.317	4687
854.451	4870
854.585	4664
854.72	4649
854.854	4771
854.988	4584
855.122	4664
855.256	4565
855.39	4721
855.524	4763
855.658	4706
855.792	4714
855.926	4736
856.06	4714
856.194	4881
856.327	4748
856.461	4664
856.595	4622
856.729	4672
856.862	4763
856.996	4736
857.13	4744
857.263	4801
857.397	4809
857.53	4634
857.664	4710
857.797	4793
857.931	4805
858.064	4744
858.197	4729
858.331	4645
858.464	4615
858.597	4527
858.731	4630
858.864	4645
858.997	4599
859.13	4653
859.263	4672
859.396	4691
859.529	4607
859.662	4596
859.795	4558
859.928	4630
860.061	4771
860.194	4778
860.327	4603
860.46	4542
860.592	4744
860.725	4755
860.858	4702
860.99	4603
861.123	4531
861.256	4527
861.388	4641
861.521	5345
861.653	4550
861.786	4462
861.918	4493
862.05	4565
862.183	4493
862.315	4626
862.447	4626
862.58	4538
862.712	4447
862.844	4348
862.976	4504
863.108	4436
863.24	4805
863.372	4360
863.504	4462
863.636	4421
863.768	4512
863.9	4394
864.032	4394
864.164	4417
864.296	4500
864.428	4607
864.559	4577
864.691	4535
864.823	4535
864.954	4546
865.086	4531
865.217	4512
865.349	4440
865.48	4424
865.612	4531
865.743	4641
865.875	4512
866.006	4424
866.137	4500
866.269	4462
866.4	4436
866.531	4481
866.662	4436
866.793	4421
866.924	4462
867.055	4538
867.186	4402
867.317	4424
867.448	4409
867.579	4390
867.71	4405
867.841	4383
867.972	4504
868.103	4493
868.233	4462
868.364	4436
868.495	4474
868.625	4672
868.756	4759
868.886	4565
869.017	4611
869.147	4778
869.278	4831
869.408	4679
869.539	4645
869.669	4740
869.799	4645
869.929	4755
870.06	4683
870.19	4957
870.32	4927
870.45	4961
870.58	5006
870.71	5098
870.84	5105
870.97	4968
871.1	4900
871.23	5162
871.36	5124
871.489	5014
871.619	5075
871.749	5113
871.879	5155
872.008	5223
872.138	5045
872.267	5006
872.397	4847
872.526	4820
872.656	4729
872.785	4839
872.915	4934
873.044	5052
873.173	4927
873.303	4980
873.432	4976
873.561	4942
873.69	4930
873.819	4877
873.948	4923
874.077	4816
874.206	4752
874.335	4763
874.464	4934
874.593	5067
874.722	4961
874.851	5140
874.979	5045
875.108	5048
875.237	4942
875.365	4873
875.494	4858
875.623	4965
875.751	4870
875.88	4881
876.008	4991
876.136	5056
876.265	5216
876.393	5357
876.521	5258
876.65	5216
876.778	5147
876.906	5071
877.034	4976
877.162	5014
877.29	5003
877.418	5041
877.546	5018
877.674	5056
877.802	5052
877.93	4987
878.058	4908
878.185	4870
878.313	4934
878.441	4911
878.568	4835
878.696	4873
878.824	4987
878.951	4991
879.079	5189
879.206	5269
879.333	5159
879.461	4991
879.588	5010
879.715	5143
879.842	5216
879.97	5003
880.097	4778
880.224	4729
880.351	4812
880.478	4862
880.605	4801
880.732	4793
880.859	5132
880.986	4877
881.112	4919
881.239	4805
881.366	4660
881.493	4637
881.619	4603
881.746	4649
881.872	4615
881.999	4615
882.125	4710
882.252	4805
882.378	4820
882.505	4968
882.631	4809
882.757	4653
882.883	4763
883.01	4771
883.136	4694
883.262	4580
883.388	4634
883.514	4744
883.64	4896
883.766	4774
883.892	4626
884.018	4702
884.143	4904
884.269	5010
884.395	4710
884.52	4641
884.646	4668
884.772	4630
884.897	4565
885.023	4683
885.148	4790
885.274	4881
885.399	4790
885.524	4710
885.65	4714
885.775	4717
885.9	4721
886.025	4862
886.15	4778
886.275	4733
886.4	4694
886.525	4706
886.65	4679
886.775	4664
886.9	4915
887.025	5048
887.149	4805
887.274	4634
887.399	4603
887.523	4607
887.648	4580
887.773	4584
887.897	4797
888.021	4801
888.146	4668
888.27	4843
888.395	4930
888.519	4774
888.643	4793
888.767	4870
888.891	4698
889.015	4637
889.139	4626
889.263	4607
889.387	4755
889.511	4850
889.635	4786
889.759	4626
889.883	4660
890.006	4683
890.13	4870
890.254	4577
890.377	4714
890.501	4535
890.624	4535
890.748	4626
890.871	4497
890.995	4413
891.118	4417
891.241	4531
891.364	4542
891.488	4687
891.611	4504
891.734	4527
891.857	4550
891.98	4542
892.103	4626
892.226	4592
892.349	4508
892.471	4447
892.594	4618
892.717	4603
892.839	4558
892.962	4599
893.085	4672
893.207	4569
893.33	4478
893.452	4481
893.575	4679
893.697	4603
893.819	4854
893.941	4801
894.064	4782
894.186	4565
894.308	4573
894.43	4721
894.552	4820
894.674	4740
894.796	4634
894.918	4596
895.04	4531
895.161	4702
895.283	4634
895.405	4561
895.526	4615
895.648	4694
895.769	4645
895.891	4759
896.012	4694
896.134	4763
896.255	4618
896.376	4630
896.498	4599
896.619	4649
896.74	4618
896.861	4672
896.982	4900
897.103	5041
897.224	4858
897.345	4698
897.466	4668
897.587	4729
897.708	4873
897.828	4809
897.949	4656
898.07	4516
898.19	4649
898.311	4797
898.431	4702
898.552	4778
898.672	4790
898.792	4774
898.913	4805
899.033	4626
899.153	4554
899.273	4428
899.393	4538
899.513	4462
899.633	4516
899.753	4561
899.873	4481
899.993	4577
900.113	4565
900.232	4580
900.352	4535
900.472	4478
900.591	4424
900.711	4474
900.83	4436
900.95	4618
901.069	4660
901.189	4538
901.308	4390
901.427	4325
901.546	4413
901.665	4485
901.784	4504
901.904	4394
902.023	4363
902.141	4219
902.26	4154
902.379	4329
902.498	4253
902.617	4238
902.735	4383
902.854	4367
902.973	4344
903.091	4204
903.21	4265
903.328	4246
903.446	4234
903.565	4272
903.683	4356
903.801	4287
903.919	4379
904.038	4409
904.156	4295
904.274	4466
904.392	4424
904.51	4478
904.627	4500
904.745	4596
904.863	4596
904.981	4424
905.098	4261
905.216	4398
905.334	4421
905.451	4466
905.569	4394
905.686	4554
905.803	4618
905.921	4462
906.038	4558
906.155	4508
906.272	4383
906.389	4440
906.506	4360
906.623	4398
906.74	4424
906.857	4322
906.974	4424
907.091	4550
907.208	4698
907.324	4592
907.441	4500
907.557	4352
907.674	4337
907.79	4310
907.907	4413
908.023	4504
908.139	4481
908.256	4402
908.372	4481
908.488	4405
908.604	4363
908.72	4341
908.836	4367
908.952	4379
909.068	4409
909.184	4531
909.3	4474
909.415	4580
909.531	4565
909.647	4402
909.762	4344
909.878	4386
909.993	4440
910.108	4367
910.224	4417
910.339	4478
910.454	4386
910.57	4371
910.685	4310
910.8	4630
910.915	4645
911.03	4497
911.145	4356
911.259	4306
911.374	4341
911.489	4306
911.604	4291
911.718	4185
911.833	4204
911.947	4055
912.062	4025
912.176	4211
912.291	4230
912.405	4257
912.519	4440
912.633	4497
912.748	4405
912.862	4314
912.976	4207
913.09	4074
913.204	4173
913.318	4253
913.431	4337
913.545	4367
913.659	4394
913.772	4409
913.886	4272
914	4242
914.113	4402
914.226	4462
914.34	4417
914.453	4257
914.566	4394
914.68	4284
914.793	4344
914.906	4188
915.019	4158
915.132	4071
915.245	4177
915.358	4207
915.47	4219
915.583	4272
915.696	4295
915.809	4428
915.921	4440
916.034	4253
916.146	4242
916.259	4215
916.371	4379
916.483	4337
916.595	4287
916.708	4303
916.82	4325
916.932	4325
917.044	4322
917.156	4325
917.268	4200
917.38	4234
917.491	4253
917.603	4360
917.715	4466
917.826	4424
917.938	4344
918.049	4204
918.161	4360
918.272	4485
918.384	4538
918.495	4474
918.606	4333
918.717	4234
918.828	4306
918.939	4344
919.05	4253
919.161	4268
919.272	4131
919.383	4242
919.494	4409
919.604	4599
919.715	4413
919.826	4371
919.936	4371
920.047	4550
920.157	4535
920.267	4725
920.378	4493
920.488	4519
920.598	4714
920.708	4904
920.818	4736
920.928	4748
921.038	4957
921.148	4892
921.258	4637
921.368	4546
921.477	4489
921.587	4466
921.697	4405
921.806	4527
921.916	4405
922.025	4223
922.134	4291
922.244	4207
922.353	4306
922.462	4204
922.571	4135
922.68	3979
922.789	3956
922.898	4006
923.007	3983
923.116	4097
923.224	4021
923.333	4044
923.442	3968
923.55	3979
923.659	4071
923.767	4082
923.876	4006
923.984	4120
924.092	3979
924.201	4082
924.309	4086
924.417	4147
924.525	4040
924.633	4112
924.741	4850
924.849	3930
924.956	4101
925.064	3972
925.172	3899
925.279	3949
925.387	4044
925.494	4029
925.602	4204
925.709	4200
925.816	4055
925.924	4150
926.031	4207
926.138	4177
926.245	4185
926.352	4063
926.459	4204
926.566	4303
926.673	4093
926.779	4078
926.886	4101
926.993	3930
927.099	3937
927.206	3968
927.312	3911
927.419	4013
927.525	3979
927.631	4120
927.737	3983
927.843	3861
927.95	3819
928.056	3968
928.162	3960
928.267	4032
928.373	4558
928.479	4120
928.585	3873
928.69	4032
928.796	4086
928.901	3949
929.007	3827
929.112	4021
929.218	3960
929.323	3911
929.428	3907
929.533	4090
929.638	3911
929.743	3964
929.848	4078
929.953	4021
930.058	3918
930.163	3770
930.267	3789
930.372	3983
930.477	3789
930.581	4124
930.685	3949
930.79	3865
930.894	3838
930.998	3918
931.103	4010
931.207	3732
931.311	3713
931.415	3656
931.519	3492
931.623	3545
