Data from test_V78500241_2378.txt Node
Date: Fri Mar 25 17:05:32 CST 2022
User: usil
Spectrometer: V785-0024
Trigger mode: 0
Integration Time (sec): 4.000000E-1
Scans to average: 1
Nonlinearity correction enabled: false
Boxcar width: 0
Storing dark spectrum: false
XAxis mode: Wavelengths
Number of Pixels in Spectrum: 1024
>>>>>Begin Spectral Data<<<<<
801.071	7997
801.214	7993
801.356	7868
801.499	7887
801.641	7772
801.783	7830
801.926	7986
802.068	7978
802.211	8012
802.353	8012
802.496	7906
802.638	7860
802.78	7849
802.923	7936
803.065	7936
803.208	7909
803.35	7955
803.492	8161
803.635	8191
803.777	8050
803.919	8168
804.061	8503
804.204	8187
804.346	8183
804.488	8012
804.63	8142
804.773	8054
804.915	8168
805.057	8305
805.199	8244
805.341	8187
805.483	8248
805.626	8199
805.768	8199
805.91	8183
806.052	8221
806.194	8164
806.336	8267
806.478	8096
806.62	8123
806.762	8164
806.904	8320
807.046	8415
807.188	8279
807.33	8305
807.472	8370
807.614	8126
807.756	8134
807.898	8062
808.04	7887
808.182	7890
808.324	7944
808.465	7963
808.607	8077
808.749	8130
808.891	8248
809.033	8351
809.174	8240
809.316	8149
809.458	8111
809.6	8020
809.741	8088
809.883	8081
810.025	8096
810.166	8096
810.308	8001
810.45	7959
810.591	7879
810.733	7769
810.875	7613
811.016	7620
811.158	7495
811.299	7594
811.441	7712
811.582	7700
811.724	7624
811.865	7578
812.007	7563
812.148	7647
812.29	7639
812.431	7750
812.573	7928
812.714	7993
812.855	8062
812.997	8191
813.138	8358
813.279	8176
813.421	8107
813.562	7947
813.703	7868
813.845	7780
813.986	7472
814.127	7259
814.268	7251
814.41	7251
814.551	7225
814.692	7225
814.833	7149
814.974	7168
815.115	7149
815.256	6909
815.397	6951
815.539	6981
815.68	6848
815.821	6806
815.962	6859
816.103	6863
816.244	6738
816.385	6635
816.526	6589
816.666	6506
816.807	6361
816.948	6410
817.089	6517
817.23	6483
817.371	6429
817.512	6414
817.653	6365
817.793	6365
817.934	6429
818.075	6509
818.216	6395
818.356	6418
818.497	6300
818.638	6140
818.778	6205
818.919	6159
819.06	6148
819.2	6323
819.341	6334
819.481	6342
819.622	6604
819.762	6745
819.903	6677
820.043	6563
820.184	6574
820.324	6574
820.465	6703
820.605	6669
820.746	6654
820.886	6532
821.026	6745
821.167	6684
821.307	6814
821.447	6768
821.588	6700
821.728	6635
821.868	6559
822.008	6315
822.149	6399
822.289	6391
822.429	6136
822.569	6068
822.709	6144
822.849	5965
822.99	5946
823.13	5980
823.27	5946
823.41	5798
823.55	5745
823.69	5786
823.83	5764
823.97	5665
824.11	5562
824.25	5543
824.389	5604
824.529	5630
824.669	5501
824.809	5581
824.949	5661
825.089	5653
825.228	5577
825.368	5448
825.508	5334
825.648	5345
825.787	5391
825.927	5410
826.067	5311
826.206	5288
826.346	5383
826.485	5448
826.625	5398
826.765	5547
826.904	5478
827.044	5258
827.183	5193
827.323	5113
827.462	5280
827.601	5223
827.741	5185
827.88	5273
828.02	5117
828.159	5216
828.298	5299
828.437	5349
828.577	5311
828.716	5501
828.855	5368
828.994	5208
829.134	5174
829.273	5193
829.412	5178
829.551	5170
829.69	5159
829.829	5197
829.968	5318
830.107	5341
830.246	5322
830.385	5151
830.524	5098
830.663	5071
830.802	4995
830.941	4915
831.08	4850
831.219	4995
831.357	4984
831.496	5159
831.635	4968
831.774	4877
831.913	4919
832.051	4748
832.19	4706
832.329	4850
832.467	4702
832.606	4649
832.744	4771
832.883	4793
833.022	4782
833.16	4782
833.299	4881
833.437	4858
833.576	4828
833.714	4870
833.852	4877
833.991	4854
834.129	4934
834.267	4968
834.406	4873
834.544	4980
834.682	5014
834.821	5006
834.959	5231
835.097	5018
835.235	5140
835.373	5086
835.511	5117
835.65	5033
835.788	5006
835.926	4915
836.064	4858
836.202	4896
836.34	5193
836.478	5258
836.615	5098
836.753	5220
836.891	5288
837.029	5223
837.167	5208
837.305	5159
837.443	5140
837.58	5102
837.718	5227
837.856	5162
837.993	5136
838.131	5227
838.269	5235
838.406	5220
838.544	5181
838.681	5056
838.819	5010
838.956	4915
839.094	4911
839.231	4957
839.369	5079
839.506	5444
839.643	5284
839.781	5086
839.918	5025
840.055	5079
840.193	5079
840.33	5090
840.467	5151
840.604	5212
840.742	5402
840.879	5083
841.016	5064
841.153	5181
841.29	5379
841.427	5326
841.564	5330
841.701	5364
841.838	5258
841.975	5269
842.112	5242
842.249	5143
842.385	5132
842.522	5349
842.659	5204
842.796	5105
842.933	5178
843.069	5159
843.206	5121
843.343	5337
843.479	5265
843.616	5250
843.752	5010
843.889	5022
844.025	5341
844.162	4984
844.298	5201
844.435	5098
844.571	5109
844.708	5151
844.844	5311
844.98	5334
845.117	5296
845.253	5136
845.389	5075
845.525	5155
845.661	5166
845.798	5003
845.934	5143
846.07	5018
846.206	5155
846.342	5296
846.478	5159
846.614	5022
846.75	5006
846.886	4942
847.022	5155
847.158	5037
847.294	5041
847.429	5159
847.565	5022
847.701	5299
847.837	4835
847.972	4873
848.108	4972
848.244	4953
848.379	4816
848.515	4793
848.65	4714
848.786	4809
848.921	4816
849.057	4839
849.192	4942
849.328	4831
849.463	4820
849.598	4793
849.734	4793
849.869	4645
850.004	4588
850.14	4618
850.275	4596
850.41	4470
850.545	4558
850.68	4592
850.815	4611
850.95	4641
851.085	4805
851.22	4782
851.355	4660
851.49	4649
851.625	4645
851.76	4637
851.895	4550
852.03	4531
852.165	4630
852.299	4714
852.434	4809
852.569	4736
852.703	4786
852.838	4847
852.973	4961
853.107	4930
853.242	4752
853.376	4653
853.511	4519
853.645	4653
853.78	4771
853.914	4721
854.048	4645
854.183	4656
854.317	4694
854.451	4801
854.585	4691
854.72	4637
854.854	4763
854.988	4656
855.122	4679
855.256	4538
855.39	4672
855.524	4793
855.658	4710
855.792	4694
855.926	4733
856.06	4771
856.194	4774
856.327	4637
856.461	4603
856.595	4660
856.729	4580
856.862	4797
856.996	4717
857.13	4714
857.263	4774
857.397	4839
857.53	4656
857.664	4691
857.797	4797
857.931	4729
858.064	4683
858.197	4733
858.331	4683
858.464	4618
858.597	4527
858.731	4618
858.864	4622
858.997	4588
859.13	4660
859.263	4675
859.396	4714
859.529	4599
859.662	4584
859.795	4538
859.928	4611
860.061	4778
860.194	4820
860.327	4588
860.46	4573
860.592	4736
860.725	4733
860.858	4736
860.99	4607
861.123	4538
861.256	4512
861.388	4660
861.521	5231
861.653	4497
861.786	4432
861.918	4459
862.05	4508
862.183	4508
862.315	4569
862.447	4664
862.58	4527
862.712	4371
862.844	4352
862.976	4497
863.108	4462
863.24	4717
863.372	4303
863.504	4424
863.636	4371
863.768	4512
863.9	4447
864.032	4367
864.164	4421
864.296	4466
864.428	4527
864.559	4561
864.691	4558
864.823	4550
864.954	4489
865.086	4489
865.217	4493
865.349	4409
865.48	4436
865.612	4493
865.743	4656
865.875	4451
866.006	4417
866.137	4436
866.269	4459
866.4	4466
866.531	4405
866.662	4356
866.793	4390
866.924	4421
867.055	4512
867.186	4447
867.317	4424
867.448	4405
867.579	4379
867.71	4478
867.841	4367
867.972	4481
868.103	4470
868.233	4466
868.364	4409
868.495	4481
868.625	4637
868.756	4752
868.886	4523
869.017	4626
869.147	4786
869.278	4744
869.408	4649
869.539	4634
869.669	4721
869.799	4656
869.929	4767
870.06	4721
870.19	5003
870.32	4900
870.45	4946
870.58	5037
870.71	5105
870.84	5105
870.97	4908
871.1	4904
871.23	5143
871.36	5147
871.489	4987
871.619	5094
871.749	5060
871.879	5124
872.008	5239
872.138	5090
872.267	4961
872.397	4816
872.526	4809
872.656	4740
872.785	4793
872.915	4961
873.044	5033
873.173	4946
873.303	4942
873.432	4949
873.561	4999
873.69	4904
873.819	4896
873.948	4900
874.077	4843
874.206	4774
874.335	4763
874.464	4900
874.593	4999
874.722	4953
874.851	5086
874.979	5033
875.108	4984
875.237	4900
875.365	4870
875.494	4870
875.623	4930
875.751	4824
875.88	4881
876.008	5003
876.136	5010
876.265	5220
876.393	5334
876.521	5208
876.65	5246
876.778	5181
876.906	5098
877.034	4976
877.162	5128
877.29	4999
877.418	5064
877.546	5006
877.674	5033
877.802	5067
877.93	4976
878.058	4961
878.185	4900
878.313	4881
878.441	4949
878.568	4797
878.696	4870
878.824	4923
878.951	5052
879.079	5102
879.206	5303
879.333	5083
879.461	4995
879.588	4961
879.715	5079
879.842	5155
879.97	5022
880.097	4805
880.224	4752
880.351	4790
880.478	4801
880.605	4797
880.732	4816
880.859	5102
880.986	4870
881.112	4972
881.239	4755
881.366	4653
881.493	4599
881.619	4573
881.746	4630
881.872	4618
881.999	4630
882.125	4706
882.252	4759
882.378	4885
882.505	4980
882.631	4793
882.757	4641
882.883	4725
883.01	4691
883.136	4698
883.262	4599
883.388	4630
883.514	4835
883.64	4877
883.766	4797
883.892	4653
884.018	4698
884.143	4892
884.269	4976
884.395	4687
884.52	4649
884.646	4687
884.772	4599
884.897	4607
885.023	4675
885.148	4824
885.274	4881
885.399	4801
885.524	4694
885.65	4710
885.775	4710
885.9	4672
886.025	4904
886.15	4809
886.275	4664
886.4	4656
886.525	4767
886.65	4672
886.775	4691
886.9	4930
887.025	5083
887.149	4816
887.274	4691
887.399	4577
887.523	4565
887.648	4607
887.773	4637
887.897	4786
888.021	4816
888.146	4664
888.27	4824
888.395	4892
888.519	4778
888.643	4782
888.767	4782
888.891	4660
889.015	4641
889.139	4641
889.263	4641
889.387	4740
889.511	4854
889.635	4782
889.759	4672
889.883	4649
890.006	4721
890.13	4858
890.254	4611
890.377	4683
890.501	4516
890.624	4523
890.748	4649
890.871	4508
890.995	4432
891.118	4394
891.241	4535
891.364	4561
891.488	4653
891.611	4470
891.734	4550
891.857	4596
891.98	4561
892.103	4641
892.226	4550
892.349	4535
892.471	4443
892.594	4493
892.717	4588
892.839	4497
892.962	4603
893.085	4683
893.207	4580
893.33	4508
893.452	4519
893.575	4679
893.697	4550
893.819	4828
893.941	4782
894.064	4835
894.186	4611
894.308	4565
894.43	4706
894.552	4816
894.674	4816
894.796	4500
894.918	4573
895.04	4569
895.161	4729
895.283	4656
895.405	4569
895.526	4645
895.648	4679
895.769	4679
895.891	4710
896.012	4767
896.134	4698
896.255	4668
896.376	4618
896.498	4611
896.619	4672
896.74	4618
896.861	4634
896.982	4904
897.103	5022
897.224	4873
897.345	4755
897.466	4672
897.587	4733
897.708	4877
897.828	4812
897.949	4668
898.07	4637
898.19	4687
898.311	4877
898.431	4691
898.552	4729
898.672	4812
898.792	4778
898.913	4721
899.033	4607
899.153	4485
899.273	4405
899.393	4497
899.513	4500
899.633	4519
899.753	4588
899.873	4500
899.993	4546
900.113	4512
900.232	4599
900.352	4519
900.472	4481
900.591	4379
900.711	4493
900.83	4443
900.95	4607
901.069	4683
901.189	4527
901.308	4394
901.427	4310
901.546	4367
901.665	4497
901.784	4504
901.904	4394
902.023	4306
902.141	4204
902.26	4196
902.379	4344
902.498	4230
902.617	4242
902.735	4379
902.854	4390
902.973	4367
903.091	4253
903.21	4223
903.328	4295
903.446	4265
903.565	4253
903.683	4310
903.801	4367
903.919	4386
904.038	4440
904.156	4310
904.274	4421
904.392	4432
904.51	4432
904.627	4451
904.745	4596
904.863	4668
904.981	4383
905.098	4272
905.216	4383
905.334	4379
905.451	4443
905.569	4424
905.686	4550
905.803	4542
905.921	4428
906.038	4519
906.155	4447
906.272	4383
906.389	4455
906.506	4405
906.623	4379
906.74	4383
906.857	4287
906.974	4390
907.091	4554
907.208	4672
907.324	4645
907.441	4519
907.557	4333
907.674	4333
907.79	4291
907.907	4360
908.023	4519
908.139	4459
908.256	4440
908.372	4485
908.488	4421
908.604	4344
908.72	4333
908.836	4352
908.952	4341
909.068	4432
909.184	4531
909.3	4493
909.415	4580
909.531	4573
909.647	4314
909.762	4390
909.878	4417
909.993	4489
910.108	4383
910.224	4440
910.339	4462
910.454	4417
910.57	4322
910.685	4310
910.8	4687
910.915	4626
911.03	4497
911.145	4310
911.259	4344
911.374	4356
911.489	4367
911.604	4261
911.718	4200
911.833	4204
911.947	4059
912.062	4006
912.176	4211
912.291	4246
912.405	4238
912.519	4470
912.633	4436
912.748	4386
912.862	4280
912.976	4219
913.09	4097
913.204	4169
913.318	4223
913.431	4352
913.545	4375
913.659	4451
913.772	4363
913.886	4257
914	4207
914.113	4383
914.226	4394
914.34	4386
914.453	4211
914.566	4405
914.68	4314
914.793	4337
914.906	4181
915.019	4124
915.132	4093
915.245	4181
915.358	4185
915.47	4272
915.583	4261
915.696	4291
915.809	4367
915.921	4413
916.034	4314
916.146	4249
916.259	4276
916.371	4394
916.483	4356
916.595	4291
916.708	4363
916.82	4337
916.932	4352
917.044	4318
917.156	4325
917.268	4230
917.38	4291
917.491	4272
917.603	4402
917.715	4375
917.826	4424
917.938	4310
918.049	4234
918.161	4409
918.272	4558
918.384	4573
918.495	4432
918.606	4284
918.717	4234
918.828	4379
918.939	4352
919.05	4261
919.161	4280
919.272	4158
919.383	4234
919.494	4428
919.604	4588
919.715	4360
919.826	4333
919.936	4459
920.047	4523
920.157	4466
920.267	4683
920.378	4542
920.488	4527
920.598	4698
920.708	4877
920.818	4725
920.928	4771
921.038	4991
921.148	4896
921.258	4622
921.368	4535
921.477	4466
921.587	4470
921.697	4405
921.806	4516
921.916	4443
922.025	4310
922.134	4303
922.244	4215
922.353	4325
922.462	4158
922.571	4128
922.68	4017
922.789	3949
922.898	4032
923.007	3983
923.116	4074
923.224	4044
923.333	4048
923.442	4029
923.55	3941
923.659	4051
923.767	4097
923.876	4002
923.984	4109
924.092	4002
924.201	4071
924.309	4090
924.417	4150
924.525	4036
924.633	4063
924.741	5029
924.849	3960
924.956	4158
925.064	3972
925.172	3937
925.279	3972
925.387	4044
925.494	4013
925.602	4185
925.709	4204
925.816	4021
925.924	4105
926.031	4230
926.138	4169
926.245	4215
926.352	4093
926.459	4227
926.566	4322
926.673	4169
926.779	4048
926.886	4071
926.993	3994
927.099	3987
927.206	3956
927.312	3918
927.419	4029
927.525	4059
927.631	4074
927.737	3941
927.843	3903
927.95	3827
928.056	4006
928.162	3941
928.267	4059
928.373	4611
928.479	4147
928.585	3880
928.69	4032
928.796	4071
928.901	3956
929.007	3804
929.112	4032
929.218	3972
929.323	3903
929.428	3968
929.533	4097
929.638	3922
929.743	3972
929.848	4078
929.953	3994
930.058	3907
930.163	3816
930.267	3793
930.372	3934
930.477	3804
930.581	4078
930.685	3911
930.79	3835
930.894	3926
930.998	3854
931.103	4048
931.207	3663
931.311	3705
931.415	3656
931.519	3500
931.623	3549
