Data from test_V78500241_1006.txt Node
Date: Fri Mar 25 16:55:59 CST 2022
User: usil
Spectrometer: V785-0024
Trigger mode: 0
Integration Time (sec): 4.000000E-1
Scans to average: 1
Nonlinearity correction enabled: false
Boxcar width: 0
Storing dark spectrum: false
XAxis mode: Wavelengths
Number of Pixels in Spectrum: 1024
>>>>>Begin Spectral Data<<<<<
801.071	8081
801.214	8031
801.356	7921
801.499	7830
801.641	7837
801.783	7795
801.926	7974
802.068	7864
802.211	7997
802.353	8016
802.496	7811
802.638	7883
802.78	7883
802.923	7913
803.065	7887
803.208	7925
803.35	8039
803.492	8069
803.635	8168
803.777	8024
803.919	8050
804.061	8415
804.204	8130
804.346	8039
804.488	7928
804.63	8157
804.773	7944
804.915	8081
805.057	8229
805.199	8142
805.341	8286
805.483	8195
805.626	8187
805.768	8065
805.91	8187
806.052	8176
806.194	8062
806.336	8282
806.478	8130
806.62	8084
806.762	8138
806.904	8210
807.046	8507
807.188	8347
807.33	8301
807.472	8244
807.614	8138
807.756	8168
807.898	7986
808.04	7917
808.182	7864
808.324	7887
808.465	7890
808.607	8039
808.749	8084
808.891	8172
809.033	8279
809.174	8309
809.316	8069
809.458	8081
809.6	8050
809.741	8008
809.883	8008
810.025	8043
810.166	8039
810.308	8016
810.45	7974
810.591	7898
810.733	7746
810.875	7639
811.016	7483
811.158	7499
811.299	7609
811.441	7696
811.582	7658
811.724	7616
811.865	7506
812.007	7567
812.148	7620
812.29	7658
812.431	7715
812.573	7807
812.714	7963
812.855	8107
812.997	8187
813.138	8252
813.279	8145
813.421	8149
813.562	8062
813.703	7887
813.845	7761
813.986	7422
814.127	7259
814.268	7221
814.41	7244
814.551	7080
814.692	7213
814.833	7038
814.974	6947
815.115	7084
815.256	6993
815.397	6916
815.539	6962
815.68	6844
815.821	6798
815.962	6894
816.103	6802
816.244	6696
816.385	6654
816.526	6642
816.666	6441
816.807	6304
816.948	6410
817.089	6422
817.23	6422
817.371	6353
817.512	6403
817.653	6388
817.793	6353
817.934	6361
818.075	6475
818.216	6422
818.356	6380
818.497	6197
818.638	6148
818.778	6159
818.919	6098
819.06	6175
819.2	6380
819.341	6311
819.481	6391
819.622	6551
819.762	6650
819.903	6760
820.043	6612
820.184	6566
820.324	6566
820.465	6696
820.605	6738
820.746	6669
820.886	6536
821.026	6616
821.167	6753
821.307	6802
821.447	6722
821.588	6677
821.728	6547
821.868	6475
822.008	6292
822.149	6422
822.289	6315
822.429	6117
822.569	6076
822.709	6083
822.849	5939
822.99	5878
823.13	5927
823.27	5935
823.41	5805
823.55	5783
823.69	5813
823.83	5771
823.97	5699
824.11	5524
824.25	5490
824.389	5570
824.529	5577
824.669	5501
824.809	5615
824.949	5680
825.089	5627
825.228	5562
825.368	5402
825.508	5337
825.648	5318
825.787	5337
825.927	5387
826.067	5235
826.206	5307
826.346	5395
826.485	5395
826.625	5368
826.765	5543
826.904	5455
827.044	5235
827.183	5178
827.323	5094
827.462	5227
827.601	5174
827.741	5166
827.88	5258
828.02	5113
828.159	5223
828.298	5288
828.437	5337
828.577	5242
828.716	5486
828.855	5326
828.994	5223
829.134	5132
829.273	5124
829.412	5147
829.551	5090
829.69	5151
829.829	5220
829.968	5341
830.107	5288
830.246	5284
830.385	5140
830.524	5124
830.663	5075
830.802	4987
830.941	4850
831.08	4850
831.219	4957
831.357	4927
831.496	5193
831.635	4919
831.774	4812
831.913	4797
832.051	4717
832.19	4748
832.329	4835
832.467	4706
832.606	4580
832.744	4736
832.883	4714
833.022	4721
833.16	4759
833.299	4816
833.437	4790
833.576	4854
833.714	4904
833.852	4801
833.991	4873
834.129	4889
834.267	4999
834.406	4953
834.544	4953
834.682	4961
834.821	4946
834.959	5147
835.097	5010
835.235	5189
835.373	5086
835.511	5109
835.65	5045
835.788	5067
835.926	4896
836.064	4816
836.202	4942
836.34	5132
836.478	5258
836.615	5113
836.753	5166
836.891	5284
837.029	5204
837.167	5159
837.305	5140
837.443	5132
837.58	5060
837.718	5227
837.856	5174
837.993	5105
838.131	5181
838.269	5212
838.406	5155
838.544	5128
838.681	5018
838.819	4999
838.956	4847
839.094	4911
839.231	4965
839.369	5056
839.506	5433
839.643	5246
839.781	5102
839.918	5033
840.055	5143
840.193	5086
840.33	5052
840.467	5090
840.604	5155
840.742	5455
840.879	5086
841.016	5064
841.153	5136
841.29	5387
841.427	5353
841.564	5307
841.701	5368
841.838	5280
841.975	5231
842.112	5189
842.249	5117
842.385	5102
842.522	5315
842.659	5162
842.796	5140
842.933	5258
843.069	5098
843.206	5105
843.343	5334
843.479	5239
843.616	5254
843.752	5048
843.889	4987
844.025	5242
844.162	5037
844.298	5132
844.435	5045
844.571	5025
844.708	5143
844.844	5318
844.98	5318
845.117	5292
845.253	5212
845.389	5090
845.525	5094
845.661	5117
845.798	5041
845.934	5159
846.07	5045
846.206	5185
846.342	5330
846.478	5185
846.614	4953
846.75	4957
846.886	4915
847.022	5079
847.158	5060
847.294	4995
847.429	5067
847.565	5052
847.701	5258
847.837	4828
847.972	4809
848.108	4927
848.244	4911
848.379	4752
848.515	4679
848.65	4721
848.786	4702
848.921	4740
849.057	4847
849.192	4873
849.328	4816
849.463	4767
849.598	4740
849.734	4759
849.869	4721
850.004	4577
850.14	4691
850.275	4584
850.41	4508
850.545	4531
850.68	4588
850.815	4573
850.95	4634
851.085	4790
851.22	4736
851.355	4672
851.49	4603
851.625	4656
851.76	4653
851.895	4519
852.03	4451
852.165	4615
852.299	4694
852.434	4778
852.569	4740
852.703	4752
852.838	4790
852.973	4919
853.107	4942
853.242	4740
853.376	4668
853.511	4523
853.645	4603
853.78	4763
853.914	4694
854.048	4641
854.183	4637
854.317	4683
854.451	4854
854.585	4675
854.72	4637
854.854	4793
854.988	4580
855.122	4615
855.256	4481
855.39	4645
855.524	4729
855.658	4721
855.792	4656
855.926	4698
856.06	4740
856.194	4778
856.327	4675
856.461	4630
856.595	4596
856.729	4645
856.862	4755
856.996	4687
857.13	4748
857.263	4778
857.397	4721
857.53	4596
857.664	4748
857.797	4759
857.931	4752
858.064	4706
858.197	4729
858.331	4618
858.464	4653
858.597	4531
858.731	4618
858.864	4637
858.997	4611
859.13	4569
859.263	4687
859.396	4645
859.529	4535
859.662	4519
859.795	4527
859.928	4565
860.061	4706
860.194	4729
860.327	4615
860.46	4542
860.592	4664
860.725	4710
860.858	4748
860.99	4546
861.123	4531
861.256	4546
861.388	4577
861.521	5227
861.653	4474
861.786	4459
861.918	4451
862.05	4489
862.183	4550
862.315	4615
862.447	4660
862.58	4546
862.712	4409
862.844	4295
862.976	4481
863.108	4443
863.24	4847
863.372	4325
863.504	4352
863.636	4363
863.768	4447
863.9	4413
864.032	4337
864.164	4375
864.296	4432
864.428	4527
864.559	4497
864.691	4497
864.823	4504
864.954	4470
865.086	4504
865.217	4417
865.349	4417
865.48	4421
865.612	4455
865.743	4603
865.875	4428
866.006	4455
866.137	4383
866.269	4421
866.4	4398
866.531	4443
866.662	4356
866.793	4402
866.924	4428
867.055	4489
867.186	4451
867.317	4413
867.448	4367
867.579	4375
867.71	4333
867.841	4325
867.972	4447
868.103	4443
868.233	4424
868.364	4424
868.495	4451
868.625	4660
868.756	4714
868.886	4527
869.017	4649
869.147	4767
869.278	4771
869.408	4664
869.539	4607
869.669	4687
869.799	4649
869.929	4793
870.06	4691
870.19	4881
870.32	4911
870.45	4908
870.58	4965
870.71	5048
870.84	5090
870.97	4965
871.1	4866
871.23	5117
871.36	5086
871.489	5025
871.619	5121
871.749	5064
871.879	5098
872.008	5121
872.138	5022
872.267	4949
872.397	4847
872.526	4786
872.656	4702
872.785	4759
872.915	4965
873.044	4991
873.173	4930
873.303	4972
873.432	4889
873.561	4942
873.69	4831
873.819	4866
873.948	4911
874.077	4797
874.206	4736
874.335	4774
874.464	4870
874.593	5064
874.722	4942
874.851	5117
874.979	5037
875.108	5060
875.237	4885
875.365	4870
875.494	4881
875.623	5052
875.751	4877
875.88	4896
876.008	4938
876.136	4987
876.265	5166
876.393	5372
876.521	5258
876.65	5239
876.778	5162
876.906	5041
877.034	5014
877.162	5064
877.29	5045
877.418	5048
877.546	5045
877.674	5010
877.802	5010
877.93	4999
878.058	4930
878.185	4877
878.313	4930
878.441	4930
878.568	4858
878.696	4816
878.824	4953
878.951	4991
879.079	5151
879.206	5250
879.333	5113
879.461	4995
879.588	4991
879.715	5143
879.842	5235
879.97	5006
880.097	4824
880.224	4752
880.351	4790
880.478	4816
880.605	4812
880.732	4759
880.859	5079
880.986	4881
881.112	4904
881.239	4771
881.366	4626
881.493	4618
881.619	4599
881.746	4630
881.872	4622
881.999	4599
882.125	4653
882.252	4759
882.378	4801
882.505	4942
882.631	4793
882.757	4653
882.883	4755
883.01	4710
883.136	4653
883.262	4580
883.388	4577
883.514	4847
883.64	4854
883.766	4763
883.892	4653
884.018	4721
884.143	4854
884.269	5014
884.395	4691
884.52	4603
884.646	4645
884.772	4577
884.897	4561
885.023	4660
885.148	4759
885.274	4828
885.399	4763
885.524	4698
885.65	4702
885.775	4729
885.9	4706
886.025	4854
886.15	4782
886.275	4725
886.4	4618
886.525	4691
886.65	4771
886.775	4721
886.9	4949
887.025	5006
887.149	4831
887.274	4641
887.399	4538
887.523	4584
887.648	4535
887.773	4569
887.897	4752
888.021	4755
888.146	4694
888.27	4767
888.395	4946
888.519	4767
888.643	4843
888.767	4809
888.891	4668
889.015	4626
889.139	4679
889.263	4588
889.387	4748
889.511	4858
889.635	4820
889.759	4656
889.883	4599
890.006	4744
890.13	4793
890.254	4592
890.377	4714
890.501	4538
890.624	4455
890.748	4599
890.871	4504
890.995	4421
891.118	4379
891.241	4485
891.364	4508
891.488	4611
891.611	4474
891.734	4535
891.857	4626
891.98	4516
892.103	4653
892.226	4592
892.349	4573
892.471	4379
892.594	4535
892.717	4565
892.839	4573
892.962	4584
893.085	4653
893.207	4569
893.33	4459
893.452	4474
893.575	4691
893.697	4565
893.819	4793
893.941	4820
894.064	4717
894.186	4535
894.308	4577
894.43	4752
894.552	4873
894.674	4725
894.796	4542
894.918	4603
895.04	4558
895.161	4710
895.283	4679
895.405	4546
895.526	4645
895.648	4668
895.769	4645
895.891	4691
896.012	4698
896.134	4706
896.255	4656
896.376	4611
896.498	4618
896.619	4675
896.74	4596
896.861	4637
896.982	4930
897.103	5098
897.224	4809
897.345	4733
897.466	4637
897.587	4698
897.708	4824
897.828	4744
897.949	4649
898.07	4561
898.19	4683
898.311	4797
898.431	4672
898.552	4710
898.672	4820
898.792	4778
898.913	4679
899.033	4588
899.153	4527
899.273	4462
899.393	4455
899.513	4538
899.633	4497
899.753	4504
899.873	4485
899.993	4573
900.113	4558
900.232	4588
900.352	4565
900.472	4417
900.591	4394
900.711	4512
900.83	4424
900.95	4603
901.069	4668
901.189	4577
901.308	4352
901.427	4344
901.546	4337
901.665	4481
901.784	4489
901.904	4322
902.023	4303
902.141	4188
902.26	4147
902.379	4276
902.498	4238
902.617	4223
902.735	4322
902.854	4318
902.973	4322
903.091	4196
903.21	4215
903.328	4295
903.446	4299
903.565	4284
903.683	4325
903.801	4211
903.919	4409
904.038	4413
904.156	4314
904.274	4470
904.392	4341
904.51	4402
904.627	4481
904.745	4565
904.863	4573
904.981	4421
905.098	4341
905.216	4337
905.334	4451
905.451	4447
905.569	4383
905.686	4527
905.803	4565
905.921	4386
906.038	4531
906.155	4451
906.272	4352
906.389	4462
906.506	4394
906.623	4363
906.74	4360
906.857	4299
906.974	4371
907.091	4569
907.208	4656
907.324	4615
907.441	4466
907.557	4341
907.674	4284
907.79	4303
907.907	4352
908.023	4447
908.139	4432
908.256	4440
908.372	4436
908.488	4421
908.604	4348
908.72	4276
908.836	4352
908.952	4329
909.068	4402
909.184	4558
909.3	4508
909.415	4584
909.531	4554
909.647	4375
909.762	4333
909.878	4386
909.993	4402
910.108	4402
910.224	4417
910.339	4470
910.454	4383
910.57	4379
910.685	4318
910.8	4653
910.915	4656
911.03	4443
911.145	4318
911.259	4329
911.374	4367
911.489	4291
911.604	4284
911.718	4207
911.833	4166
911.947	4124
912.062	4017
912.176	4158
912.291	4284
912.405	4207
912.519	4447
912.633	4542
912.748	4371
912.862	4322
912.976	4207
913.09	4090
913.204	4166
913.318	4265
913.431	4337
913.545	4352
913.659	4443
913.772	4352
913.886	4265
914	4200
914.113	4360
914.226	4432
914.34	4379
914.453	4238
914.566	4375
914.68	4287
914.793	4348
914.906	4154
915.019	4093
915.132	4158
915.245	4192
915.358	4166
915.47	4246
915.583	4261
915.696	4284
915.809	4405
915.921	4356
916.034	4219
916.146	4253
916.259	4200
916.371	4356
916.483	4337
916.595	4257
916.708	4310
916.82	4295
916.932	4318
917.044	4322
917.156	4341
917.268	4242
917.38	4284
917.491	4268
917.603	4348
917.715	4413
917.826	4386
917.938	4348
918.049	4207
918.161	4428
918.272	4489
918.384	4527
918.495	4481
918.606	4310
918.717	4272
918.828	4363
918.939	4325
919.05	4227
919.161	4341
919.272	4120
919.383	4246
919.494	4428
919.604	4607
919.715	4489
919.826	4329
919.936	4394
920.047	4478
920.157	4478
920.267	4679
920.378	4580
920.488	4481
920.598	4729
920.708	4862
920.818	4714
920.928	4778
921.038	4919
921.148	4908
921.258	4599
921.368	4542
921.477	4508
921.587	4474
921.697	4352
921.806	4500
921.916	4443
922.025	4211
922.134	4276
922.244	4181
922.353	4333
922.462	4143
922.571	4128
922.68	4010
922.789	3991
922.898	3994
923.007	3994
923.116	4109
923.224	4071
923.333	4067
923.442	3975
923.55	3937
923.659	4044
923.767	4086
923.876	4013
923.984	4120
924.092	3979
924.201	4063
924.309	4120
924.417	4150
924.525	4036
924.633	4101
924.741	5029
924.849	3915
924.956	4143
925.064	3922
925.172	3934
925.279	3991
925.387	4067
925.494	4074
925.602	4154
925.709	4162
925.816	3983
925.924	4124
926.031	4234
926.138	4112
926.245	4204
926.352	4135
926.459	4272
926.566	4303
926.673	4147
926.779	4078
926.886	4078
926.993	3960
927.099	3892
927.206	3937
927.312	3968
927.419	4055
927.525	4059
927.631	4071
927.737	3918
927.843	3888
927.95	3880
928.056	3953
928.162	3983
928.267	4051
928.373	4672
928.479	4112
928.585	3850
928.69	3983
928.796	4105
928.901	3907
929.007	3854
929.112	4013
929.218	3994
929.323	3941
929.428	3911
929.533	4131
929.638	3869
929.743	3956
929.848	4040
929.953	3983
930.058	3949
930.163	3766
930.267	3800
930.372	3968
930.477	3785
930.581	4086
930.685	3934
930.79	3800
930.894	3865
930.998	3892
931.103	4048
931.207	3698
931.311	3698
931.415	3690
931.519	3568
931.623	3549
