Data from test_V78500241_2353.txt Node
Date: Fri Mar 25 17:05:21 CST 2022
User: usil
Spectrometer: V785-0024
Trigger mode: 0
Integration Time (sec): 4.000000E-1
Scans to average: 1
Nonlinearity correction enabled: false
Boxcar width: 0
Storing dark spectrum: false
XAxis mode: Wavelengths
Number of Pixels in Spectrum: 1024
>>>>>Begin Spectral Data<<<<<
801.071	8008
801.214	7982
801.356	7871
801.499	7818
801.641	7757
801.783	7753
801.926	7989
802.068	7947
802.211	7932
802.353	8001
802.496	7849
802.638	7928
802.78	7852
802.923	7887
803.065	7894
803.208	7860
803.35	7986
803.492	8084
803.635	8130
803.777	8046
803.919	8081
804.061	8389
804.204	8195
804.346	8058
804.488	7944
804.63	8065
804.773	8046
804.915	8107
805.057	8286
805.199	8062
805.341	8240
805.483	8279
805.626	8240
805.768	8164
805.91	8149
806.052	8172
806.194	8081
806.336	8336
806.478	8043
806.62	8001
806.762	8058
806.904	8252
807.046	8427
807.188	8393
807.33	8324
807.472	8343
807.614	8134
807.756	8164
807.898	8046
808.04	7837
808.182	7830
808.324	7875
808.465	7906
808.607	8073
808.749	8107
808.891	8191
809.033	8244
809.174	8180
809.316	8134
809.458	8081
809.6	7986
809.741	7982
809.883	8062
810.025	8088
810.166	8054
810.308	7944
810.45	7989
810.591	7837
810.733	7776
810.875	7620
811.016	7502
811.158	7491
811.299	7628
811.441	7712
811.582	7643
811.724	7506
811.865	7476
812.007	7613
812.148	7582
812.29	7643
812.431	7715
812.573	7894
812.714	7951
812.855	8138
812.997	8202
813.138	8286
813.279	8168
813.421	8107
813.562	8001
813.703	7795
813.845	7761
813.986	7472
814.127	7316
814.268	7228
814.41	7168
814.551	7194
814.692	7259
814.833	7069
814.974	7133
815.115	7076
815.256	6954
815.397	6935
815.539	6905
815.68	6825
815.821	6802
815.962	6852
816.103	6806
816.244	6715
816.385	6601
816.526	6635
816.666	6456
816.807	6304
816.948	6456
817.089	6471
817.23	6429
817.371	6346
817.512	6372
817.653	6369
817.793	6414
817.934	6448
818.075	6490
818.216	6464
818.356	6361
818.497	6247
818.638	6148
818.778	6125
818.919	6148
819.06	6205
819.2	6380
819.341	6331
819.481	6414
819.622	6593
819.762	6783
819.903	6684
820.043	6570
820.184	6513
820.324	6563
820.465	6677
820.605	6620
820.746	6639
820.886	6536
821.026	6658
821.167	6715
821.307	6840
821.447	6795
821.588	6673
821.728	6627
821.868	6513
822.008	6357
822.149	6414
822.289	6369
822.429	6098
822.569	6076
822.709	6121
822.849	5939
822.99	5961
823.13	5935
823.27	5954
823.41	5760
823.55	5821
823.69	5726
823.83	5794
823.97	5627
824.11	5539
824.25	5539
824.389	5535
824.529	5581
824.669	5539
824.809	5634
824.949	5684
825.089	5627
825.228	5543
825.368	5368
825.508	5368
825.648	5334
825.787	5360
825.927	5334
826.067	5322
826.206	5330
826.346	5402
826.485	5444
826.625	5391
826.765	5562
826.904	5512
827.044	5258
827.183	5242
827.323	5124
827.462	5223
827.601	5143
827.741	5155
827.88	5231
828.02	5140
828.159	5204
828.298	5239
828.437	5349
828.577	5307
828.716	5490
828.855	5303
828.994	5151
829.134	5143
829.273	5239
829.412	5170
829.551	5128
829.69	5147
829.829	5223
829.968	5376
830.107	5303
830.246	5242
830.385	5170
830.524	5136
830.663	5109
830.802	5014
830.941	4911
831.08	4892
831.219	5010
831.357	4991
831.496	5159
831.635	4911
831.774	4889
831.913	4774
832.051	4755
832.19	4782
832.329	4763
832.467	4698
832.606	4622
832.744	4714
832.883	4729
833.022	4717
833.16	4733
833.299	4797
833.437	4820
833.576	4850
833.714	4850
833.852	4877
833.991	4889
834.129	4949
834.267	4908
834.406	4870
834.544	5029
834.682	4980
834.821	4930
834.959	5090
835.097	4927
835.235	5136
835.373	5064
835.511	5090
835.65	5014
835.788	5041
835.926	4889
836.064	4839
836.202	4919
836.34	5155
836.478	5254
836.615	5090
836.753	5258
836.891	5315
837.029	5212
837.167	5235
837.305	5220
837.443	5143
837.58	5033
837.718	5250
837.856	5170
837.993	5151
838.131	5201
838.269	5208
838.406	5185
838.544	5178
838.681	5025
838.819	5045
838.956	4919
839.094	4873
839.231	5006
839.369	5109
839.506	5444
839.643	5277
839.781	5025
839.918	5033
840.055	5083
840.193	5079
840.33	5060
840.467	5083
840.604	5189
840.742	5436
840.879	5025
841.016	5117
841.153	5140
841.29	5315
841.427	5284
841.564	5311
841.701	5349
841.838	5212
841.975	5223
842.112	5254
842.249	5094
842.385	5083
842.522	5318
842.659	5216
842.796	5181
842.933	5174
843.069	5155
843.206	5162
843.343	5345
843.479	5280
843.616	5231
843.752	5048
843.889	4976
844.025	5235
844.162	5018
844.298	5261
844.435	5105
844.571	5075
844.708	5197
844.844	5231
844.98	5292
845.117	5265
845.253	5071
845.389	5094
845.525	5185
845.661	5113
845.798	4991
845.934	5124
846.07	5048
846.206	5204
846.342	5242
846.478	5166
846.614	5029
846.75	4927
846.886	4953
847.022	5151
847.158	5022
847.294	5041
847.429	5079
847.565	5003
847.701	5250
847.837	4831
847.972	4755
848.108	4946
848.244	4919
848.379	4759
848.515	4748
848.65	4698
848.786	4824
848.921	4793
849.057	4904
849.192	4908
849.328	4778
849.463	4816
849.598	4759
849.734	4740
849.869	4660
850.004	4630
850.14	4656
850.275	4607
850.41	4516
850.545	4485
850.68	4584
850.815	4618
850.95	4618
851.085	4828
851.22	4805
851.355	4664
851.49	4592
851.625	4637
851.76	4634
851.895	4584
852.03	4519
852.165	4675
852.299	4736
852.434	4812
852.569	4683
852.703	4782
852.838	4862
852.973	4987
853.107	4949
853.242	4752
853.376	4664
853.511	4535
853.645	4641
853.78	4774
853.914	4702
854.048	4656
854.183	4626
854.317	4694
854.451	4816
854.585	4702
854.72	4603
854.854	4763
854.988	4618
855.122	4649
855.256	4519
855.39	4641
855.524	4786
855.658	4687
855.792	4694
855.926	4717
856.06	4755
856.194	4744
856.327	4687
856.461	4596
856.595	4622
856.729	4683
856.862	4755
856.996	4698
857.13	4740
857.263	4733
857.397	4733
857.53	4664
857.664	4717
857.797	4774
857.931	4759
858.064	4664
858.197	4714
858.331	4630
858.464	4664
858.597	4474
858.731	4603
858.864	4634
858.997	4550
859.13	4622
859.263	4687
859.396	4668
859.529	4561
859.662	4561
859.795	4527
859.928	4550
860.061	4767
860.194	4755
860.327	4531
860.46	4569
860.592	4687
860.725	4687
860.858	4733
860.99	4637
861.123	4500
861.256	4519
861.388	4626
861.521	5280
861.653	4481
861.786	4440
861.918	4474
862.05	4500
862.183	4519
862.315	4607
862.447	4675
862.58	4580
862.712	4440
862.844	4337
862.976	4436
863.108	4466
863.24	4824
863.372	4299
863.504	4451
863.636	4390
863.768	4474
863.9	4455
864.032	4360
864.164	4417
864.296	4470
864.428	4550
864.559	4569
864.691	4523
864.823	4538
864.954	4478
865.086	4504
865.217	4470
865.349	4402
865.48	4512
865.612	4500
865.743	4626
865.875	4459
866.006	4455
866.137	4466
866.269	4440
866.4	4383
866.531	4436
866.662	4386
866.793	4386
866.924	4462
867.055	4504
867.186	4474
867.317	4421
867.448	4394
867.579	4375
867.71	4413
867.841	4360
867.972	4436
868.103	4455
868.233	4455
868.364	4409
868.495	4561
868.625	4645
868.756	4771
868.886	4554
869.017	4584
869.147	4733
869.278	4733
869.408	4668
869.539	4588
869.669	4694
869.799	4622
869.929	4752
870.06	4748
870.19	4942
870.32	4900
870.45	4961
870.58	5006
870.71	5105
870.84	5067
870.97	4957
871.1	4862
871.23	5079
871.36	5083
871.489	4984
871.619	5014
871.749	5071
871.879	5064
872.008	5132
872.138	5083
872.267	4995
872.397	4892
872.526	4774
872.656	4736
872.785	4790
872.915	5010
873.044	5018
873.173	4930
873.303	4972
873.432	4968
873.561	4934
873.69	4858
873.819	4892
873.948	4934
874.077	4801
874.206	4774
874.335	4805
874.464	4965
874.593	5102
874.722	5014
874.851	5086
874.979	5045
875.108	5045
875.237	4915
875.365	4915
875.494	4949
875.623	4995
875.751	4877
875.88	4873
876.008	4965
876.136	5060
876.265	5246
876.393	5425
876.521	5284
876.65	5265
876.778	5181
876.906	5083
877.034	5056
877.162	5060
877.29	4984
877.418	5090
877.546	5102
877.674	5105
877.802	5064
877.93	5064
878.058	4930
878.185	4953
878.313	4980
878.441	5033
878.568	4847
878.696	4870
878.824	5037
878.951	5037
879.079	5162
879.206	5345
879.333	5128
879.461	5045
879.588	5029
879.715	5181
879.842	5269
879.97	5071
880.097	4858
880.224	4793
880.351	4801
880.478	4866
880.605	4850
880.732	4820
880.859	5147
880.986	4957
881.112	4930
881.239	4809
881.366	4691
881.493	4664
881.619	4702
881.746	4698
881.872	4714
881.999	4694
882.125	4755
882.252	4793
882.378	4866
882.505	4965
882.631	4850
882.757	4714
882.883	4812
883.01	4759
883.136	4679
883.262	4656
883.388	4626
883.514	4809
883.64	4881
883.766	4835
883.892	4649
884.018	4759
884.143	4919
884.269	5094
884.395	4717
884.52	4653
884.646	4729
884.772	4668
884.897	4615
885.023	4691
885.148	4839
885.274	4870
885.399	4801
885.524	4771
885.65	4714
885.775	4782
885.9	4748
886.025	4889
886.15	4828
886.275	4778
886.4	4675
886.525	4805
886.65	4687
886.775	4706
886.9	4965
887.025	5083
887.149	4854
887.274	4656
887.399	4634
887.523	4622
887.648	4603
887.773	4607
887.897	4786
888.021	4805
888.146	4714
888.27	4801
888.395	4942
888.519	4809
888.643	4786
888.767	4866
888.891	4691
889.015	4653
889.139	4641
889.263	4622
889.387	4755
889.511	4915
889.635	4858
889.759	4706
889.883	4729
890.006	4736
890.13	4866
890.254	4694
890.377	4740
890.501	4546
890.624	4584
890.748	4679
890.871	4531
890.995	4466
891.118	4432
891.241	4535
891.364	4569
891.488	4668
891.611	4500
891.734	4584
891.857	4649
891.98	4618
892.103	4698
892.226	4630
892.349	4558
892.471	4481
892.594	4546
892.717	4611
892.839	4607
892.962	4607
893.085	4694
893.207	4664
893.33	4455
893.452	4542
893.575	4641
893.697	4626
893.819	4850
893.941	4835
894.064	4790
894.186	4641
894.308	4622
894.43	4755
894.552	4831
894.674	4793
894.796	4569
894.918	4622
895.04	4603
895.161	4717
895.283	4622
895.405	4596
895.526	4645
895.648	4717
895.769	4679
895.891	4744
896.012	4774
896.134	4744
896.255	4641
896.376	4675
896.498	4626
896.619	4717
896.74	4634
896.861	4641
896.982	4923
897.103	5086
897.224	4885
897.345	4790
897.466	4710
897.587	4740
897.708	4850
897.828	4805
897.949	4675
898.07	4615
898.19	4710
898.311	4911
898.431	4714
898.552	4752
898.672	4820
898.792	4797
898.913	4862
899.033	4672
899.153	4535
899.273	4459
899.393	4519
899.513	4523
899.633	4527
899.753	4565
899.873	4550
899.993	4675
900.113	4577
900.232	4656
900.352	4599
900.472	4493
900.591	4481
900.711	4531
900.83	4481
900.95	4694
901.069	4725
901.189	4535
901.308	4344
901.427	4352
901.546	4428
901.665	4523
901.784	4546
901.904	4440
902.023	4322
902.141	4261
902.26	4181
902.379	4322
902.498	4246
902.617	4238
902.735	4394
902.854	4383
902.973	4394
903.091	4188
903.21	4238
903.328	4352
903.446	4272
903.565	4322
903.683	4390
903.801	4329
903.919	4417
904.038	4409
904.156	4360
904.274	4455
904.392	4371
904.51	4497
904.627	4497
904.745	4588
904.863	4626
904.981	4428
905.098	4398
905.216	4455
905.334	4493
905.451	4459
905.569	4474
905.686	4603
905.803	4577
905.921	4443
906.038	4573
906.155	4535
906.272	4440
906.389	4489
906.506	4337
906.623	4398
906.74	4417
906.857	4352
906.974	4405
907.091	4565
907.208	4721
907.324	4626
907.441	4523
907.557	4375
907.674	4333
907.79	4322
907.907	4413
908.023	4519
908.139	4470
908.256	4500
908.372	4485
908.488	4508
908.604	4402
908.72	4341
908.836	4394
908.952	4409
909.068	4481
909.184	4573
909.3	4538
909.415	4603
909.531	4588
909.647	4402
909.762	4398
909.878	4398
909.993	4466
910.108	4497
910.224	4421
910.339	4485
910.454	4413
910.57	4383
910.685	4337
910.8	4687
910.915	4603
911.03	4497
911.145	4348
911.259	4383
911.374	4383
911.489	4310
911.604	4265
911.718	4177
911.833	4234
911.947	4150
912.062	4078
912.176	4242
912.291	4257
912.405	4276
912.519	4470
912.633	4550
912.748	4409
912.862	4348
912.976	4207
913.09	4097
913.204	4188
913.318	4280
913.431	4379
913.545	4371
913.659	4493
913.772	4383
913.886	4284
914	4238
914.113	4440
914.226	4462
914.34	4413
914.453	4249
914.566	4451
914.68	4303
914.793	4363
914.906	4188
915.019	4135
915.132	4131
915.245	4162
915.358	4223
915.47	4238
915.583	4268
915.696	4322
915.809	4440
915.921	4455
916.034	4253
916.146	4318
916.259	4223
916.371	4398
916.483	4375
916.595	4325
916.708	4318
916.82	4363
916.932	4360
917.044	4421
917.156	4356
917.268	4280
917.38	4325
917.491	4306
917.603	4360
917.715	4466
917.826	4462
917.938	4390
918.049	4238
918.161	4390
918.272	4565
918.384	4523
918.495	4451
918.606	4325
918.717	4249
918.828	4337
918.939	4402
919.05	4261
919.161	4379
919.272	4154
919.383	4253
919.494	4451
919.604	4622
919.715	4466
919.826	4409
919.936	4402
920.047	4531
920.157	4481
920.267	4687
920.378	4618
920.488	4489
920.598	4710
920.708	4881
920.818	4771
920.928	4767
921.038	4976
921.148	4889
921.258	4645
921.368	4554
921.477	4535
921.587	4500
921.697	4375
921.806	4550
921.916	4462
922.025	4265
922.134	4284
922.244	4223
922.353	4333
922.462	4147
922.571	4116
922.68	4017
922.789	3994
922.898	4059
923.007	4029
923.116	4131
923.224	4116
923.333	4086
923.442	4017
923.55	3998
923.659	4063
923.767	4109
923.876	4013
923.984	4150
924.092	4010
924.201	4120
924.309	4097
924.417	4093
924.525	4086
924.633	4101
924.741	5048
924.849	3945
924.956	4192
925.064	4017
925.172	3922
925.279	3987
925.387	4082
925.494	4078
925.602	4211
925.709	4219
925.816	4071
925.924	4166
926.031	4207
926.138	4211
926.245	4207
926.352	4074
926.459	4284
926.566	4329
926.673	4185
926.779	4063
926.886	4116
926.993	3972
927.099	4029
927.206	3964
927.312	3949
927.419	4082
927.525	4036
927.631	4135
927.737	3991
927.843	3975
927.95	3903
928.056	3987
928.162	4010
928.267	4090
928.373	4656
928.479	4120
928.585	3861
928.69	4074
928.796	4082
928.901	3975
929.007	3880
929.112	4006
929.218	3968
929.323	3949
929.428	3953
929.533	4139
929.638	3949
929.743	3964
929.848	4078
929.953	3975
930.058	3979
930.163	3808
930.267	3842
930.372	3960
930.477	3907
930.581	4112
930.685	3968
930.79	3854
930.894	3892
930.998	3857
931.103	4078
931.207	3724
931.311	3694
931.415	3698
931.519	3549
931.623	3591
