Data from test_V78500241_1683.txt Node
Date: Fri Mar 25 17:00:42 CST 2022
User: usil
Spectrometer: V785-0024
Trigger mode: 0
Integration Time (sec): 4.000000E-1
Scans to average: 1
Nonlinearity correction enabled: false
Boxcar width: 0
Storing dark spectrum: false
XAxis mode: Wavelengths
Number of Pixels in Spectrum: 1024
>>>>>Begin Spectral Data<<<<<
801.071	8008
801.214	7970
801.356	7864
801.499	7917
801.641	7830
801.783	7883
801.926	8008
802.068	8001
802.211	8069
802.353	8005
802.496	7845
802.638	7856
802.78	7849
802.923	7887
803.065	7871
803.208	7898
803.35	8046
803.492	8157
803.635	8119
803.777	8008
803.919	8096
804.061	8488
804.204	8164
804.346	8035
804.488	8043
804.63	8096
804.773	8012
804.915	8134
805.057	8279
805.199	8191
805.341	8168
805.483	8229
805.626	8218
805.768	8058
805.91	8206
806.052	8199
806.194	8149
806.336	8305
806.478	8115
806.62	8012
806.762	8218
806.904	8301
807.046	8556
807.188	8351
807.33	8248
807.472	8358
807.614	8123
807.756	8157
807.898	8065
808.04	7833
808.182	7849
808.324	7860
808.465	7963
808.607	8084
808.749	8130
808.891	8123
809.033	8298
809.174	8218
809.316	8031
809.458	8062
809.6	7989
809.741	8027
809.883	8024
810.025	8138
810.166	8039
810.308	8092
810.45	7936
810.591	7822
810.733	7742
810.875	7681
811.016	7525
811.158	7502
811.299	7518
811.441	7734
811.582	7651
811.724	7537
811.865	7533
812.007	7506
812.148	7548
812.29	7674
812.431	7799
812.573	7898
812.714	8027
812.855	8126
812.997	8180
813.138	8328
813.279	8206
813.421	8062
813.562	7959
813.703	7852
813.845	7734
813.986	7430
814.127	7282
814.268	7206
814.41	7198
814.551	7164
814.692	7289
814.833	7156
814.974	7129
815.115	7107
815.256	6989
815.397	6916
815.539	6928
815.68	6875
815.821	6806
815.962	6878
816.103	6779
816.244	6787
816.385	6608
816.526	6563
816.666	6494
816.807	6334
816.948	6448
817.089	6490
817.23	6391
817.371	6346
817.512	6391
817.653	6410
817.793	6391
817.934	6384
818.075	6456
818.216	6407
818.356	6365
818.497	6266
818.638	6144
818.778	6136
818.919	6102
819.06	6186
819.2	6315
819.341	6334
819.481	6342
819.622	6498
819.762	6760
819.903	6673
820.043	6616
820.184	6597
820.324	6582
820.465	6669
820.605	6642
820.746	6604
820.886	6525
821.026	6673
821.167	6681
821.307	6753
821.447	6833
821.588	6696
821.728	6578
821.868	6467
822.008	6285
822.149	6429
822.289	6410
822.429	6205
822.569	6064
822.709	6140
822.849	5923
822.99	5901
823.13	6007
823.27	5950
823.41	5783
823.55	5802
823.69	5779
823.83	5790
823.97	5638
824.11	5524
824.25	5512
824.389	5570
824.529	5592
824.669	5493
824.809	5630
824.949	5649
825.089	5600
825.228	5589
825.368	5421
825.508	5357
825.648	5372
825.787	5360
825.927	5417
826.067	5318
826.206	5357
826.346	5402
826.485	5440
826.625	5463
826.765	5505
826.904	5490
827.044	5254
827.183	5212
827.323	5162
827.462	5201
827.601	5201
827.741	5201
827.88	5174
828.02	5086
828.159	5227
828.298	5303
828.437	5376
828.577	5296
828.716	5467
828.855	5322
828.994	5132
829.134	5151
829.273	5128
829.412	5113
829.551	5121
829.69	5193
829.829	5227
829.968	5391
830.107	5284
830.246	5315
830.385	5189
830.524	5132
830.663	5094
830.802	4976
830.941	4839
831.08	4946
831.219	5006
831.357	4885
831.496	5178
831.635	4972
831.774	4850
831.913	4793
832.051	4721
832.19	4782
832.329	4839
832.467	4637
832.606	4664
832.744	4702
832.883	4702
833.022	4752
833.16	4812
833.299	4828
833.437	4824
833.576	4858
833.714	4809
833.852	4911
833.991	4881
834.129	4942
834.267	4957
834.406	4938
834.544	4965
834.682	4942
834.821	4995
834.959	5117
835.097	4972
835.235	5121
835.373	5037
835.511	5075
835.65	5003
835.788	5018
835.926	4858
836.064	4870
836.202	4908
836.34	5166
836.478	5235
836.615	5132
836.753	5201
836.891	5292
837.029	5216
837.167	5216
837.305	5189
837.443	5094
837.58	5079
837.718	5242
837.856	5189
837.993	5162
838.131	5242
838.269	5189
838.406	5204
838.544	5197
838.681	4987
838.819	4984
838.956	4831
839.094	4824
839.231	4953
839.369	5048
839.506	5429
839.643	5242
839.781	5052
839.918	5052
840.055	5098
840.193	5121
840.33	5151
840.467	5086
840.604	5208
840.742	5417
840.879	5052
841.016	5098
841.153	5193
841.29	5410
841.427	5368
841.564	5299
841.701	5330
841.838	5265
841.975	5231
842.112	5261
842.249	5147
842.385	5117
842.522	5360
842.659	5155
842.796	5094
842.933	5204
843.069	5143
843.206	5136
843.343	5280
843.479	5269
843.616	5227
843.752	5079
843.889	5018
844.025	5261
844.162	4991
844.298	5227
844.435	5045
844.571	5014
844.708	5140
844.844	5345
844.98	5303
845.117	5284
845.253	5140
845.389	5094
845.525	5181
845.661	5143
845.798	5086
845.934	5170
846.07	5010
846.206	5136
846.342	5379
846.478	5136
846.614	5003
846.75	4980
846.886	4938
847.022	5121
847.158	5022
847.294	5033
847.429	5117
847.565	5094
847.701	5330
847.837	4858
847.972	4854
848.108	4953
848.244	4927
848.379	4790
848.515	4771
848.65	4733
848.786	4729
848.921	4744
849.057	4862
849.192	4904
849.328	4786
849.463	4862
849.598	4839
849.734	4733
849.869	4702
850.004	4626
850.14	4641
850.275	4641
850.41	4523
850.545	4512
850.68	4611
850.815	4588
850.95	4588
851.085	4793
851.22	4767
851.355	4679
851.49	4626
851.625	4622
851.76	4653
851.895	4546
852.03	4504
852.165	4656
852.299	4710
852.434	4778
852.569	4771
852.703	4744
852.838	4877
852.973	4873
853.107	4877
853.242	4733
853.376	4694
853.511	4523
853.645	4622
853.78	4812
853.914	4679
854.048	4675
854.183	4599
854.317	4664
854.451	4862
854.585	4675
854.72	4580
854.854	4740
854.988	4603
855.122	4626
855.256	4546
855.39	4630
855.524	4790
855.658	4790
855.792	4683
855.926	4702
856.06	4733
856.194	4843
856.327	4717
856.461	4660
856.595	4615
856.729	4645
856.862	4828
856.996	4706
857.13	4717
857.263	4771
857.397	4812
857.53	4668
857.664	4702
857.797	4805
857.931	4763
858.064	4691
858.197	4687
858.331	4641
858.464	4637
858.597	4523
858.731	4626
858.864	4596
858.997	4550
859.13	4691
859.263	4675
859.396	4714
859.529	4599
859.662	4588
859.795	4546
859.928	4626
860.061	4755
860.194	4771
860.327	4577
860.46	4565
860.592	4679
860.725	4706
860.858	4698
860.99	4573
861.123	4504
861.256	4519
861.388	4634
861.521	5414
861.653	4516
861.786	4409
861.918	4424
862.05	4523
862.183	4493
862.315	4599
862.447	4611
862.58	4527
862.712	4398
862.844	4356
862.976	4462
863.108	4459
863.24	4774
863.372	4318
863.504	4440
863.636	4394
863.768	4470
863.9	4386
864.032	4325
864.164	4383
864.296	4443
864.428	4485
864.559	4596
864.691	4523
864.823	4512
864.954	4497
865.086	4508
865.217	4478
865.349	4428
865.48	4424
865.612	4500
865.743	4573
865.875	4516
866.006	4421
866.137	4436
866.269	4421
866.4	4459
866.531	4455
866.662	4360
866.793	4375
866.924	4417
867.055	4459
867.186	4409
867.317	4421
867.448	4367
867.579	4390
867.71	4390
867.841	4424
867.972	4466
868.103	4440
868.233	4443
868.364	4474
868.495	4470
868.625	4630
868.756	4691
868.886	4546
869.017	4596
869.147	4736
869.278	4771
869.408	4653
869.539	4630
869.669	4714
869.799	4660
869.929	4725
870.06	4759
870.19	4919
870.32	4934
870.45	4892
870.58	5018
870.71	5067
870.84	5083
870.97	4892
871.1	4892
871.23	5162
871.36	5113
871.489	5029
871.619	5079
871.749	5067
871.879	5132
872.008	5170
872.138	5075
872.267	4908
872.397	4828
872.526	4812
872.656	4744
872.785	4824
872.915	5010
873.044	5041
873.173	4915
873.303	4965
873.432	4934
873.561	4949
873.69	4843
873.819	4870
873.948	4919
874.077	4805
874.206	4759
874.335	4812
874.464	4930
874.593	4999
874.722	4987
874.851	5098
874.979	5056
875.108	5079
875.237	4957
875.365	4900
875.494	4824
875.623	4980
875.751	4778
875.88	4908
876.008	4991
876.136	5022
876.265	5239
876.393	5326
876.521	5269
876.65	5189
876.778	5094
876.906	5018
877.034	5060
877.162	5079
877.29	5022
877.418	5033
877.546	5052
877.674	5075
877.802	5064
877.93	4999
878.058	4946
878.185	4877
878.313	4946
878.441	4938
878.568	4793
878.696	4854
878.824	4915
878.951	5003
879.079	5094
879.206	5303
879.333	5170
879.461	5014
879.588	4980
879.715	5105
879.842	5212
879.97	5041
880.097	4759
880.224	4755
880.351	4835
880.478	4793
880.605	4805
880.732	4778
880.859	5090
880.986	4847
881.112	4934
881.239	4801
881.366	4702
881.493	4634
881.619	4561
881.746	4580
881.872	4626
881.999	4660
882.125	4672
882.252	4774
882.378	4812
882.505	4980
882.631	4782
882.757	4656
882.883	4702
883.01	4714
883.136	4641
883.262	4580
883.388	4618
883.514	4759
883.64	4892
883.766	4767
883.892	4679
884.018	4706
884.143	4889
884.269	4934
884.395	4660
884.52	4664
884.646	4710
884.772	4561
884.897	4538
885.023	4664
885.148	4763
885.274	4854
885.399	4767
885.524	4714
885.65	4733
885.775	4755
885.9	4706
886.025	4866
886.15	4797
886.275	4736
886.4	4668
886.525	4706
886.65	4672
886.775	4637
886.9	4885
887.025	5010
887.149	4816
887.274	4656
887.399	4558
887.523	4580
887.648	4531
887.773	4588
887.897	4763
888.021	4729
888.146	4706
888.27	4790
888.395	4873
888.519	4786
888.643	4793
888.767	4835
888.891	4660
889.015	4664
889.139	4668
889.263	4561
889.387	4725
889.511	4870
889.635	4801
889.759	4584
889.883	4618
890.006	4687
890.13	4873
890.254	4569
890.377	4672
890.501	4588
890.624	4489
890.748	4622
890.871	4523
890.995	4436
891.118	4352
891.241	4550
891.364	4516
891.488	4580
891.611	4466
891.734	4535
891.857	4615
891.98	4577
892.103	4626
892.226	4550
892.349	4516
892.471	4421
892.594	4512
892.717	4656
892.839	4588
892.962	4588
893.085	4615
893.207	4626
893.33	4451
893.452	4538
893.575	4599
893.697	4584
893.819	4790
893.941	4831
894.064	4744
894.186	4565
894.308	4611
894.43	4687
894.552	4843
894.674	4744
894.796	4558
894.918	4599
895.04	4565
895.161	4675
895.283	4630
895.405	4573
895.526	4588
895.648	4710
895.769	4679
895.891	4649
896.012	4702
896.134	4725
896.255	4672
896.376	4615
896.498	4599
896.619	4691
896.74	4542
896.861	4664
896.982	4927
897.103	5064
897.224	4862
897.345	4763
897.466	4618
897.587	4710
897.708	4847
897.828	4805
897.949	4687
898.07	4569
898.19	4672
898.311	4797
898.431	4698
898.552	4759
898.672	4782
898.792	4774
898.913	4740
899.033	4607
899.153	4489
899.273	4405
899.393	4474
899.513	4497
899.633	4497
899.753	4577
899.873	4550
899.993	4531
900.113	4508
900.232	4535
900.352	4535
900.472	4428
900.591	4383
900.711	4523
900.83	4447
900.95	4584
901.069	4675
901.189	4508
901.308	4371
901.427	4375
901.546	4344
901.665	4447
901.784	4485
901.904	4360
902.023	4314
902.141	4158
902.26	4169
902.379	4303
902.498	4234
902.617	4227
902.735	4436
902.854	4379
902.973	4352
903.091	4219
903.21	4227
903.328	4287
903.446	4280
903.565	4253
903.683	4386
903.801	4291
903.919	4455
904.038	4432
904.156	4310
904.274	4462
904.392	4356
904.51	4371
904.627	4440
904.745	4573
904.863	4607
904.981	4341
905.098	4360
905.216	4341
905.334	4436
905.451	4470
905.569	4424
905.686	4538
905.803	4584
905.921	4379
906.038	4531
906.155	4519
906.272	4379
906.389	4466
906.506	4402
906.623	4398
906.74	4379
906.857	4299
906.974	4360
907.091	4577
907.208	4641
907.324	4584
907.441	4497
907.557	4299
907.674	4310
907.79	4329
907.907	4386
908.023	4466
908.139	4474
908.256	4383
908.372	4459
908.488	4428
908.604	4303
908.72	4310
908.836	4402
908.952	4367
909.068	4409
909.184	4550
909.3	4489
909.415	4550
909.531	4641
909.647	4386
909.762	4344
909.878	4299
909.993	4478
910.108	4432
910.224	4428
910.339	4489
910.454	4322
910.57	4333
910.685	4295
910.8	4645
910.915	4577
911.03	4462
911.145	4284
911.259	4352
911.374	4356
911.489	4265
911.604	4284
911.718	4158
911.833	4230
911.947	4086
912.062	4067
912.176	4185
912.291	4257
912.405	4219
912.519	4440
912.633	4500
912.748	4352
912.862	4291
912.976	4185
913.09	4090
913.204	4154
913.318	4238
913.431	4386
913.545	4352
913.659	4447
913.772	4318
913.886	4227
914	4196
914.113	4386
914.226	4386
914.34	4363
914.453	4230
914.566	4402
914.68	4299
914.793	4295
914.906	4147
915.019	4124
915.132	4120
915.245	4177
915.358	4196
915.47	4230
915.583	4276
915.696	4284
915.809	4398
915.921	4383
916.034	4230
916.146	4246
916.259	4215
916.371	4386
916.483	4428
916.595	4268
916.708	4325
916.82	4314
916.932	4287
917.044	4337
917.156	4314
917.268	4227
917.38	4265
917.491	4287
917.603	4337
917.715	4360
917.826	4421
917.938	4356
918.049	4242
918.161	4428
918.272	4512
918.384	4538
918.495	4402
918.606	4299
918.717	4234
918.828	4341
918.939	4383
919.05	4291
919.161	4363
919.272	4154
919.383	4223
919.494	4413
919.604	4596
919.715	4421
919.826	4344
919.936	4360
920.047	4546
920.157	4512
920.267	4668
920.378	4500
920.488	4489
920.598	4706
920.708	4889
920.818	4725
920.928	4782
921.038	4953
921.148	4889
921.258	4653
921.368	4565
921.477	4504
921.587	4462
921.697	4375
921.806	4542
921.916	4379
922.025	4268
922.134	4268
922.244	4223
922.353	4322
922.462	4166
922.571	4150
922.68	3998
922.789	3964
922.898	4036
923.007	4013
923.116	4112
923.224	4032
923.333	4067
923.442	3972
923.55	4021
923.659	4010
923.767	4051
923.876	4021
923.984	4116
924.092	3975
924.201	4078
924.309	4097
924.417	4143
924.525	4006
924.633	4112
924.741	4908
924.849	3907
924.956	4143
925.064	3979
925.172	3899
925.279	3960
925.387	4059
925.494	4032
925.602	4230
925.709	4177
925.816	4067
925.924	4116
926.031	4249
926.138	4188
926.245	4223
926.352	4124
926.459	4268
926.566	4306
926.673	4124
926.779	4063
926.886	4071
926.993	3998
927.099	3964
927.206	3956
927.312	3922
927.419	4063
927.525	4032
927.631	4093
927.737	3956
927.843	3953
927.95	3838
928.056	3994
928.162	3956
928.267	4097
928.373	4664
928.479	4063
928.585	3861
928.69	4029
928.796	4040
928.901	4021
929.007	3819
929.112	4032
929.218	3968
929.323	3926
929.428	3960
929.533	4105
929.638	3926
929.743	3964
929.848	4048
929.953	4032
930.058	3926
930.163	3823
930.267	3861
930.372	3994
930.477	3816
930.581	4059
930.685	3964
930.79	3831
930.894	3842
930.998	3861
931.103	3998
931.207	3728
931.311	3709
931.415	3698
931.519	3534
931.623	3542
