Data from test_V78500241_1996.txt Node
Date: Fri Mar 25 17:02:52 CST 2022
User: usil
Spectrometer: V785-0024
Trigger mode: 0
Integration Time (sec): 4.000000E-1
Scans to average: 1
Nonlinearity correction enabled: false
Boxcar width: 0
Storing dark spectrum: false
XAxis mode: Wavelengths
Number of Pixels in Spectrum: 1024
>>>>>Begin Spectral Data<<<<<
801.071	7974
801.214	8001
801.356	7830
801.499	7830
801.641	7780
801.783	7837
801.926	7963
802.068	7928
802.211	7974
802.353	7978
802.496	7799
802.638	7883
802.78	7883
802.923	7890
803.065	7807
803.208	7807
803.35	7959
803.492	8058
803.635	8126
803.777	8024
803.919	8039
804.061	8434
804.204	8180
804.346	8054
804.488	7978
804.63	8077
804.773	7940
804.915	8096
805.057	8305
805.199	8252
805.341	8180
805.483	8282
805.626	8138
805.768	8161
805.91	8191
806.052	8256
806.194	8107
806.336	8294
806.478	8164
806.62	8103
806.762	8130
806.904	8286
807.046	8454
807.188	8381
807.33	8301
807.472	8347
807.614	8157
807.756	8149
807.898	8012
808.04	7875
808.182	7906
808.324	7936
808.465	7902
808.607	8031
808.749	8119
808.891	8218
809.033	8282
809.174	8259
809.316	8123
809.458	8077
809.6	7982
809.741	8031
809.883	8084
810.025	8069
810.166	8008
810.308	7997
810.45	7978
810.591	7864
810.733	7708
810.875	7719
811.016	7514
811.158	7495
811.299	7601
811.441	7647
811.582	7655
811.724	7586
811.865	7460
812.007	7567
812.148	7499
812.29	7616
812.431	7784
812.573	7879
812.714	7970
812.855	8123
812.997	8256
813.138	8347
813.279	8176
813.421	7959
813.562	7936
813.703	7803
813.845	7738
813.986	7381
814.127	7282
814.268	7209
814.41	7202
814.551	7137
814.692	7206
814.833	7076
814.974	7156
815.115	7091
815.256	6970
815.397	6878
815.539	6947
815.68	6833
815.821	6783
815.962	6848
816.103	6837
816.244	6734
816.385	6631
816.526	6616
816.666	6517
816.807	6353
816.948	6410
817.089	6448
817.23	6376
817.371	6334
817.512	6395
817.653	6331
817.793	6327
817.934	6483
818.075	6452
818.216	6479
818.356	6452
818.497	6300
818.638	6121
818.778	6178
818.919	6167
819.06	6175
819.2	6410
819.341	6323
819.481	6395
819.622	6479
819.762	6696
819.903	6753
820.043	6662
820.184	6585
820.324	6559
820.465	6726
820.605	6654
820.746	6662
820.886	6506
821.026	6662
821.167	6673
821.307	6814
821.447	6749
821.588	6650
821.728	6547
821.868	6429
822.008	6304
822.149	6365
822.289	6311
822.429	6186
822.569	6083
822.709	6152
822.849	5885
822.99	5859
823.13	5942
823.27	5916
823.41	5756
823.55	5847
823.69	5733
823.83	5821
823.97	5676
824.11	5532
824.25	5482
824.389	5551
824.529	5592
824.669	5509
824.809	5585
824.949	5695
825.089	5596
825.228	5543
825.368	5376
825.508	5322
825.648	5368
825.787	5421
825.927	5349
826.067	5284
826.206	5258
826.346	5364
826.485	5383
826.625	5433
826.765	5551
826.904	5478
827.044	5212
827.183	5197
827.323	5083
827.462	5246
827.601	5178
827.741	5174
827.88	5246
828.02	5128
828.159	5208
828.298	5277
828.437	5379
828.577	5220
828.716	5459
828.855	5330
828.994	5155
829.134	5136
829.273	5201
829.412	5128
829.551	5117
829.69	5143
829.829	5284
829.968	5364
830.107	5239
830.246	5261
830.385	5201
830.524	5136
830.663	5098
830.802	4976
830.941	4892
831.08	4870
831.219	5003
831.357	4949
831.496	5128
831.635	4938
831.774	4831
831.913	4850
832.051	4763
832.19	4702
832.329	4839
832.467	4694
832.606	4615
832.744	4683
832.883	4714
833.022	4729
833.16	4786
833.299	4831
833.437	4850
833.576	4866
833.714	4858
833.852	4858
833.991	4862
834.129	4934
834.267	4961
834.406	4881
834.544	4980
834.682	4995
834.821	4942
834.959	5128
835.097	4984
835.235	5178
835.373	5067
835.511	5132
835.65	4999
835.788	5014
835.926	4870
836.064	4858
836.202	4938
836.34	5124
836.478	5227
836.615	5079
836.753	5227
836.891	5223
837.029	5227
837.167	5170
837.305	5124
837.443	5132
837.58	5079
837.718	5261
837.856	5162
837.993	5174
838.131	5185
838.269	5159
838.406	5181
838.544	5136
838.681	5022
838.819	4987
838.956	4889
839.094	4885
839.231	4919
839.369	5052
839.506	5440
839.643	5277
839.781	5102
839.918	5003
840.055	5083
840.193	5079
840.33	5121
840.467	5193
840.604	5155
840.742	5425
840.879	5060
841.016	5079
841.153	5128
841.29	5421
841.427	5357
841.564	5345
841.701	5372
841.838	5277
841.975	5235
842.112	5201
842.249	5147
842.385	5086
842.522	5349
842.659	5136
842.796	5162
842.933	5181
843.069	5140
843.206	5151
843.343	5322
843.479	5204
843.616	5246
843.752	5067
843.889	4961
844.025	5239
844.162	4991
844.298	5201
844.435	5102
844.571	5067
844.708	5124
844.844	5330
844.98	5318
845.117	5288
845.253	5140
845.389	5075
845.525	5170
845.661	5128
845.798	5052
845.934	5132
846.07	5052
846.206	5208
846.342	5265
846.478	5227
846.614	5037
846.75	4976
846.886	4934
847.022	5117
847.158	4999
847.294	5067
847.429	5155
847.565	5029
847.701	5341
847.837	4801
847.972	4805
848.108	4938
848.244	4892
848.379	4793
848.515	4774
848.65	4702
848.786	4786
848.921	4755
849.057	4896
849.192	4911
849.328	4744
849.463	4839
849.598	4752
849.734	4759
849.869	4626
850.004	4611
850.14	4656
850.275	4615
850.41	4519
850.545	4569
850.68	4573
850.815	4611
850.95	4622
851.085	4816
851.22	4714
851.355	4698
851.49	4603
851.625	4672
851.76	4634
851.895	4561
852.03	4550
852.165	4641
852.299	4740
852.434	4805
852.569	4721
852.703	4797
852.838	4885
852.973	4953
853.107	4866
853.242	4759
853.376	4668
853.511	4519
853.645	4641
853.78	4767
853.914	4725
854.048	4653
854.183	4618
854.317	4687
854.451	4786
854.585	4725
854.72	4634
854.854	4797
854.988	4653
855.122	4569
855.256	4508
855.39	4664
855.524	4740
855.658	4710
855.792	4698
855.926	4706
856.06	4778
856.194	4771
856.327	4706
856.461	4565
856.595	4607
856.729	4622
856.862	4763
856.996	4691
857.13	4714
857.263	4759
857.397	4755
857.53	4649
857.664	4717
857.797	4812
857.931	4812
858.064	4683
858.197	4733
858.331	4637
858.464	4622
858.597	4466
858.731	4618
858.864	4637
858.997	4592
859.13	4683
859.263	4622
859.396	4706
859.529	4550
859.662	4512
859.795	4584
859.928	4656
860.061	4763
860.194	4748
860.327	4580
860.46	4584
860.592	4717
860.725	4691
860.858	4694
860.99	4615
861.123	4519
861.256	4470
861.388	4603
861.521	5155
861.653	4462
861.786	4390
861.918	4470
862.05	4481
862.183	4573
862.315	4584
862.447	4637
862.58	4592
862.712	4383
862.844	4344
862.976	4519
863.108	4493
863.24	4790
863.372	4352
863.504	4424
863.636	4402
863.768	4527
863.9	4394
864.032	4386
864.164	4390
864.296	4432
864.428	4554
864.559	4538
864.691	4508
864.823	4493
864.954	4451
865.086	4531
865.217	4459
865.349	4424
865.48	4421
865.612	4481
865.743	4607
865.875	4451
866.006	4413
866.137	4451
866.269	4409
866.4	4455
866.531	4413
866.662	4405
866.793	4409
866.924	4379
867.055	4497
867.186	4436
867.317	4386
867.448	4405
867.579	4398
867.71	4352
867.841	4348
867.972	4462
868.103	4428
868.233	4459
868.364	4451
868.495	4481
868.625	4672
868.756	4725
868.886	4550
869.017	4672
869.147	4763
869.278	4790
869.408	4698
869.539	4656
869.669	4672
869.799	4668
869.929	4740
870.06	4771
870.19	4919
870.32	4930
870.45	4961
870.58	5014
870.71	5094
870.84	5136
870.97	4934
871.1	4892
871.23	5124
871.36	5113
871.489	5037
871.619	5105
871.749	5102
871.879	5086
872.008	5170
872.138	5083
872.267	5006
872.397	4862
872.526	4793
872.656	4649
872.785	4786
872.915	4927
873.044	5010
873.173	4934
873.303	4923
873.432	4911
873.561	4957
873.69	4896
873.819	4908
873.948	4927
874.077	4831
874.206	4820
874.335	4778
874.464	4915
874.593	5029
874.722	4915
874.851	5075
874.979	5037
875.108	5018
875.237	4885
875.365	4877
875.494	4892
875.623	4927
875.751	4858
875.88	4892
876.008	4987
876.136	5048
876.265	5166
876.393	5326
876.521	5265
876.65	5204
876.778	5162
876.906	5102
877.034	4991
877.162	4980
877.29	4930
877.418	5052
877.546	5033
877.674	5018
877.802	5056
877.93	5018
878.058	4942
878.185	4858
878.313	4972
878.441	4965
878.568	4854
878.696	4870
878.824	4972
878.951	5010
879.079	5193
879.206	5288
879.333	5117
879.461	4946
879.588	4991
879.715	5109
879.842	5197
879.97	4999
880.097	4816
880.224	4691
880.351	4767
880.478	4831
880.605	4797
880.732	4774
880.859	5079
880.986	4904
881.112	4881
881.239	4831
881.366	4634
881.493	4611
881.619	4565
881.746	4622
881.872	4683
881.999	4656
882.125	4714
882.252	4805
882.378	4828
882.505	4999
882.631	4782
882.757	4649
882.883	4725
883.01	4725
883.136	4710
883.262	4618
883.388	4634
883.514	4778
883.64	4824
883.766	4801
883.892	4637
884.018	4725
884.143	4889
884.269	5018
884.395	4672
884.52	4611
884.646	4611
884.772	4580
884.897	4561
885.023	4683
885.148	4752
885.274	4873
885.399	4816
885.524	4668
885.65	4694
885.775	4717
885.9	4675
886.025	4858
886.15	4782
886.275	4725
886.4	4645
886.525	4736
886.65	4687
886.775	4664
886.9	4911
887.025	4968
887.149	4797
887.274	4683
887.399	4584
887.523	4615
887.648	4558
887.773	4546
887.897	4801
888.021	4767
888.146	4698
888.27	4812
888.395	4930
888.519	4790
888.643	4816
888.767	4782
888.891	4641
889.015	4630
889.139	4702
889.263	4622
889.387	4771
889.511	4839
889.635	4744
889.759	4668
889.883	4603
890.006	4687
890.13	4793
890.254	4622
890.377	4679
890.501	4512
890.624	4493
890.748	4584
890.871	4504
890.995	4443
891.118	4386
891.241	4512
891.364	4535
891.488	4672
891.611	4489
891.734	4538
891.857	4599
891.98	4538
892.103	4637
892.226	4607
892.349	4542
892.471	4474
892.594	4504
892.717	4626
892.839	4538
892.962	4599
893.085	4679
893.207	4573
893.33	4451
893.452	4546
893.575	4649
893.697	4561
893.819	4797
893.941	4797
894.064	4771
894.186	4565
894.308	4584
894.43	4691
894.552	4797
894.674	4755
894.796	4577
894.918	4622
895.04	4527
895.161	4717
895.283	4698
895.405	4542
895.526	4649
895.648	4679
895.769	4668
895.891	4744
896.012	4736
896.134	4721
896.255	4679
896.376	4622
896.498	4626
896.619	4717
896.74	4618
896.861	4656
896.982	4938
897.103	5102
897.224	4797
897.345	4714
897.466	4694
897.587	4725
897.708	4881
897.828	4702
897.949	4675
898.07	4561
898.19	4588
898.311	4835
898.431	4645
898.552	4721
898.672	4797
898.792	4805
898.913	4733
899.033	4607
899.153	4493
899.273	4462
899.393	4474
899.513	4535
899.633	4546
899.753	4523
899.873	4516
899.993	4565
900.113	4519
900.232	4546
900.352	4611
900.472	4478
900.591	4428
900.711	4459
900.83	4451
900.95	4580
901.069	4702
901.189	4554
901.308	4360
901.427	4333
901.546	4375
901.665	4504
901.784	4561
901.904	4291
902.023	4390
902.141	4188
902.26	4166
902.379	4337
902.498	4234
902.617	4249
902.735	4371
902.854	4409
902.973	4383
903.091	4230
903.21	4253
903.328	4322
903.446	4318
903.565	4249
903.683	4352
903.801	4265
903.919	4409
904.038	4371
904.156	4314
904.274	4428
904.392	4390
904.51	4470
904.627	4440
904.745	4565
904.863	4592
904.981	4413
905.098	4284
905.216	4367
905.334	4447
905.451	4413
905.569	4508
905.686	4599
905.803	4516
905.921	4432
906.038	4531
906.155	4531
906.272	4394
906.389	4459
906.506	4303
906.623	4363
906.74	4394
906.857	4291
906.974	4363
907.091	4569
907.208	4664
907.324	4565
907.441	4459
907.557	4337
907.674	4341
907.79	4303
907.907	4371
908.023	4451
908.139	4462
908.256	4455
908.372	4546
908.488	4405
908.604	4363
908.72	4363
908.836	4367
908.952	4398
909.068	4497
909.184	4554
909.3	4436
909.415	4584
909.531	4538
909.647	4379
909.762	4402
909.878	4341
909.993	4432
910.108	4462
910.224	4421
910.339	4459
910.454	4432
910.57	4329
910.685	4287
910.8	4656
910.915	4542
911.03	4432
911.145	4287
911.259	4375
911.374	4363
911.489	4348
911.604	4276
911.718	4166
911.833	4200
911.947	4135
912.062	4044
912.176	4223
912.291	4215
912.405	4257
912.519	4470
912.633	4478
912.748	4360
912.862	4356
912.976	4173
913.09	4071
913.204	4120
913.318	4253
913.431	4356
913.545	4383
913.659	4417
913.772	4390
913.886	4284
914	4242
914.113	4383
914.226	4432
914.34	4394
914.453	4261
914.566	4459
914.68	4337
914.793	4276
914.906	4207
915.019	4090
915.132	4048
915.245	4188
915.358	4227
915.47	4246
915.583	4238
915.696	4276
915.809	4432
915.921	4432
916.034	4272
916.146	4234
916.259	4200
916.371	4402
916.483	4337
916.595	4272
916.708	4367
916.82	4299
916.932	4341
917.044	4329
917.156	4310
917.268	4280
917.38	4249
917.491	4253
917.603	4333
917.715	4417
917.826	4443
917.938	4344
918.049	4280
918.161	4428
918.272	4489
918.384	4527
918.495	4447
918.606	4291
918.717	4303
918.828	4322
918.939	4360
919.05	4265
919.161	4344
919.272	4135
919.383	4242
919.494	4474
919.604	4645
919.715	4417
919.826	4352
919.936	4394
920.047	4538
920.157	4485
920.267	4710
920.378	4538
920.488	4470
920.598	4668
920.708	4850
920.818	4740
920.928	4759
921.038	4980
921.148	4908
921.258	4634
921.368	4569
921.477	4478
921.587	4474
921.697	4379
921.806	4542
921.916	4436
922.025	4227
922.134	4284
922.244	4215
922.353	4318
922.462	4154
922.571	4131
922.68	3972
922.789	3991
922.898	4055
923.007	3972
923.116	4116
923.224	4090
923.333	4093
923.442	3994
923.55	3983
923.659	4063
923.767	4120
923.876	3994
923.984	4135
924.092	4017
924.201	4055
924.309	4082
924.417	4090
924.525	4093
924.633	4071
924.741	5075
924.849	3899
924.956	4147
925.064	3930
925.172	3922
925.279	3983
925.387	4067
925.494	4013
925.602	4154
925.709	4204
925.816	3979
925.924	4097
926.031	4204
926.138	4139
926.245	4230
926.352	4082
926.459	4268
926.566	4303
926.673	4181
926.779	4105
926.886	4044
926.993	4006
927.099	3926
927.206	3953
927.312	3960
927.419	4040
927.525	4055
927.631	4093
927.737	3953
927.843	3918
927.95	3800
928.056	3941
928.162	3979
928.267	3998
928.373	4592
928.479	4116
928.585	3850
928.69	4002
928.796	4063
928.901	3949
929.007	3838
929.112	3994
929.218	3987
929.323	3972
929.428	3998
929.533	4074
929.638	3953
929.743	3998
929.848	4036
929.953	3972
930.058	3945
930.163	3804
930.267	3846
930.372	4006
930.477	3793
930.581	4071
930.685	3941
930.79	3797
930.894	3926
930.998	3869
931.103	4017
931.207	3724
931.311	3686
931.415	3644
931.519	3469
931.623	3553
