Data from test_V78500241_2357.txt Node
Date: Fri Mar 25 17:05:23 CST 2022
User: usil
Spectrometer: V785-0024
Trigger mode: 0
Integration Time (sec): 4.000000E-1
Scans to average: 1
Nonlinearity correction enabled: false
Boxcar width: 0
Storing dark spectrum: false
XAxis mode: Wavelengths
Number of Pixels in Spectrum: 1024
>>>>>Begin Spectral Data<<<<<
801.071	7947
801.214	7955
801.356	7898
801.499	7837
801.641	7856
801.783	7799
801.926	8035
802.068	7894
802.211	7974
802.353	7982
802.496	7883
802.638	7833
802.78	7906
802.923	7906
803.065	7883
803.208	7879
803.35	8005
803.492	8111
803.635	8164
803.777	8065
803.919	8115
804.061	8446
804.204	8187
804.346	8100
804.488	7970
804.63	8119
804.773	8012
804.915	8119
805.057	8282
805.199	8142
805.341	8191
805.483	8237
805.626	8271
805.768	8084
805.91	8157
806.052	8168
806.194	8077
806.336	8259
806.478	8111
806.62	8123
806.762	8107
806.904	8267
807.046	8457
807.188	8332
807.33	8347
807.472	8381
807.614	8161
807.756	8202
807.898	8024
808.04	7879
808.182	7875
808.324	7906
808.465	7898
808.607	8081
808.749	8142
808.891	8172
809.033	8286
809.174	8168
809.316	8111
809.458	8073
809.6	7986
809.741	8065
809.883	8088
810.025	8153
810.166	8065
810.308	8024
810.45	7982
810.591	7852
810.733	7746
810.875	7636
811.016	7499
811.158	7464
811.299	7590
811.441	7708
811.582	7636
811.724	7613
811.865	7529
812.007	7518
812.148	7624
812.29	7636
812.431	7719
812.573	7852
812.714	7944
812.855	8058
812.997	8225
813.138	8313
813.279	8214
813.421	8039
813.562	7944
813.703	7875
813.845	7772
813.986	7457
814.127	7270
814.268	7240
814.41	7213
814.551	7164
814.692	7179
814.833	7072
814.974	7152
815.115	7149
815.256	6989
815.397	6951
815.539	6970
815.68	6810
815.821	6730
815.962	6863
816.103	6783
816.244	6764
816.385	6654
816.526	6593
816.666	6536
816.807	6304
816.948	6479
817.089	6486
817.23	6422
817.371	6365
817.512	6372
817.653	6357
817.793	6388
817.934	6418
818.075	6467
818.216	6426
818.356	6418
818.497	6251
818.638	6133
818.778	6159
818.919	6140
819.06	6178
819.2	6380
819.341	6353
819.481	6418
819.622	6521
819.762	6719
819.903	6700
820.043	6597
820.184	6623
820.324	6646
820.465	6722
820.605	6681
820.746	6684
820.886	6521
821.026	6696
821.167	6707
821.307	6776
821.447	6818
821.588	6734
821.728	6521
821.868	6509
822.008	6346
822.149	6365
822.289	6350
822.429	6144
822.569	6110
822.709	6117
822.849	5931
822.99	5954
823.13	5958
823.27	5939
823.41	5783
823.55	5832
823.69	5748
823.83	5722
823.97	5649
824.11	5497
824.25	5547
824.389	5554
824.529	5592
824.669	5570
824.809	5661
824.949	5688
825.089	5672
825.228	5562
825.368	5398
825.508	5303
825.648	5372
825.787	5383
825.927	5368
826.067	5334
826.206	5299
826.346	5383
826.485	5395
826.625	5395
826.765	5509
826.904	5478
827.044	5284
827.183	5212
827.323	5098
827.462	5261
827.601	5140
827.741	5159
827.88	5178
828.02	5067
828.159	5261
828.298	5277
828.437	5364
828.577	5254
828.716	5387
828.855	5303
828.994	5155
829.134	5117
829.273	5128
829.412	5189
829.551	5151
829.69	5166
829.829	5216
829.968	5383
830.107	5288
830.246	5212
830.385	5143
830.524	5174
830.663	5075
830.802	4900
830.941	4847
831.08	4892
831.219	5037
831.357	4938
831.496	5132
831.635	4877
831.774	4896
831.913	4820
832.051	4714
832.19	4748
832.329	4843
832.467	4801
832.606	4641
832.744	4683
832.883	4725
833.022	4748
833.16	4801
833.299	4835
833.437	4843
833.576	4835
833.714	4839
833.852	4870
833.991	4885
834.129	4927
834.267	4904
834.406	4904
834.544	4949
834.682	4949
834.821	5022
834.959	5147
835.097	4942
835.235	5143
835.373	5079
835.511	5079
835.65	5048
835.788	5018
835.926	4881
836.064	4896
836.202	4892
836.34	5174
836.478	5193
836.615	5086
836.753	5197
836.891	5258
837.029	5220
837.167	5193
837.305	5151
837.443	5124
837.58	5136
837.718	5242
837.856	5227
837.993	5178
838.131	5227
838.269	5178
838.406	5143
838.544	5121
838.681	5067
838.819	5025
838.956	4915
839.094	4904
839.231	4885
839.369	5109
839.506	5463
839.643	5284
839.781	5022
839.918	4980
840.055	5079
840.193	5090
840.33	5045
840.467	5159
840.604	5147
840.742	5406
840.879	5056
841.016	5113
841.153	5147
841.29	5402
841.427	5334
841.564	5311
841.701	5349
841.838	5269
841.975	5258
842.112	5261
842.249	5147
842.385	5056
842.522	5341
842.659	5166
842.796	5086
842.933	5151
843.069	5174
843.206	5170
843.343	5284
843.479	5227
843.616	5254
843.752	5052
843.889	4980
844.025	5216
844.162	5006
844.298	5147
844.435	5090
844.571	5025
844.708	5208
844.844	5288
844.98	5364
845.117	5269
845.253	5132
845.389	5094
845.525	5185
845.661	5147
845.798	5014
845.934	5098
846.07	5029
846.206	5201
846.342	5280
846.478	5159
846.614	4995
846.75	4911
846.886	4934
847.022	5147
847.158	4995
847.294	5094
847.429	5056
847.565	5037
847.701	5250
847.837	4892
847.972	4790
848.108	4965
848.244	4942
848.379	4786
848.515	4710
848.65	4729
848.786	4717
848.921	4748
849.057	4831
849.192	4942
849.328	4824
849.463	4835
849.598	4790
849.734	4725
849.869	4740
850.004	4694
850.14	4675
850.275	4546
850.41	4523
850.545	4554
850.68	4622
850.815	4634
850.95	4622
851.085	4866
851.22	4767
851.355	4691
851.49	4580
851.625	4668
851.76	4615
851.895	4516
852.03	4550
852.165	4618
852.299	4710
852.434	4782
852.569	4740
852.703	4771
852.838	4885
852.973	4946
853.107	4930
853.242	4752
853.376	4691
853.511	4550
853.645	4637
853.78	4793
853.914	4694
854.048	4694
854.183	4615
854.317	4698
854.451	4866
854.585	4675
854.72	4596
854.854	4755
854.988	4637
855.122	4634
855.256	4516
855.39	4702
855.524	4771
855.658	4710
855.792	4729
855.926	4759
856.06	4755
856.194	4778
856.327	4752
856.461	4622
856.595	4637
856.729	4649
856.862	4763
856.996	4691
857.13	4733
857.263	4744
857.397	4820
857.53	4626
857.664	4721
857.797	4725
857.931	4782
858.064	4653
858.197	4748
858.331	4649
858.464	4607
858.597	4531
858.731	4630
858.864	4592
858.997	4592
859.13	4675
859.263	4641
859.396	4702
859.529	4573
859.662	4569
859.795	4497
859.928	4561
860.061	4805
860.194	4759
860.327	4580
860.46	4573
860.592	4706
860.725	4774
860.858	4672
860.99	4565
861.123	4550
861.256	4523
861.388	4618
861.521	5303
861.653	4523
861.786	4451
861.918	4466
862.05	4531
862.183	4508
862.315	4592
862.447	4660
862.58	4531
862.712	4390
862.844	4337
862.976	4531
863.108	4440
863.24	4870
863.372	4363
863.504	4462
863.636	4413
863.768	4440
863.9	4409
864.032	4371
864.164	4367
864.296	4455
864.428	4546
864.559	4504
864.691	4531
864.823	4512
864.954	4436
865.086	4478
865.217	4409
865.349	4379
865.48	4443
865.612	4481
865.743	4618
865.875	4481
866.006	4367
866.137	4497
866.269	4440
866.4	4436
866.531	4432
866.662	4379
866.793	4390
866.924	4459
867.055	4512
867.186	4474
867.317	4436
867.448	4314
867.579	4421
867.71	4398
867.841	4383
867.972	4455
868.103	4451
868.233	4455
868.364	4451
868.495	4500
868.625	4672
868.756	4714
868.886	4622
869.017	4615
869.147	4816
869.278	4763
869.408	4603
869.539	4641
869.669	4744
869.799	4664
869.929	4744
870.06	4725
870.19	4965
870.32	4957
870.45	4900
870.58	5018
870.71	5121
870.84	5041
870.97	4858
871.1	4923
871.23	5155
871.36	5159
871.489	5025
871.619	5086
871.749	5075
871.879	5048
872.008	5174
872.138	5086
872.267	4980
872.397	4858
872.526	4828
872.656	4733
872.785	4763
872.915	4987
873.044	5018
873.173	4976
873.303	4968
873.432	4938
873.561	4946
873.69	4828
873.819	4896
873.948	4927
874.077	4793
874.206	4786
874.335	4816
874.464	4885
874.593	5064
874.722	4953
874.851	5090
874.979	5014
875.108	5029
875.237	4949
875.365	4877
875.494	4896
875.623	4968
875.751	4805
875.88	4877
876.008	4923
876.136	5033
876.265	5166
876.393	5364
876.521	5231
876.65	5265
876.778	5220
876.906	5083
877.034	5060
877.162	5052
877.29	5010
877.418	5102
877.546	5025
877.674	5045
877.802	5014
877.93	5025
878.058	4892
878.185	4877
878.313	4976
878.441	4972
878.568	4812
878.696	4862
878.824	5006
878.951	4984
879.079	5140
879.206	5258
879.333	5086
879.461	4980
879.588	5025
879.715	5102
879.842	5223
879.97	5022
880.097	4782
880.224	4664
880.351	4816
880.478	4809
880.605	4797
880.732	4790
880.859	5102
880.986	4892
881.112	4904
881.239	4744
881.366	4679
881.493	4599
881.619	4573
881.746	4672
881.872	4672
881.999	4634
882.125	4668
882.252	4744
882.378	4824
882.505	4965
882.631	4816
882.757	4687
882.883	4687
883.01	4748
883.136	4691
883.262	4626
883.388	4596
883.514	4771
883.64	4835
883.766	4816
883.892	4683
884.018	4694
884.143	4809
884.269	4961
884.395	4736
884.52	4622
884.646	4611
884.772	4603
884.897	4596
885.023	4683
885.148	4752
885.274	4816
885.399	4816
885.524	4675
885.65	4710
885.775	4714
885.9	4717
886.025	4839
886.15	4793
886.275	4771
886.4	4649
886.525	4744
886.65	4653
886.775	4683
886.9	4881
887.025	5064
887.149	4778
887.274	4645
887.399	4558
887.523	4565
887.648	4577
887.773	4607
887.897	4740
888.021	4774
888.146	4645
888.27	4809
888.395	4870
888.519	4767
888.643	4797
888.767	4816
888.891	4687
889.015	4596
889.139	4649
889.263	4630
889.387	4759
889.511	4866
889.635	4816
889.759	4626
889.883	4649
890.006	4733
890.13	4843
890.254	4637
890.377	4668
890.501	4550
890.624	4516
890.748	4649
890.871	4466
890.995	4428
891.118	4413
891.241	4478
891.364	4546
891.488	4611
891.611	4550
891.734	4504
891.857	4599
891.98	4565
892.103	4653
892.226	4588
892.349	4504
892.471	4402
892.594	4504
892.717	4649
892.839	4535
892.962	4592
893.085	4656
893.207	4641
893.33	4474
893.452	4538
893.575	4653
893.697	4561
893.819	4801
893.941	4870
894.064	4774
894.186	4569
894.308	4531
894.43	4733
894.552	4809
894.674	4755
894.796	4584
894.918	4611
895.04	4523
895.161	4733
895.283	4729
895.405	4626
895.526	4645
895.648	4729
895.769	4683
895.891	4733
896.012	4744
896.134	4733
896.255	4664
896.376	4672
896.498	4618
896.619	4691
896.74	4622
896.861	4656
896.982	4904
897.103	5124
897.224	4862
897.345	4714
897.466	4679
897.587	4729
897.708	4809
897.828	4782
897.949	4649
898.07	4550
898.19	4611
898.311	4858
898.431	4694
898.552	4698
898.672	4786
898.792	4793
898.913	4774
899.033	4618
899.153	4523
899.273	4447
899.393	4516
899.513	4535
899.633	4516
899.753	4531
899.873	4478
899.993	4558
900.113	4523
900.232	4573
900.352	4550
900.472	4462
900.591	4421
900.711	4512
900.83	4398
900.95	4569
901.069	4698
901.189	4531
901.308	4333
901.427	4325
901.546	4367
901.665	4462
901.784	4485
901.904	4383
902.023	4284
902.141	4173
902.26	4185
902.379	4303
902.498	4280
902.617	4238
902.735	4344
902.854	4371
902.973	4318
903.091	4211
903.21	4204
903.328	4314
903.446	4227
903.565	4257
903.683	4375
903.801	4287
903.919	4383
904.038	4478
904.156	4325
904.274	4428
904.392	4367
904.51	4470
904.627	4523
904.745	4523
904.863	4679
904.981	4402
905.098	4318
905.216	4337
905.334	4436
905.451	4405
905.569	4424
905.686	4550
905.803	4580
905.921	4421
906.038	4516
906.155	4478
906.272	4428
906.389	4436
906.506	4360
906.623	4421
906.74	4394
906.857	4352
906.974	4371
907.091	4558
907.208	4672
907.324	4565
907.441	4512
907.557	4341
907.674	4318
907.79	4329
907.907	4394
908.023	4436
908.139	4459
908.256	4413
908.372	4432
908.488	4451
908.604	4356
908.72	4299
908.836	4394
908.952	4363
909.068	4428
909.184	4580
909.3	4497
909.415	4561
909.531	4546
909.647	4314
909.762	4341
909.878	4363
909.993	4447
910.108	4375
910.224	4379
910.339	4504
910.454	4390
910.57	4363
910.685	4341
910.8	4607
910.915	4615
911.03	4478
911.145	4325
911.259	4371
911.374	4333
911.489	4287
911.604	4268
911.718	4181
911.833	4219
911.947	4044
912.062	4021
912.176	4246
912.291	4265
912.405	4284
912.519	4504
912.633	4535
912.748	4333
912.862	4272
912.976	4207
913.09	4101
913.204	4219
913.318	4181
913.431	4390
913.545	4398
913.659	4455
913.772	4333
913.886	4295
914	4185
914.113	4352
914.226	4405
914.34	4379
914.453	4272
914.566	4424
914.68	4314
914.793	4310
914.906	4124
915.019	4158
915.132	4078
915.245	4154
915.358	4188
915.47	4215
915.583	4268
915.696	4276
915.809	4356
915.921	4386
916.034	4276
916.146	4253
916.259	4223
916.371	4405
916.483	4352
916.595	4295
916.708	4341
916.82	4329
916.932	4344
917.044	4348
917.156	4329
917.268	4215
917.38	4215
917.491	4303
917.603	4325
917.715	4421
917.826	4447
917.938	4371
918.049	4272
918.161	4352
918.272	4546
918.384	4504
918.495	4462
918.606	4287
918.717	4257
918.828	4322
918.939	4363
919.05	4276
919.161	4276
919.272	4150
919.383	4219
919.494	4455
919.604	4630
919.715	4432
919.826	4348
919.936	4344
920.047	4519
920.157	4497
920.267	4702
920.378	4504
920.488	4527
920.598	4702
920.708	4873
920.818	4740
920.928	4759
921.038	4927
921.148	4919
921.258	4611
921.368	4565
921.477	4478
921.587	4398
921.697	4428
921.806	4500
921.916	4455
922.025	4268
922.134	4295
922.244	4253
922.353	4303
922.462	4173
922.571	4143
922.68	3975
922.789	3964
922.898	4025
923.007	3983
923.116	4112
923.224	4093
923.333	4090
923.442	3994
923.55	3998
923.659	4032
923.767	4101
923.876	4013
923.984	4124
924.092	3960
924.201	4135
924.309	4074
924.417	4105
924.525	4048
924.633	4124
924.741	5071
924.849	3934
924.956	4147
925.064	3975
925.172	3892
925.279	3964
925.387	4071
925.494	4013
925.602	4207
925.709	4166
925.816	4048
925.924	4128
926.031	4230
926.138	4131
926.245	4276
926.352	4059
926.459	4204
926.566	4318
926.673	4147
926.779	4124
926.886	4044
926.993	3991
927.099	4010
927.206	3960
927.312	3934
927.419	4029
927.525	4032
927.631	4082
927.737	4010
927.843	3934
927.95	3831
928.056	3934
928.162	3968
928.267	4040
928.373	4565
928.479	4105
928.585	3831
928.69	4044
928.796	4124
928.901	3956
929.007	3869
929.112	3998
929.218	3975
929.323	3953
929.428	3922
929.533	4082
929.638	3896
929.743	3979
929.848	3994
929.953	3979
930.058	3937
930.163	3762
930.267	3846
930.372	3960
930.477	3831
930.581	4078
930.685	3953
930.79	3793
930.894	3880
930.998	3838
931.103	4032
931.207	3770
931.311	3717
931.415	3694
931.519	3507
931.623	3564
