Data from test_V78500241_94.txt Node
Date: Fri Mar 25 16:49:39 CST 2022
User: usil
Spectrometer: V785-0024
Trigger mode: 0
Integration Time (sec): 4.000000E-1
Scans to average: 1
Nonlinearity correction enabled: false
Boxcar width: 0
Storing dark spectrum: false
XAxis mode: Wavelengths
Number of Pixels in Spectrum: 1024
>>>>>Begin Spectral Data<<<<<
801.071	8062
801.214	8081
801.356	7963
801.499	7887
801.641	7898
801.783	7879
801.926	8065
802.068	8001
802.211	8062
802.353	8005
802.496	7909
802.638	8020
802.78	7967
802.923	7993
803.065	7959
803.208	7913
803.35	8039
803.492	8024
803.635	8183
803.777	8016
803.919	8138
804.061	8385
804.204	8077
804.346	8081
804.488	7963
804.63	8119
804.773	8073
804.915	8046
805.057	8259
805.199	8172
805.341	8275
805.483	8317
805.626	8237
805.768	8183
805.91	8172
806.052	8191
806.194	8130
806.336	8355
806.478	8214
806.62	8069
806.762	8206
806.904	8282
807.046	8541
807.188	8362
807.33	8309
807.472	8396
807.614	8153
807.756	8161
807.898	8126
808.04	7944
808.182	7868
808.324	7913
808.465	7959
808.607	8050
808.749	8130
808.891	8240
809.033	8290
809.174	8149
809.316	8077
809.458	8035
809.6	8058
809.741	8077
809.883	8126
810.025	8081
810.166	8115
810.308	8084
810.45	7967
810.591	7921
810.733	7818
810.875	7666
811.016	7548
811.158	7537
811.299	7708
811.441	7780
811.582	7765
811.724	7666
811.865	7624
812.007	7670
812.148	7639
812.29	7700
812.431	7856
812.573	7917
812.714	8058
812.855	8225
812.997	8320
813.138	8339
813.279	8309
813.421	8183
813.562	8100
813.703	7917
813.845	7803
813.986	7529
814.127	7343
814.268	7312
814.41	7305
814.551	7225
814.692	7228
814.833	7221
814.974	7137
815.115	7225
815.256	7057
815.397	7031
815.539	7023
815.68	6818
815.821	6821
815.962	6951
816.103	6856
816.244	6795
816.385	6681
816.526	6673
816.666	6525
816.807	6372
816.948	6464
817.089	6471
817.23	6426
817.371	6494
817.512	6433
817.653	6441
817.793	6429
817.934	6452
818.075	6452
818.216	6498
818.356	6494
818.497	6289
818.638	6133
818.778	6171
818.919	6155
819.06	6178
819.2	6395
819.341	6372
819.481	6369
819.622	6604
819.762	6806
819.903	6741
820.043	6662
820.184	6585
820.324	6551
820.465	6738
820.605	6791
820.746	6703
820.886	6574
821.026	6635
821.167	6806
821.307	6802
821.447	6863
821.588	6696
821.728	6631
821.868	6566
822.008	6429
822.149	6388
822.289	6437
822.429	6209
822.569	6152
822.709	6152
822.849	5912
822.99	5927
823.13	5916
823.27	5931
823.41	5813
823.55	5824
823.69	5844
823.83	5847
823.97	5672
824.11	5585
824.25	5505
824.389	5570
824.529	5558
824.669	5589
824.809	5657
824.949	5668
825.089	5619
825.228	5554
825.368	5440
825.508	5372
825.648	5322
825.787	5391
825.927	5436
826.067	5345
826.206	5330
826.346	5398
826.485	5463
826.625	5425
826.765	5570
826.904	5486
827.044	5311
827.183	5239
827.323	5201
827.462	5280
827.601	5223
827.741	5216
827.88	5261
828.02	5159
828.159	5242
828.298	5391
828.437	5337
828.577	5296
828.716	5539
828.855	5334
828.994	5231
829.134	5185
829.273	5227
829.412	5208
829.551	5147
829.69	5208
829.829	5273
829.968	5398
830.107	5341
830.246	5277
830.385	5178
830.524	5174
830.663	5147
830.802	4980
830.941	4972
831.08	4911
831.219	5045
831.357	5006
831.496	5216
831.635	4976
831.774	4881
831.913	4862
832.051	4725
832.19	4801
832.329	4843
832.467	4717
832.606	4672
832.744	4736
832.883	4752
833.022	4771
833.16	4847
833.299	4828
833.437	4831
833.576	4862
833.714	4885
833.852	4915
833.991	4885
834.129	4961
834.267	4968
834.406	4911
834.544	4957
834.682	5029
834.821	5014
834.959	5239
835.097	5048
835.235	5181
835.373	5098
835.511	5174
835.65	5052
835.788	5079
835.926	4908
836.064	4915
836.202	5006
836.34	5208
836.478	5277
836.615	5181
836.753	5231
836.891	5349
837.029	5284
837.167	5216
837.305	5239
837.443	5220
837.58	5124
837.718	5280
837.856	5220
837.993	5223
838.131	5277
838.269	5239
838.406	5239
838.544	5204
838.681	5071
838.819	5048
838.956	4923
839.094	4980
839.231	4991
839.369	5113
839.506	5478
839.643	5296
839.781	5086
839.918	5071
840.055	5159
840.193	5098
840.33	5162
840.467	5147
840.604	5197
840.742	5440
840.879	5086
841.016	5147
841.153	5181
841.29	5368
841.427	5391
841.564	5330
841.701	5376
841.838	5280
841.975	5292
842.112	5315
842.249	5159
842.385	5102
842.522	5433
842.659	5258
842.796	5170
842.933	5204
843.069	5220
843.206	5147
843.343	5334
843.479	5292
843.616	5299
843.752	5079
843.889	5041
844.025	5250
844.162	5022
844.298	5235
844.435	5128
844.571	5086
844.708	5227
844.844	5357
844.98	5421
845.117	5349
845.253	5204
845.389	5117
845.525	5254
845.661	5113
845.798	5094
845.934	5170
846.07	5102
846.206	5220
846.342	5318
846.478	5235
846.614	5071
846.75	5041
846.886	5010
847.022	5185
847.158	5060
847.294	5060
847.429	5147
847.565	5064
847.701	5334
847.837	4911
847.972	4828
848.108	5010
848.244	4995
848.379	4774
848.515	4774
848.65	4790
848.786	4691
848.921	4805
849.057	4877
849.192	4919
849.328	4843
849.463	4911
849.598	4793
849.734	4767
849.869	4698
850.004	4637
850.14	4645
850.275	4641
850.41	4554
850.545	4630
850.68	4622
850.815	4656
850.95	4615
851.085	4862
851.22	4809
851.355	4634
851.49	4664
851.625	4645
851.76	4717
851.895	4580
852.03	4577
852.165	4725
852.299	4744
852.434	4809
852.569	4771
852.703	4809
852.838	4892
852.973	4972
853.107	4987
853.242	4793
853.376	4717
853.511	4561
853.645	4702
853.78	4835
853.914	4683
854.048	4679
854.183	4630
854.317	4706
854.451	4889
854.585	4736
854.72	4660
854.854	4759
854.988	4637
855.122	4687
855.256	4596
855.39	4675
855.524	4767
855.658	4736
855.792	4729
855.926	4790
856.06	4733
856.194	4805
856.327	4694
856.461	4618
856.595	4607
856.729	4675
856.862	4767
856.996	4714
857.13	4755
857.263	4793
857.397	4831
857.53	4675
857.664	4729
857.797	4752
857.931	4835
858.064	4721
858.197	4748
858.331	4622
858.464	4645
858.597	4573
858.731	4660
858.864	4687
858.997	4626
859.13	4653
859.263	4675
859.396	4725
859.529	4596
859.662	4603
859.795	4550
859.928	4679
860.061	4759
860.194	4812
860.327	4599
860.46	4630
860.592	4736
860.725	4782
860.858	4710
860.99	4607
861.123	4504
861.256	4607
861.388	4634
861.521	5269
861.653	4474
861.786	4481
861.918	4485
862.05	4500
862.183	4645
862.315	4626
862.447	4683
862.58	4565
862.712	4443
862.844	4394
862.976	4519
863.108	4516
863.24	4938
863.372	4352
863.504	4474
863.636	4413
863.768	4500
863.9	4497
864.032	4386
864.164	4413
864.296	4504
864.428	4565
864.559	4561
864.691	4558
864.823	4538
864.954	4474
865.086	4569
865.217	4474
865.349	4459
865.48	4519
865.612	4558
865.743	4679
865.875	4542
866.006	4443
866.137	4466
866.269	4447
866.4	4466
866.531	4470
866.662	4436
866.793	4451
866.924	4398
867.055	4523
867.186	4478
867.317	4417
867.448	4383
867.579	4436
867.71	4440
867.841	4405
867.972	4512
868.103	4481
868.233	4470
868.364	4466
868.495	4516
868.625	4717
868.756	4797
868.886	4649
869.017	4634
869.147	4858
869.278	4831
869.408	4664
869.539	4675
869.669	4786
869.799	4721
869.929	4824
870.06	4782
870.19	4965
870.32	4949
870.45	4968
870.58	5083
870.71	5223
870.84	5094
870.97	5003
871.1	4908
871.23	5181
871.36	5102
871.489	5018
871.619	5113
871.749	5117
871.879	5117
872.008	5197
872.138	5121
872.267	4991
872.397	4923
872.526	4835
872.656	4809
872.785	4820
872.915	4911
873.044	5067
873.173	4987
873.303	4965
873.432	4999
873.561	5003
873.69	4915
873.819	4881
873.948	4938
874.077	4877
874.206	4809
874.335	4824
874.464	4930
874.593	5079
874.722	4972
874.851	5132
874.979	5098
875.108	5052
875.237	4953
875.365	4927
875.494	4946
875.623	5010
875.751	4812
875.88	4904
876.008	4980
876.136	5033
876.265	5239
876.393	5345
876.521	5292
876.65	5258
876.778	5174
876.906	5109
877.034	5037
877.162	5094
877.29	5006
877.418	5071
877.546	5067
877.674	5056
877.802	5075
877.93	5045
878.058	4957
878.185	4900
878.313	4987
878.441	4923
878.568	4824
878.696	4858
878.824	4987
878.951	5071
879.079	5151
879.206	5334
879.333	5117
879.461	5037
879.588	5041
879.715	5143
879.842	5201
879.97	5003
880.097	4820
880.224	4736
880.351	4862
880.478	4866
880.605	4839
880.732	4847
880.859	5159
880.986	4968
881.112	4961
881.239	4740
881.366	4748
881.493	4649
881.619	4645
881.746	4672
881.872	4694
881.999	4725
882.125	4714
882.252	4793
882.378	4820
882.505	4949
882.631	4820
882.757	4698
882.883	4774
883.01	4782
883.136	4683
883.262	4630
883.388	4660
883.514	4843
883.64	4900
883.766	4774
883.892	4714
884.018	4740
884.143	4896
884.269	5045
884.395	4736
884.52	4641
884.646	4679
884.772	4611
884.897	4596
885.023	4702
885.148	4820
885.274	4946
885.399	4854
885.524	4691
885.65	4710
885.775	4736
885.9	4752
886.025	4900
886.15	4793
886.275	4740
886.4	4664
886.525	4733
886.65	4729
886.775	4687
886.9	4946
887.025	5014
887.149	4812
887.274	4660
887.399	4634
887.523	4675
887.648	4611
887.773	4645
887.897	4755
888.021	4801
888.146	4675
888.27	4843
888.395	4889
888.519	4790
888.643	4801
888.767	4870
888.891	4668
889.015	4649
889.139	4653
889.263	4618
889.387	4805
889.511	4896
889.635	4797
889.759	4649
889.883	4653
890.006	4729
890.13	4850
890.254	4637
890.377	4717
890.501	4599
890.624	4561
890.748	4634
890.871	4546
890.995	4485
891.118	4352
891.241	4580
891.364	4558
891.488	4630
891.611	4588
891.734	4573
891.857	4653
891.98	4554
892.103	4672
892.226	4645
892.349	4558
892.471	4462
892.594	4611
892.717	4611
892.839	4599
892.962	4584
893.085	4664
893.207	4653
893.33	4455
893.452	4592
893.575	4706
893.697	4535
893.819	4820
893.941	4858
894.064	4862
894.186	4607
894.308	4618
894.43	4782
894.552	4892
894.674	4778
894.796	4558
894.918	4641
895.04	4584
895.161	4725
895.283	4706
895.405	4607
895.526	4675
895.648	4721
895.769	4717
895.891	4755
896.012	4778
896.134	4755
896.255	4694
896.376	4675
896.498	4592
896.619	4729
896.74	4672
896.861	4645
896.982	4965
897.103	5132
897.224	4877
897.345	4748
897.466	4656
897.587	4721
897.708	4881
897.828	4809
897.949	4729
898.07	4596
898.19	4630
898.311	4831
898.431	4691
898.552	4790
898.672	4854
898.792	4862
898.913	4755
899.033	4622
899.153	4512
899.273	4500
899.393	4497
899.513	4565
899.633	4607
899.753	4512
899.873	4535
899.993	4622
900.113	4569
900.232	4607
900.352	4535
900.472	4538
900.591	4402
900.711	4542
900.83	4421
900.95	4653
901.069	4706
901.189	4615
901.308	4371
901.427	4322
901.546	4440
901.665	4504
901.784	4558
901.904	4451
902.023	4333
902.141	4223
902.26	4200
902.379	4341
902.498	4265
902.617	4284
902.735	4386
902.854	4409
902.973	4383
903.091	4238
903.21	4257
903.328	4363
903.446	4303
903.565	4284
903.683	4367
903.801	4276
903.919	4455
904.038	4466
904.156	4344
904.274	4474
904.392	4443
904.51	4383
904.627	4550
904.745	4565
904.863	4672
904.981	4428
905.098	4306
905.216	4417
905.334	4428
905.451	4497
905.569	4474
905.686	4573
905.803	4580
905.921	4432
906.038	4599
906.155	4474
906.272	4409
906.389	4432
906.506	4363
906.623	4405
906.74	4405
906.857	4356
906.974	4379
907.091	4569
907.208	4683
907.324	4569
907.441	4519
907.557	4375
907.674	4394
907.79	4333
907.907	4402
908.023	4516
908.139	4485
908.256	4474
908.372	4481
908.488	4489
908.604	4348
908.72	4363
908.836	4424
908.952	4394
909.068	4459
909.184	4561
909.3	4508
909.415	4611
909.531	4630
909.647	4398
909.762	4440
909.878	4325
909.993	4451
910.108	4462
910.224	4440
910.339	4508
910.454	4409
910.57	4375
910.685	4367
910.8	4679
910.915	4592
911.03	4519
911.145	4341
911.259	4383
911.374	4394
911.489	4295
911.604	4299
911.718	4169
911.833	4211
911.947	4131
912.062	4074
912.176	4204
912.291	4306
912.405	4265
912.519	4474
912.633	4531
912.748	4383
912.862	4337
912.976	4227
913.09	4116
913.204	4196
913.318	4280
913.431	4386
913.545	4363
913.659	4459
913.772	4428
913.886	4234
914	4268
914.113	4394
914.226	4432
914.34	4394
914.453	4310
914.566	4493
914.68	4318
914.793	4337
914.906	4166
915.019	4158
915.132	4078
915.245	4204
915.358	4207
915.47	4306
915.583	4310
915.696	4356
915.809	4432
915.921	4455
916.034	4257
916.146	4261
916.259	4230
916.371	4405
916.483	4417
916.595	4280
916.708	4375
916.82	4352
916.932	4405
917.044	4367
917.156	4383
917.268	4287
917.38	4348
917.491	4287
917.603	4379
917.715	4459
917.826	4440
917.938	4356
918.049	4265
918.161	4428
918.272	4558
918.384	4542
918.495	4500
918.606	4306
918.717	4257
918.828	4333
918.939	4386
919.05	4325
919.161	4329
919.272	4150
919.383	4272
919.494	4443
919.604	4656
919.715	4371
919.826	4367
919.936	4424
920.047	4550
920.157	4508
920.267	4752
920.378	4550
920.488	4489
920.598	4717
920.708	4885
920.818	4771
920.928	4782
921.038	5033
921.148	4961
921.258	4675
921.368	4615
921.477	4565
921.587	4516
921.697	4375
921.806	4603
921.916	4432
922.025	4272
922.134	4303
922.244	4272
922.353	4383
922.462	4223
922.571	4139
922.68	4040
922.789	4029
922.898	4055
923.007	4006
923.116	4131
923.224	4097
923.333	4074
923.442	3983
923.55	4013
923.659	4017
923.767	4128
923.876	4010
923.984	4166
924.092	4040
924.201	4105
924.309	4090
924.417	4192
924.525	4109
924.633	4120
924.741	4873
924.849	3998
924.956	4154
925.064	4040
925.172	3941
925.279	4002
925.387	4101
925.494	4109
925.602	4177
925.709	4185
925.816	4093
925.924	4154
926.031	4246
926.138	4196
926.245	4207
926.352	4116
926.459	4268
926.566	4306
926.673	4196
926.779	4101
926.886	4131
926.993	4017
927.099	3983
927.206	3975
927.312	3956
927.419	4082
927.525	4044
927.631	4105
927.737	4048
927.843	3915
927.95	3827
928.056	3998
928.162	3960
928.267	4074
928.373	4603
928.479	4139
928.585	3884
928.69	4078
928.796	4051
928.901	3975
929.007	3854
929.112	4044
929.218	3979
929.323	3998
929.428	4013
929.533	4131
929.638	3926
929.743	4029
929.848	4093
929.953	4029
930.058	3979
930.163	3812
930.267	3838
930.372	3987
930.477	3808
930.581	4093
930.685	3972
930.79	3854
930.894	3903
930.998	3896
931.103	4067
931.207	3728
931.311	3705
931.415	3701
931.519	3564
931.623	3545
