Data from test_V78500241_1088.txt Node
Date: Fri Mar 25 16:56:34 CST 2022
User: usil
Spectrometer: V785-0024
Trigger mode: 0
Integration Time (sec): 4.000000E-1
Scans to average: 1
Nonlinearity correction enabled: false
Boxcar width: 0
Storing dark spectrum: false
XAxis mode: Wavelengths
Number of Pixels in Spectrum: 1024
>>>>>Begin Spectral Data<<<<<
801.071	7982
801.214	8069
801.356	7864
801.499	7875
801.641	7799
801.783	7818
801.926	7898
802.068	7883
802.211	7928
802.353	7947
802.496	7864
802.638	7841
802.78	7936
802.923	7887
803.065	7830
803.208	7852
803.35	8001
803.492	8031
803.635	8176
803.777	8088
803.919	8138
804.061	8427
804.204	8199
804.346	8077
804.488	7932
804.63	8020
804.773	8016
804.915	8092
805.057	8256
805.199	8161
805.341	8233
805.483	8252
805.626	8199
805.768	8084
805.91	8123
806.052	8168
806.194	8054
806.336	8305
806.478	8039
806.62	8069
806.762	8126
806.904	8267
807.046	8423
807.188	8248
807.33	8221
807.472	8294
807.614	8157
807.756	8103
807.898	7974
808.04	7868
808.182	7875
808.324	7883
808.465	7921
808.607	8065
808.749	8081
808.891	8149
809.033	8225
809.174	8153
809.316	8046
809.458	8046
809.6	7982
809.741	8043
809.883	8008
810.025	8035
810.166	8020
810.308	8024
810.45	8008
810.591	7921
810.733	7620
810.875	7613
811.016	7495
811.158	7472
811.299	7578
811.441	7723
811.582	7670
811.724	7567
811.865	7521
812.007	7540
812.148	7548
812.29	7628
812.431	7750
812.573	7830
812.714	7955
812.855	8100
812.997	8183
813.138	8301
813.279	8168
813.421	8081
813.562	7989
813.703	7959
813.845	7723
813.986	7441
814.127	7259
814.268	7156
814.41	7209
814.551	7114
814.692	7137
814.833	7065
814.974	7118
815.115	7129
815.256	6947
815.397	6920
815.539	6920
815.68	6844
815.821	6753
815.962	6844
816.103	6833
816.244	6703
816.385	6646
816.526	6639
816.666	6498
816.807	6266
816.948	6506
817.089	6486
817.23	6456
817.371	6357
817.512	6399
817.653	6331
817.793	6334
817.934	6384
818.075	6509
818.216	6456
818.356	6357
818.497	6205
818.638	6083
818.778	6125
818.919	6159
819.06	6175
819.2	6365
819.341	6277
819.481	6353
819.622	6509
819.762	6635
819.903	6646
820.043	6525
820.184	6525
820.324	6616
820.465	6654
820.605	6639
820.746	6658
820.886	6456
821.026	6616
821.167	6722
821.307	6703
821.447	6730
821.588	6604
821.728	6521
821.868	6471
822.008	6384
822.149	6346
822.289	6281
822.429	6098
822.569	6053
822.709	6083
822.849	5931
822.99	5874
823.13	5923
823.27	5882
823.41	5691
823.55	5790
823.69	5752
823.83	5737
823.97	5634
824.11	5551
824.25	5474
824.389	5528
824.529	5581
824.669	5497
824.809	5630
824.949	5615
825.089	5634
825.228	5501
825.368	5379
825.508	5330
825.648	5379
825.787	5334
825.927	5334
826.067	5280
826.206	5277
826.346	5337
826.485	5387
826.625	5436
826.765	5547
826.904	5482
827.044	5261
827.183	5166
827.323	5155
827.462	5277
827.601	5159
827.741	5155
827.88	5208
828.02	5109
828.159	5231
828.298	5288
828.437	5318
828.577	5273
828.716	5474
828.855	5258
828.994	5193
829.134	5105
829.273	5166
829.412	5128
829.551	5166
829.69	5117
829.829	5216
829.968	5330
830.107	5235
830.246	5288
830.385	5159
830.524	5121
830.663	5025
830.802	4987
830.941	4896
831.08	4892
831.219	4942
831.357	4908
831.496	5143
831.635	4938
831.774	4881
831.913	4816
832.051	4668
832.19	4771
832.329	4759
832.467	4710
832.606	4596
832.744	4733
832.883	4729
833.022	4744
833.16	4790
833.299	4797
833.437	4767
833.576	4820
833.714	4862
833.852	4809
833.991	4885
834.129	4885
834.267	4961
834.406	4946
834.544	4984
834.682	4976
834.821	4972
834.959	5201
835.097	5033
835.235	5193
835.373	5018
835.511	5079
835.65	5041
835.788	5014
835.926	4866
836.064	4870
836.202	4896
836.34	5136
836.478	5201
836.615	5132
836.753	5170
836.891	5265
837.029	5265
837.167	5155
837.305	5136
837.443	5113
837.58	5067
837.718	5246
837.856	5181
837.993	5083
838.131	5204
838.269	5220
838.406	5189
838.544	5185
838.681	5041
838.819	4980
838.956	4877
839.094	4892
839.231	4961
839.369	5086
839.506	5433
839.643	5258
839.781	5025
839.918	4999
840.055	5079
840.193	5056
840.33	5117
840.467	5113
840.604	5170
840.742	5391
840.879	5071
841.016	5060
841.153	5140
841.29	5337
841.427	5307
841.564	5311
841.701	5330
841.838	5273
841.975	5235
842.112	5254
842.249	5124
842.385	5083
842.522	5368
842.659	5159
842.796	5136
842.933	5151
843.069	5155
843.206	5151
843.343	5265
843.479	5189
843.616	5235
843.752	4995
843.889	5022
844.025	5189
844.162	5006
844.298	5185
844.435	5083
844.571	5037
844.708	5254
844.844	5315
844.98	5326
845.117	5250
845.253	5124
845.389	5098
845.525	5105
845.661	5143
845.798	5037
845.934	5022
846.07	5045
846.206	5124
846.342	5269
846.478	5208
846.614	4999
846.75	4968
846.886	4946
847.022	5162
847.158	4987
847.294	5079
847.429	5064
847.565	5041
847.701	5299
847.837	4839
847.972	4725
848.108	4946
848.244	4946
848.379	4733
848.515	4736
848.65	4717
848.786	4725
848.921	4736
849.057	4835
849.192	4923
849.328	4774
849.463	4786
849.598	4820
849.734	4744
849.869	4702
850.004	4592
850.14	4615
850.275	4596
850.41	4527
850.545	4538
850.68	4538
850.815	4687
850.95	4603
851.085	4831
851.22	4733
851.355	4679
851.49	4577
851.625	4603
851.76	4641
851.895	4542
852.03	4474
852.165	4634
852.299	4710
852.434	4809
852.569	4736
852.703	4778
852.838	4847
852.973	4885
853.107	4900
853.242	4687
853.376	4668
853.511	4542
853.645	4558
853.78	4812
853.914	4687
854.048	4668
854.183	4611
854.317	4725
854.451	4820
854.585	4626
854.72	4645
854.854	4748
854.988	4592
855.122	4626
855.256	4531
855.39	4653
855.524	4763
855.658	4717
855.792	4656
855.926	4691
856.06	4767
856.194	4797
856.327	4683
856.461	4599
856.595	4596
856.729	4653
856.862	4706
856.996	4675
857.13	4653
857.263	4767
857.397	4771
857.53	4607
857.664	4752
857.797	4767
857.931	4752
858.064	4706
858.197	4698
858.331	4645
858.464	4607
858.597	4481
858.731	4618
858.864	4626
858.997	4607
859.13	4630
859.263	4649
859.396	4664
859.529	4626
859.662	4546
859.795	4519
859.928	4531
860.061	4733
860.194	4755
860.327	4588
860.46	4523
860.592	4698
860.725	4679
860.858	4683
860.99	4603
861.123	4466
861.256	4512
861.388	4584
861.521	5341
861.653	4497
861.786	4440
861.918	4443
862.05	4519
862.183	4512
862.315	4588
862.447	4634
862.58	4512
862.712	4417
862.844	4272
862.976	4402
863.108	4478
863.24	4839
863.372	4276
863.504	4440
863.636	4363
863.768	4466
863.9	4455
864.032	4367
864.164	4375
864.296	4478
864.428	4565
864.559	4504
864.691	4512
864.823	4531
864.954	4497
865.086	4504
865.217	4443
865.349	4386
865.48	4466
865.612	4440
865.743	4653
865.875	4497
866.006	4405
866.137	4470
866.269	4451
866.4	4390
866.531	4405
866.662	4348
866.793	4417
866.924	4455
867.055	4481
867.186	4436
867.317	4405
867.448	4363
867.579	4371
867.71	4402
867.841	4386
867.972	4443
868.103	4424
868.233	4455
868.364	4462
868.495	4489
868.625	4611
868.756	4771
868.886	4573
869.017	4611
869.147	4763
869.278	4714
869.408	4622
869.539	4637
869.669	4694
869.799	4645
869.929	4721
870.06	4717
870.19	4900
870.32	4919
870.45	4927
870.58	4980
870.71	5094
870.84	5128
870.97	4919
871.1	4919
871.23	5124
871.36	5094
871.489	4995
871.619	5037
871.749	5052
871.879	5113
872.008	5113
872.138	5022
872.267	4976
872.397	4824
872.526	4805
872.656	4714
872.785	4763
872.915	4919
873.044	5003
873.173	4919
873.303	4938
873.432	4934
873.561	4923
873.69	4896
873.819	4862
873.948	4919
874.077	4782
874.206	4771
874.335	4774
874.464	4908
874.593	5037
874.722	4968
874.851	5041
874.979	5075
875.108	5006
875.237	4900
875.365	4839
875.494	4877
875.623	4953
875.751	4824
875.88	4858
876.008	4980
876.136	5056
876.265	5174
876.393	5330
876.521	5181
876.65	5212
876.778	5083
876.906	5075
877.034	4972
877.162	5056
877.29	5006
877.418	4946
877.546	5006
877.674	5018
877.802	4930
877.93	4972
878.058	4919
878.185	4828
878.313	4911
878.441	4991
878.568	4744
878.696	4873
878.824	4980
878.951	5010
879.079	5140
879.206	5307
879.333	5052
879.461	4980
879.588	4984
879.715	5140
879.842	5231
879.97	4949
880.097	4801
880.224	4717
880.351	4759
880.478	4782
880.605	4767
880.732	4755
880.859	5083
880.986	4911
881.112	4911
881.239	4767
881.366	4653
881.493	4607
881.619	4546
881.746	4615
881.872	4596
881.999	4634
882.125	4698
882.252	4736
882.378	4797
882.505	4938
882.631	4793
882.757	4641
882.883	4706
883.01	4752
883.136	4641
883.262	4630
883.388	4592
883.514	4839
883.64	4862
883.766	4782
883.892	4672
884.018	4698
884.143	4866
884.269	5006
884.395	4649
884.52	4584
884.646	4645
884.772	4596
884.897	4561
885.023	4649
885.148	4831
885.274	4854
885.399	4771
885.524	4729
885.65	4733
885.775	4729
885.9	4698
886.025	4839
886.15	4786
886.275	4694
886.4	4672
886.525	4698
886.65	4672
886.775	4672
886.9	4923
887.025	5033
887.149	4805
887.274	4596
887.399	4573
887.523	4538
887.648	4516
887.773	4569
887.897	4725
888.021	4763
888.146	4679
888.27	4805
888.395	4877
888.519	4831
888.643	4771
888.767	4801
888.891	4683
889.015	4569
889.139	4626
889.263	4637
889.387	4771
889.511	4809
889.635	4812
889.759	4634
889.883	4653
890.006	4721
890.13	4805
890.254	4577
890.377	4691
890.501	4531
890.624	4565
890.748	4580
890.871	4462
890.995	4390
891.118	4409
891.241	4470
891.364	4573
891.488	4596
891.611	4478
891.734	4497
891.857	4580
891.98	4546
892.103	4615
892.226	4573
892.349	4481
892.471	4402
892.594	4577
892.717	4580
892.839	4542
892.962	4508
893.085	4645
893.207	4599
893.33	4474
893.452	4512
893.575	4702
893.697	4588
893.819	4771
893.941	4820
894.064	4729
894.186	4596
894.308	4527
894.43	4710
894.552	4774
894.674	4729
894.796	4580
894.918	4561
895.04	4554
895.161	4706
895.283	4653
895.405	4542
895.526	4588
895.648	4683
895.769	4656
895.891	4694
896.012	4744
896.134	4744
896.255	4672
896.376	4588
896.498	4611
896.619	4645
896.74	4630
896.861	4626
896.982	4908
897.103	5045
897.224	4812
897.345	4729
897.466	4641
897.587	4710
897.708	4824
897.828	4755
897.949	4660
898.07	4523
898.19	4569
898.311	4790
898.431	4637
898.552	4706
898.672	4831
898.792	4786
898.913	4748
899.033	4592
899.153	4508
899.273	4413
899.393	4527
899.513	4531
899.633	4558
899.753	4519
899.873	4512
899.993	4569
900.113	4489
900.232	4577
900.352	4485
900.472	4516
900.591	4428
900.711	4436
900.83	4417
900.95	4622
901.069	4683
901.189	4542
901.308	4356
901.427	4360
901.546	4367
901.665	4451
901.784	4474
901.904	4386
902.023	4337
902.141	4147
902.26	4196
902.379	4341
902.498	4242
902.617	4207
902.735	4386
902.854	4405
902.973	4390
903.091	4150
903.21	4219
903.328	4306
903.446	4261
903.565	4272
903.683	4352
903.801	4306
903.919	4390
904.038	4417
904.156	4287
904.274	4478
904.392	4383
904.51	4443
904.627	4440
904.745	4599
904.863	4584
904.981	4413
905.098	4322
905.216	4360
905.334	4421
905.451	4383
905.569	4398
905.686	4561
905.803	4538
905.921	4409
906.038	4538
906.155	4478
906.272	4379
906.389	4447
906.506	4360
906.623	4386
906.74	4394
906.857	4325
906.974	4348
907.091	4546
907.208	4664
907.324	4596
907.441	4497
907.557	4295
907.674	4329
907.79	4310
907.907	4394
908.023	4455
908.139	4485
908.256	4394
908.372	4508
908.488	4413
908.604	4337
908.72	4322
908.836	4394
908.952	4318
909.068	4413
909.184	4573
909.3	4459
909.415	4580
909.531	4577
909.647	4379
909.762	4329
909.878	4356
909.993	4375
910.108	4360
910.224	4386
910.339	4489
910.454	4383
910.57	4325
910.685	4268
910.8	4649
910.915	4577
911.03	4481
911.145	4337
911.259	4295
911.374	4348
911.489	4227
911.604	4257
911.718	4154
911.833	4173
911.947	4090
912.062	4044
912.176	4219
912.291	4238
912.405	4253
912.519	4436
912.633	4478
912.748	4341
912.862	4314
912.976	4215
913.09	4074
913.204	4188
913.318	4265
913.431	4322
913.545	4348
913.659	4436
913.772	4363
913.886	4223
914	4188
914.113	4390
914.226	4459
914.34	4398
914.453	4249
914.566	4455
914.68	4276
914.793	4299
914.906	4177
915.019	4116
915.132	4040
915.245	4169
915.358	4200
915.47	4272
915.583	4268
915.696	4310
915.809	4394
915.921	4409
916.034	4249
916.146	4246
916.259	4238
916.371	4413
916.483	4291
916.595	4234
916.708	4276
916.82	4318
916.932	4314
917.044	4299
917.156	4284
917.268	4230
917.38	4249
917.491	4242
917.603	4341
917.715	4344
917.826	4417
917.938	4310
918.049	4227
918.161	4363
918.272	4523
918.384	4474
918.495	4519
918.606	4310
918.717	4223
918.828	4329
918.939	4363
919.05	4227
919.161	4325
919.272	4124
919.383	4204
919.494	4447
919.604	4603
919.715	4371
919.826	4360
919.936	4363
920.047	4538
920.157	4421
920.267	4683
920.378	4489
920.488	4443
920.598	4706
920.708	4889
920.818	4683
920.928	4721
921.038	4908
921.148	4908
921.258	4592
921.368	4516
921.477	4485
921.587	4462
921.697	4386
921.806	4535
921.916	4462
922.025	4265
922.134	4306
922.244	4192
922.353	4310
922.462	4185
922.571	4166
922.68	3956
922.789	3937
922.898	4048
923.007	3953
923.116	4071
923.224	4013
923.333	4040
923.442	3998
923.55	3975
923.659	4017
923.767	4086
923.876	4021
923.984	4112
924.092	4021
924.201	4055
924.309	4063
924.417	4128
924.525	4044
924.633	4086
924.741	5014
924.849	3896
924.956	4143
925.064	3945
925.172	3937
925.279	3998
925.387	4032
925.494	4051
925.602	4207
925.709	4169
925.816	3998
925.924	4147
926.031	4204
926.138	4150
926.245	4192
926.352	4090
926.459	4253
926.566	4257
926.673	4154
926.779	4120
926.886	4086
926.993	3964
927.099	3896
927.206	3918
927.312	3964
927.419	4029
927.525	4040
927.631	4067
927.737	3949
927.843	3937
927.95	3850
928.056	3956
928.162	3968
928.267	4063
928.373	4653
928.479	4097
928.585	3884
928.69	4002
928.796	4055
928.901	3994
929.007	3808
929.112	3983
929.218	3907
929.323	3949
929.428	3907
929.533	4093
929.638	3873
929.743	3956
929.848	3983
929.953	3994
930.058	3953
930.163	3759
930.267	3797
930.372	3983
930.477	3785
930.581	4078
930.685	3922
930.79	3857
930.894	3854
930.998	3838
931.103	3987
931.207	3701
931.311	3663
931.415	3652
931.519	3538
931.623	3526
