Data from test_V78500241_579.txt Node
Date: Fri Mar 25 16:53:01 CST 2022
User: usil
Spectrometer: V785-0024
Trigger mode: 0
Integration Time (sec): 4.000000E-1
Scans to average: 1
Nonlinearity correction enabled: false
Boxcar width: 0
Storing dark spectrum: false
XAxis mode: Wavelengths
Number of Pixels in Spectrum: 1024
>>>>>Begin Spectral Data<<<<<
801.071	8008
801.214	8039
801.356	7925
801.499	7757
801.641	7784
801.783	7887
801.926	7993
802.068	7951
802.211	8073
802.353	8069
802.496	7894
802.638	7902
802.78	7887
802.923	7909
803.065	7776
803.208	7849
803.35	8031
803.492	8081
803.635	8191
803.777	8016
803.919	8103
804.061	8408
804.204	8145
804.346	8031
804.488	7928
804.63	8065
804.773	7940
804.915	8035
805.057	8279
805.199	8138
805.341	8286
805.483	8279
805.626	8237
805.768	8126
805.91	8142
806.052	8157
806.194	8126
806.336	8324
806.478	8092
806.62	8088
806.762	8119
806.904	8210
807.046	8457
807.188	8290
807.33	8309
807.472	8298
807.614	8115
807.756	8035
807.898	8058
808.04	7837
808.182	7932
808.324	7909
808.465	7868
808.607	8035
808.749	8058
808.891	8180
809.033	8244
809.174	8191
809.316	8005
809.458	8081
809.6	7989
809.741	8020
809.883	8084
810.025	7993
810.166	8058
810.308	8012
810.45	8001
810.591	7856
810.733	7784
810.875	7655
811.016	7533
811.158	7510
811.299	7613
811.441	7700
811.582	7636
811.724	7609
811.865	7518
812.007	7655
812.148	7674
812.29	7647
812.431	7643
812.573	7883
812.714	7970
812.855	8142
812.997	8237
813.138	8263
813.279	8263
813.421	8180
813.562	8073
813.703	7894
813.845	7750
813.986	7483
814.127	7327
814.268	7289
814.41	7236
814.551	7133
814.692	7217
814.833	7042
814.974	7057
815.115	7057
815.256	6985
815.397	6951
815.539	6966
815.68	6806
815.821	6734
815.962	6924
816.103	6859
816.244	6779
816.385	6589
816.526	6642
816.666	6486
816.807	6308
816.948	6460
817.089	6452
817.23	6418
817.371	6369
817.512	6395
817.653	6350
817.793	6399
817.934	6395
818.075	6445
818.216	6426
818.356	6407
818.497	6281
818.638	6098
818.778	6125
818.919	6121
819.06	6175
819.2	6277
819.341	6296
819.481	6384
819.622	6494
819.762	6753
819.903	6673
820.043	6536
820.184	6479
820.324	6502
820.465	6684
820.605	6604
820.746	6589
820.886	6483
821.026	6673
821.167	6772
821.307	6722
821.447	6749
821.588	6551
821.728	6494
821.868	6464
822.008	6300
822.149	6334
822.289	6346
822.429	6190
822.569	6060
822.709	6129
822.849	5893
822.99	5935
823.13	5885
823.27	5912
823.41	5809
823.55	5756
823.69	5722
823.83	5809
823.97	5615
824.11	5490
824.25	5490
824.389	5547
824.529	5600
824.669	5516
824.809	5551
824.949	5646
825.089	5653
825.228	5551
825.368	5364
825.508	5326
825.648	5318
825.787	5391
825.927	5341
826.067	5303
826.206	5330
826.346	5391
826.485	5383
826.625	5395
826.765	5532
826.904	5497
827.044	5227
827.183	5204
827.323	5147
827.462	5246
827.601	5174
827.741	5189
827.88	5204
828.02	5105
828.159	5258
828.298	5254
828.437	5357
828.577	5280
828.716	5512
828.855	5273
828.994	5143
829.134	5159
829.273	5261
829.412	5162
829.551	5170
829.69	5193
829.829	5250
829.968	5452
830.107	5273
830.246	5303
830.385	5159
830.524	5102
830.663	5079
830.802	5056
830.941	4896
831.08	4900
831.219	5022
831.357	4980
831.496	5189
831.635	4934
831.774	4866
831.913	4892
832.051	4725
832.19	4748
832.329	4908
832.467	4740
832.606	4691
832.744	4759
832.883	4790
833.022	4786
833.16	4790
833.299	4873
833.437	4843
833.576	4877
833.714	4862
833.852	4908
833.991	4877
834.129	4991
834.267	4976
834.406	4949
834.544	5018
834.682	4976
834.821	5022
834.959	5204
835.097	5022
835.235	5140
835.373	5109
835.511	5143
835.65	5105
835.788	5025
835.926	4965
836.064	4923
836.202	4984
836.34	5147
836.478	5318
836.615	5136
836.753	5254
836.891	5315
837.029	5246
837.167	5269
837.305	5212
837.443	5193
837.58	5166
837.718	5292
837.856	5201
837.993	5147
838.131	5296
838.269	5220
838.406	5220
838.544	5181
838.681	5060
838.819	5018
838.956	4942
839.094	4938
839.231	5022
839.369	5121
839.506	5410
839.643	5258
839.781	5155
839.918	5033
840.055	5155
840.193	5140
840.33	5117
840.467	5197
840.604	5246
840.742	5452
840.879	5124
841.016	5143
841.153	5132
841.29	5436
841.427	5311
841.564	5391
841.701	5357
841.838	5360
841.975	5246
842.112	5277
842.249	5242
842.385	5121
842.522	5364
842.659	5181
842.796	5132
842.933	5235
843.069	5181
843.206	5197
843.343	5379
843.479	5273
843.616	5296
843.752	5079
843.889	5014
844.025	5277
844.162	5060
844.298	5258
844.435	5155
844.571	5075
844.708	5258
844.844	5330
844.98	5326
845.117	5296
845.253	5128
845.389	5109
845.525	5174
845.661	5166
845.798	5117
845.934	5201
846.07	5067
846.206	5239
846.342	5265
846.478	5189
846.614	5064
846.75	4968
846.886	4934
847.022	5143
847.158	5075
847.294	5105
847.429	5109
847.565	5048
847.701	5379
847.837	4847
847.972	4858
848.108	5006
848.244	4968
848.379	4782
848.515	4771
848.65	4782
848.786	4752
848.921	4782
849.057	4892
849.192	4908
849.328	4820
849.463	4881
849.598	4824
849.734	4759
849.869	4668
850.004	4672
850.14	4740
850.275	4664
850.41	4535
850.545	4577
850.68	4641
850.815	4645
850.95	4710
851.085	4862
851.22	4805
851.355	4702
851.49	4672
851.625	4702
851.76	4687
851.895	4603
852.03	4577
852.165	4649
852.299	4782
852.434	4843
852.569	4752
852.703	4771
852.838	4927
852.973	4949
853.107	4961
853.242	4748
853.376	4710
853.511	4573
853.645	4679
853.78	4828
853.914	4717
854.048	4767
854.183	4649
854.317	4717
854.451	4904
854.585	4668
854.72	4683
854.854	4801
854.988	4660
855.122	4641
855.256	4546
855.39	4702
855.524	4786
855.658	4782
855.792	4706
855.926	4774
856.06	4740
856.194	4885
856.327	4649
856.461	4660
856.595	4687
856.729	4618
856.862	4744
856.996	4714
857.13	4782
857.263	4748
857.397	4816
857.53	4687
857.664	4721
857.797	4786
857.931	4839
858.064	4691
858.197	4763
858.331	4687
858.464	4702
858.597	4592
858.731	4660
858.864	4683
858.997	4637
859.13	4588
859.263	4694
859.396	4721
859.529	4649
859.662	4607
859.795	4580
859.928	4668
860.061	4778
860.194	4805
860.327	4603
860.46	4599
860.592	4725
860.725	4710
860.858	4744
860.99	4596
861.123	4512
861.256	4558
861.388	4630
861.521	5398
861.653	4508
861.786	4470
861.918	4436
862.05	4535
862.183	4577
862.315	4615
862.447	4702
862.58	4588
862.712	4390
862.844	4379
862.976	4523
863.108	4474
863.24	4919
863.372	4360
863.504	4451
863.636	4440
863.768	4500
863.9	4440
864.032	4367
864.164	4436
864.296	4512
864.428	4558
864.559	4611
864.691	4565
864.823	4519
864.954	4489
865.086	4550
865.217	4512
865.349	4440
865.48	4455
865.612	4531
865.743	4615
865.875	4497
866.006	4421
866.137	4516
866.269	4512
866.4	4497
866.531	4474
866.662	4394
866.793	4466
866.924	4440
867.055	4481
867.186	4512
867.317	4428
867.448	4390
867.579	4451
867.71	4440
867.841	4413
867.972	4470
868.103	4516
868.233	4493
868.364	4447
868.495	4497
868.625	4698
868.756	4755
868.886	4645
869.017	4675
869.147	4774
869.278	4778
869.408	4691
869.539	4702
869.669	4790
869.799	4664
869.929	4771
870.06	4736
870.19	5003
870.32	4968
870.45	4980
870.58	5056
870.71	5109
870.84	5090
870.97	4995
871.1	4900
871.23	5151
871.36	5155
871.489	5060
871.619	5105
871.749	5094
871.879	5132
872.008	5220
872.138	5086
872.267	4987
872.397	4889
872.526	4885
872.656	4763
872.785	4843
872.915	4946
873.044	5090
873.173	4965
873.303	4987
873.432	4938
873.561	4957
873.69	4892
873.819	4896
873.948	4919
874.077	4862
874.206	4809
874.335	4812
874.464	4942
874.593	5033
874.722	5003
874.851	5197
874.979	5124
875.108	5041
875.237	4968
875.365	4927
875.494	4900
875.623	4938
875.751	4862
875.88	4896
876.008	4991
876.136	5064
876.265	5201
876.393	5326
876.521	5296
876.65	5273
876.778	5124
876.906	5075
877.034	5098
877.162	5071
877.29	5029
877.418	5109
877.546	5056
877.674	5105
877.802	5041
877.93	5056
878.058	4968
878.185	4915
878.313	4976
878.441	4957
878.568	4831
878.696	4862
878.824	5025
878.951	5018
879.079	5128
879.206	5315
879.333	5132
879.461	4991
879.588	4968
879.715	5140
879.842	5250
879.97	5033
880.097	4843
880.224	4786
880.351	4820
880.478	4866
880.605	4816
880.732	4828
880.859	5128
880.986	4881
881.112	4911
881.239	4816
881.366	4683
881.493	4634
881.619	4599
881.746	4664
881.872	4668
881.999	4660
882.125	4752
882.252	4831
882.378	4801
882.505	4987
882.631	4854
882.757	4668
882.883	4782
883.01	4740
883.136	4721
883.262	4649
883.388	4641
883.514	4843
883.64	4900
883.766	4816
883.892	4691
884.018	4733
884.143	4915
884.269	5025
884.395	4710
884.52	4672
884.646	4721
884.772	4615
884.897	4531
885.023	4714
885.148	4831
885.274	4877
885.399	4801
885.524	4725
885.65	4748
885.775	4790
885.9	4748
886.025	4915
886.15	4812
886.275	4771
886.4	4725
886.525	4698
886.65	4717
886.775	4748
886.9	4911
887.025	5022
887.149	4839
887.274	4668
887.399	4607
887.523	4580
887.648	4607
887.773	4634
887.897	4797
888.021	4782
888.146	4698
888.27	4847
888.395	4908
888.519	4748
888.643	4850
888.767	4858
888.891	4653
889.015	4634
889.139	4645
889.263	4634
889.387	4752
889.511	4892
889.635	4805
889.759	4691
889.883	4710
890.006	4702
890.13	4824
890.254	4592
890.377	4752
890.501	4558
890.624	4531
890.748	4683
890.871	4561
890.995	4417
891.118	4447
891.241	4531
891.364	4588
891.488	4634
891.611	4478
891.734	4519
891.857	4653
891.98	4599
892.103	4717
892.226	4611
892.349	4531
892.471	4417
892.594	4550
892.717	4611
892.839	4653
892.962	4596
893.085	4683
893.207	4599
893.33	4500
893.452	4538
893.575	4694
893.697	4618
893.819	4774
893.941	4786
894.064	4812
894.186	4622
894.308	4580
894.43	4755
894.552	4805
894.674	4786
894.796	4615
894.918	4653
895.04	4599
895.161	4694
895.283	4668
895.405	4599
895.526	4634
895.648	4721
895.769	4679
895.891	4714
896.012	4717
896.134	4733
896.255	4706
896.376	4664
896.498	4645
896.619	4717
896.74	4622
896.861	4683
896.982	4919
897.103	5090
897.224	4809
897.345	4755
897.466	4687
897.587	4774
897.708	4831
897.828	4759
897.949	4672
898.07	4561
898.19	4615
898.311	4847
898.431	4645
898.552	4763
898.672	4816
898.792	4831
898.913	4782
899.033	4588
899.153	4535
899.273	4470
899.393	4516
899.513	4542
899.633	4519
899.753	4584
899.873	4516
899.993	4603
900.113	4569
900.232	4611
900.352	4538
900.472	4447
900.591	4394
900.711	4569
900.83	4451
900.95	4615
901.069	4721
901.189	4523
901.308	4409
901.427	4363
901.546	4390
901.665	4481
901.784	4489
901.904	4398
902.023	4314
902.141	4192
902.26	4207
902.379	4299
902.498	4268
902.617	4253
902.735	4394
902.854	4341
902.973	4360
903.091	4223
903.21	4268
903.328	4299
903.446	4325
903.565	4295
903.683	4333
903.801	4287
903.919	4421
904.038	4447
904.156	4306
904.274	4455
904.392	4432
904.51	4466
904.627	4497
904.745	4577
904.863	4626
904.981	4436
905.098	4306
905.216	4405
905.334	4424
905.451	4421
905.569	4436
905.686	4577
905.803	4554
905.921	4417
906.038	4558
906.155	4493
906.272	4436
906.389	4516
906.506	4310
906.623	4386
906.74	4440
906.857	4310
906.974	4402
907.091	4588
907.208	4687
907.324	4569
907.441	4508
907.557	4375
907.674	4348
907.79	4310
907.907	4390
908.023	4512
908.139	4474
908.256	4481
908.372	4538
908.488	4455
908.604	4333
908.72	4371
908.836	4375
908.952	4356
909.068	4485
909.184	4592
909.3	4462
909.415	4596
909.531	4634
909.647	4421
909.762	4386
909.878	4379
909.993	4436
910.108	4428
910.224	4443
910.339	4470
910.454	4405
910.57	4379
910.685	4272
910.8	4637
910.915	4656
911.03	4542
911.145	4344
911.259	4299
911.374	4390
911.489	4348
911.604	4246
911.718	4166
911.833	4242
911.947	4131
912.062	4010
912.176	4249
912.291	4295
912.405	4200
912.519	4493
912.633	4516
912.748	4398
912.862	4337
912.976	4188
913.09	4128
913.204	4211
913.318	4280
913.431	4398
913.545	4398
913.659	4500
913.772	4390
913.886	4287
914	4230
914.113	4424
914.226	4474
914.34	4409
914.453	4242
914.566	4424
914.68	4375
914.793	4352
914.906	4131
915.019	4154
915.132	4105
915.245	4158
915.358	4169
915.47	4242
915.583	4306
915.696	4253
915.809	4432
915.921	4409
916.034	4265
916.146	4265
916.259	4215
916.371	4398
916.483	4337
916.595	4287
916.708	4348
916.82	4314
916.932	4318
917.044	4325
917.156	4337
917.268	4268
917.38	4291
917.491	4314
917.603	4383
917.715	4440
917.826	4363
917.938	4329
918.049	4257
918.161	4371
918.272	4546
918.384	4561
918.495	4447
918.606	4284
918.717	4215
918.828	4390
918.939	4390
919.05	4249
919.161	4333
919.272	4162
919.383	4261
919.494	4440
919.604	4645
919.715	4470
919.826	4356
919.936	4405
920.047	4504
920.157	4497
920.267	4710
920.378	4508
920.488	4485
920.598	4740
920.708	4866
920.818	4771
920.928	4755
921.038	4957
921.148	4949
921.258	4626
921.368	4550
921.477	4455
921.587	4489
921.697	4409
921.806	4523
921.916	4424
922.025	4261
922.134	4238
922.244	4207
922.353	4299
922.462	4158
922.571	4143
922.68	4029
922.789	4010
922.898	4013
923.007	4063
923.116	4059
923.224	4074
923.333	4105
923.442	3991
923.55	3991
923.659	4017
923.767	4097
923.876	4010
923.984	4082
924.092	4013
924.201	4109
924.309	4105
924.417	4097
924.525	4071
924.633	4086
924.741	5102
924.849	3941
924.956	4101
925.064	3979
925.172	3880
925.279	4006
925.387	4055
925.494	4082
925.602	4211
925.709	4219
925.816	4002
925.924	4105
926.031	4238
926.138	4166
926.245	4162
926.352	4086
926.459	4211
926.566	4318
926.673	4150
926.779	4048
926.886	4097
926.993	4013
927.099	3983
927.206	3922
927.312	3937
927.419	4071
927.525	4025
927.631	4082
927.737	3949
927.843	3983
927.95	3861
928.056	3960
928.162	3956
928.267	4063
928.373	4714
928.479	4131
928.585	3911
928.69	4010
928.796	4086
928.901	3960
929.007	3831
929.112	4025
929.218	3991
929.323	3937
929.428	3998
929.533	4074
929.638	3926
929.743	3968
929.848	4097
929.953	3956
930.058	3960
930.163	3762
930.267	3835
930.372	4017
930.477	3774
930.581	4086
930.685	3956
930.79	3819
930.894	3876
930.998	3884
931.103	4025
931.207	3720
931.311	3694
931.415	3682
931.519	3515
931.623	3557
