Data from test_V78500241_2621.txt Node
Date: Fri Mar 25 17:07:13 CST 2022
User: usil
Spectrometer: V785-0024
Trigger mode: 0
Integration Time (sec): 4.000000E-1
Scans to average: 1
Nonlinearity correction enabled: false
Boxcar width: 0
Storing dark spectrum: false
XAxis mode: Wavelengths
Number of Pixels in Spectrum: 1024
>>>>>Begin Spectral Data<<<<<
801.071	8065
801.214	7982
801.356	7845
801.499	7875
801.641	7750
801.783	7879
801.926	7940
802.068	7890
802.211	8035
802.353	8020
802.496	7986
802.638	7860
802.78	7963
802.923	7936
803.065	7902
803.208	7860
803.35	7951
803.492	8180
803.635	8168
803.777	8103
803.919	8130
804.061	8400
804.204	8123
804.346	7989
804.488	7951
804.63	8138
804.773	8031
804.915	8176
805.057	8298
805.199	8126
805.341	8202
805.483	8370
805.626	8263
805.768	8123
805.91	8195
806.052	8168
806.194	8145
806.336	8320
806.478	8058
806.62	8016
806.762	8103
806.904	8233
807.046	8454
807.188	8362
807.33	8320
807.472	8301
807.614	8134
807.756	8168
807.898	8027
808.04	7932
808.182	7860
808.324	7875
808.465	7955
808.607	8153
808.749	8199
808.891	8210
809.033	8305
809.174	8320
809.316	8103
809.458	8020
809.6	8031
809.741	8024
809.883	8031
810.025	8119
810.166	8058
810.308	8050
810.45	8012
810.591	7871
810.733	7772
810.875	7674
811.016	7575
811.158	7491
811.299	7590
811.441	7780
811.582	7666
811.724	7594
811.865	7552
812.007	7628
812.148	7582
812.29	7662
812.431	7784
812.573	7845
812.714	7909
812.855	8111
812.997	8214
813.138	8301
813.279	8176
813.421	8077
813.562	8016
813.703	7830
813.845	7780
813.986	7472
814.127	7358
814.268	7228
814.41	7187
814.551	7244
814.692	7202
814.833	7114
814.974	7053
815.115	7202
815.256	6897
815.397	6935
815.539	6996
815.68	6867
815.821	6772
815.962	6897
816.103	6814
816.244	6738
816.385	6642
816.526	6604
816.666	6528
816.807	6308
816.948	6448
817.089	6471
817.23	6445
817.371	6448
817.512	6369
817.653	6422
817.793	6391
817.934	6414
818.075	6467
818.216	6452
818.356	6422
818.497	6281
818.638	6163
818.778	6186
818.919	6152
819.06	6152
819.2	6376
819.341	6369
819.481	6369
819.622	6559
819.762	6741
819.903	6738
820.043	6631
820.184	6620
820.324	6582
820.465	6779
820.605	6700
820.746	6669
820.886	6612
821.026	6711
821.167	6715
821.307	6825
821.447	6779
821.588	6684
821.728	6566
821.868	6540
822.008	6319
822.149	6429
822.289	6414
822.429	6117
822.569	6136
822.709	6152
822.849	5935
822.99	5904
823.13	5939
823.27	5980
823.41	5798
823.55	5836
823.69	5752
823.83	5855
823.97	5668
824.11	5615
824.25	5501
824.389	5520
824.529	5619
824.669	5520
824.809	5707
824.949	5688
825.089	5589
825.228	5600
825.368	5395
825.508	5383
825.648	5326
825.787	5406
825.927	5391
826.067	5284
826.206	5303
826.346	5398
826.485	5376
826.625	5395
826.765	5558
826.904	5493
827.044	5265
827.183	5261
827.323	5105
827.462	5239
827.601	5212
827.741	5185
827.88	5227
828.02	5132
828.159	5242
828.298	5265
828.437	5334
828.577	5265
828.716	5512
828.855	5311
828.994	5181
829.134	5132
829.273	5212
829.412	5170
829.551	5170
829.69	5166
829.829	5269
829.968	5345
830.107	5299
830.246	5307
830.385	5181
830.524	5102
830.663	5147
830.802	4965
830.941	4908
831.08	4873
831.219	5025
831.357	4942
831.496	5170
831.635	4961
831.774	4896
831.913	4892
832.051	4763
832.19	4733
832.329	4866
832.467	4691
832.606	4656
832.744	4759
832.883	4752
833.022	4733
833.16	4831
833.299	4847
833.437	4915
833.576	4885
833.714	4824
833.852	4900
833.991	4896
834.129	4957
834.267	4961
834.406	4900
834.544	5003
834.682	5003
834.821	4980
834.959	5193
835.097	5025
835.235	5189
835.373	5086
835.511	5090
835.65	5048
835.788	5045
835.926	4927
836.064	4862
836.202	4885
836.34	5178
836.478	5208
836.615	5170
836.753	5216
836.891	5280
837.029	5265
837.167	5242
837.305	5098
837.443	5128
837.58	5056
837.718	5258
837.856	5208
837.993	5189
838.131	5231
838.269	5261
838.406	5235
838.544	5159
838.681	5075
838.819	5033
838.956	4923
839.094	4946
839.231	4961
839.369	5060
839.506	5417
839.643	5307
839.781	5090
839.918	5018
840.055	5086
840.193	5155
840.33	5056
840.467	5098
840.604	5204
840.742	5391
840.879	5109
841.016	5113
841.153	5140
841.29	5391
841.427	5376
841.564	5315
841.701	5326
841.838	5269
841.975	5235
842.112	5288
842.249	5208
842.385	5143
842.522	5334
842.659	5151
842.796	5181
842.933	5227
843.069	5124
843.206	5189
843.343	5353
843.479	5223
843.616	5261
843.752	5067
843.889	5018
844.025	5216
844.162	5014
844.298	5235
844.435	5048
844.571	5071
844.708	5239
844.844	5341
844.98	5315
845.117	5288
845.253	5159
845.389	5124
845.525	5102
845.661	5143
845.798	5064
845.934	5105
846.07	5041
846.206	5181
846.342	5296
846.478	5151
846.614	5029
846.75	4968
846.886	4961
847.022	5136
847.158	5029
847.294	5075
847.429	5124
847.565	5029
847.701	5368
847.837	4889
847.972	4847
848.108	5010
848.244	4991
848.379	4820
848.515	4752
848.65	4763
848.786	4725
848.921	4790
849.057	4862
849.192	4908
849.328	4820
849.463	4839
849.598	4786
849.734	4748
849.869	4698
850.004	4637
850.14	4645
850.275	4649
850.41	4516
850.545	4634
850.68	4580
850.815	4577
850.95	4641
851.085	4805
851.22	4778
851.355	4664
851.49	4611
851.625	4607
851.76	4675
851.895	4516
852.03	4565
852.165	4683
852.299	4752
852.434	4771
852.569	4809
852.703	4793
852.838	4866
852.973	4934
853.107	4915
853.242	4801
853.376	4729
853.511	4527
853.645	4577
853.78	4767
853.914	4660
854.048	4653
854.183	4641
854.317	4691
854.451	4812
854.585	4634
854.72	4653
854.854	4740
854.988	4611
855.122	4588
855.256	4512
855.39	4618
855.524	4767
855.658	4679
855.792	4694
855.926	4748
856.06	4748
856.194	4831
856.327	4725
856.461	4630
856.595	4615
856.729	4649
856.862	4774
856.996	4694
857.13	4721
857.263	4729
857.397	4828
857.53	4649
857.664	4759
857.797	4752
857.931	4763
858.064	4694
858.197	4733
858.331	4672
858.464	4626
858.597	4527
858.731	4653
858.864	4641
858.997	4653
859.13	4664
859.263	4615
859.396	4721
859.529	4573
859.662	4523
859.795	4554
859.928	4603
860.061	4774
860.194	4767
860.327	4611
860.46	4615
860.592	4687
860.725	4740
860.858	4725
860.99	4580
861.123	4527
861.256	4504
861.388	4592
861.521	5459
861.653	4516
861.786	4459
861.918	4478
862.05	4500
862.183	4588
862.315	4584
862.447	4634
862.58	4565
862.712	4440
862.844	4325
862.976	4440
863.108	4493
863.24	4752
863.372	4341
863.504	4375
863.636	4409
863.768	4447
863.9	4428
864.032	4337
864.164	4402
864.296	4489
864.428	4527
864.559	4516
864.691	4558
864.823	4531
864.954	4489
865.086	4489
865.217	4451
865.349	4447
865.48	4474
865.612	4493
865.743	4580
865.875	4443
866.006	4443
866.137	4478
866.269	4436
866.4	4421
866.531	4432
866.662	4390
866.793	4466
866.924	4405
867.055	4512
867.186	4447
867.317	4447
867.448	4383
867.579	4390
867.71	4409
867.841	4352
867.972	4447
868.103	4459
868.233	4432
868.364	4417
868.495	4519
868.625	4698
868.756	4748
868.886	4596
869.017	4588
869.147	4759
869.278	4778
869.408	4675
869.539	4645
869.669	4733
869.799	4618
869.929	4793
870.06	4755
870.19	4927
870.32	4927
870.45	4972
870.58	5056
870.71	5090
870.84	5075
870.97	4915
871.1	4915
871.23	5132
871.36	5151
871.489	5041
871.619	5102
871.749	5094
871.879	5083
872.008	5155
872.138	5056
872.267	4972
872.397	4877
872.526	4786
872.656	4729
872.785	4801
872.915	4972
873.044	5064
873.173	4987
873.303	4957
873.432	4999
873.561	4938
873.69	4862
873.819	4892
873.948	4892
874.077	4809
874.206	4755
874.335	4816
874.464	4934
874.593	5010
874.722	4949
874.851	5098
874.979	5109
875.108	5052
875.237	4927
875.365	4881
875.494	4847
875.623	4961
875.751	4843
875.88	4873
876.008	4999
876.136	5056
876.265	5181
876.393	5284
876.521	5220
876.65	5231
876.778	5166
876.906	5045
877.034	5048
877.162	5060
877.29	4968
877.418	5041
877.546	5003
877.674	5060
877.802	5010
877.93	5037
878.058	4927
878.185	4820
878.313	4949
878.441	4938
878.568	4843
878.696	4858
878.824	4904
878.951	5052
879.079	5159
879.206	5280
879.333	5075
879.461	4995
879.588	4995
879.715	5193
879.842	5185
879.97	5025
880.097	4767
880.224	4736
880.351	4797
880.478	4839
880.605	4805
880.732	4805
880.859	5075
880.986	4942
881.112	4923
881.239	4733
881.366	4679
881.493	4599
881.619	4584
881.746	4634
881.872	4645
881.999	4630
882.125	4637
882.252	4782
882.378	4816
882.505	4984
882.631	4835
882.757	4672
882.883	4721
883.01	4710
883.136	4645
883.262	4588
883.388	4599
883.514	4786
883.64	4862
883.766	4820
883.892	4679
884.018	4733
884.143	4866
884.269	5041
884.395	4683
884.52	4596
884.646	4649
884.772	4558
884.897	4516
885.023	4637
885.148	4786
885.274	4816
885.399	4824
885.524	4679
885.65	4725
885.775	4740
885.9	4698
886.025	4805
886.15	4801
886.275	4656
886.4	4687
886.525	4698
886.65	4672
886.775	4702
886.9	4930
887.025	5064
887.149	4824
887.274	4596
887.399	4626
887.523	4622
887.648	4538
887.773	4660
887.897	4786
888.021	4763
888.146	4679
888.27	4831
888.395	4919
888.519	4801
888.643	4755
888.767	4839
888.891	4645
889.015	4653
889.139	4637
889.263	4626
889.387	4797
889.511	4858
889.635	4877
889.759	4649
889.883	4668
890.006	4752
890.13	4828
890.254	4634
890.377	4645
890.501	4565
890.624	4527
890.748	4645
890.871	4519
890.995	4459
891.118	4360
891.241	4489
891.364	4504
891.488	4641
891.611	4493
891.734	4565
891.857	4615
891.98	4542
892.103	4675
892.226	4618
892.349	4546
892.471	4356
892.594	4542
892.717	4584
892.839	4577
892.962	4603
893.085	4653
893.207	4611
893.33	4493
893.452	4531
893.575	4683
893.697	4592
893.819	4759
893.941	4850
894.064	4805
894.186	4603
894.308	4618
894.43	4687
894.552	4809
894.674	4797
894.796	4519
894.918	4577
895.04	4558
895.161	4714
895.283	4656
895.405	4550
895.526	4626
895.648	4611
895.769	4698
895.891	4683
896.012	4725
896.134	4733
896.255	4634
896.376	4622
896.498	4634
896.619	4653
896.74	4618
896.861	4596
896.982	4927
897.103	5056
897.224	4786
897.345	4687
897.466	4664
897.587	4740
897.708	4809
897.828	4744
897.949	4664
898.07	4569
898.19	4611
898.311	4881
898.431	4683
898.552	4717
898.672	4797
898.792	4801
898.913	4759
899.033	4641
899.153	4508
899.273	4402
899.393	4447
899.513	4512
899.633	4519
899.753	4500
899.873	4489
899.993	4527
900.113	4516
900.232	4577
900.352	4588
900.472	4527
900.591	4379
900.711	4500
900.83	4447
900.95	4656
901.069	4683
901.189	4569
901.308	4318
901.427	4310
901.546	4348
901.665	4474
901.784	4451
901.904	4417
902.023	4333
902.141	4215
902.26	4166
902.379	4333
902.498	4238
902.617	4253
902.735	4386
902.854	4344
902.973	4363
903.091	4173
903.21	4227
903.328	4322
903.446	4280
903.565	4257
903.683	4352
903.801	4249
903.919	4375
904.038	4398
904.156	4325
904.274	4455
904.392	4455
904.51	4390
904.627	4432
904.745	4588
904.863	4634
904.981	4402
905.098	4284
905.216	4383
905.334	4443
905.451	4485
905.569	4466
905.686	4558
905.803	4573
905.921	4440
906.038	4466
906.155	4455
906.272	4398
906.389	4440
906.506	4375
906.623	4390
906.74	4424
906.857	4291
906.974	4394
907.091	4569
907.208	4672
907.324	4580
907.441	4497
907.557	4356
907.674	4352
907.79	4322
907.907	4398
908.023	4478
908.139	4474
908.256	4493
908.372	4466
908.488	4440
908.604	4360
908.72	4344
908.836	4352
908.952	4341
909.068	4432
909.184	4561
909.3	4489
909.415	4558
909.531	4516
909.647	4379
909.762	4371
909.878	4341
909.993	4470
910.108	4451
910.224	4398
910.339	4527
910.454	4436
910.57	4383
910.685	4322
910.8	4641
910.915	4660
911.03	4462
911.145	4356
911.259	4329
911.374	4379
911.489	4314
911.604	4280
911.718	4139
911.833	4230
911.947	4074
912.062	4051
912.176	4211
912.291	4192
912.405	4223
912.519	4470
912.633	4523
912.748	4367
912.862	4265
912.976	4181
913.09	4074
913.204	4185
913.318	4234
913.431	4398
913.545	4356
913.659	4455
913.772	4356
913.886	4249
914	4204
914.113	4432
914.226	4443
914.34	4344
914.453	4265
914.566	4405
914.68	4303
914.793	4322
914.906	4177
915.019	4139
915.132	4097
915.245	4192
915.358	4188
915.47	4223
915.583	4299
915.696	4303
915.809	4443
915.921	4470
916.034	4249
916.146	4223
916.259	4230
916.371	4417
916.483	4394
916.595	4234
916.708	4280
916.82	4322
916.932	4318
917.044	4325
917.156	4333
917.268	4223
917.38	4272
917.491	4242
917.603	4360
917.715	4432
917.826	4436
917.938	4337
918.049	4238
918.161	4337
918.272	4558
918.384	4542
918.495	4440
918.606	4291
918.717	4242
918.828	4303
918.939	4379
919.05	4223
919.161	4287
919.272	4128
919.383	4249
919.494	4394
919.604	4615
919.715	4402
919.826	4337
919.936	4390
920.047	4565
920.157	4493
920.267	4714
920.378	4554
920.488	4474
920.598	4691
920.708	4896
920.818	4717
920.928	4812
921.038	4953
921.148	4934
921.258	4664
921.368	4531
921.477	4512
921.587	4466
921.697	4371
921.806	4523
921.916	4409
922.025	4322
922.134	4299
922.244	4223
922.353	4303
922.462	4173
922.571	4120
922.68	4055
922.789	3960
922.898	4078
923.007	4032
923.116	4109
923.224	4093
923.333	4074
923.442	4021
923.55	3979
923.659	4071
923.767	4090
923.876	4040
923.984	4124
924.092	3956
924.201	4078
924.309	4109
924.417	4093
924.525	4048
924.633	4093
924.741	5029
924.849	3873
924.956	4116
925.064	3975
925.172	3922
925.279	3975
925.387	4013
925.494	4101
925.602	4215
925.709	4173
925.816	4086
925.924	4131
926.031	4204
926.138	4169
926.245	4192
926.352	4090
926.459	4272
926.566	4284
926.673	4181
926.779	4078
926.886	4032
926.993	3972
927.099	3953
927.206	3949
927.312	3911
927.419	4097
927.525	3979
927.631	4131
927.737	3953
927.843	3964
927.95	3816
928.056	3945
928.162	3998
928.267	4055
928.373	4622
928.479	4097
928.585	3876
928.69	4025
928.796	4071
928.901	3956
929.007	3873
929.112	4002
929.218	3953
929.323	3922
929.428	3907
929.533	4090
929.638	3918
929.743	3972
929.848	4040
929.953	4010
930.058	3941
930.163	3808
930.267	3846
930.372	3972
930.477	3838
930.581	4116
930.685	3926
930.79	3838
930.894	3880
930.998	3846
931.103	4013
931.207	3679
931.311	3713
931.415	3698
931.519	3496
931.623	3557
