Data from test_V78500241_1675.txt Node
Date: Fri Mar 25 17:00:38 CST 2022
User: usil
Spectrometer: V785-0024
Trigger mode: 0
Integration Time (sec): 4.000000E-1
Scans to average: 1
Nonlinearity correction enabled: false
Boxcar width: 0
Storing dark spectrum: false
XAxis mode: Wavelengths
Number of Pixels in Spectrum: 1024
>>>>>Begin Spectral Data<<<<<
801.071	7997
801.214	8012
801.356	7883
801.499	7849
801.641	7830
801.783	7849
801.926	7951
802.068	7951
802.211	7970
802.353	7940
802.496	7837
802.638	7822
802.78	7913
802.923	7928
803.065	7799
803.208	7833
803.35	7959
803.492	8096
803.635	8126
803.777	8062
803.919	8142
804.061	8457
804.204	8123
804.346	8069
804.488	7925
804.63	8191
804.773	8001
804.915	8195
805.057	8309
805.199	8123
805.341	8214
805.483	8233
805.626	8206
805.768	8138
805.91	8294
806.052	8191
806.194	8100
806.336	8313
806.478	8123
806.62	8024
806.762	8183
806.904	8279
807.046	8480
807.188	8408
807.33	8298
807.472	8355
807.614	8180
807.756	8210
807.898	7997
808.04	7909
808.182	7986
808.324	7841
808.465	7951
808.607	8119
808.749	8157
808.891	8172
809.033	8282
809.174	8172
809.316	8119
809.458	8103
809.6	8092
809.741	8100
809.883	8008
810.025	8084
810.166	8027
810.308	8008
810.45	7963
810.591	7849
810.733	7784
810.875	7613
811.016	7430
811.158	7495
811.299	7601
811.441	7681
811.582	7670
811.724	7609
811.865	7495
812.007	7575
812.148	7639
812.29	7693
812.431	7826
812.573	7879
812.714	8050
812.855	8130
812.997	8252
813.138	8328
813.279	8183
813.421	8069
813.562	7967
813.703	7803
813.845	7689
813.986	7422
814.127	7160
814.268	7213
814.41	7179
814.551	7168
814.692	7259
814.833	7141
814.974	7118
815.115	7076
815.256	7050
815.397	6951
815.539	6935
815.68	6791
815.821	6814
815.962	6894
816.103	6783
816.244	6734
816.385	6578
816.526	6589
816.666	6494
816.807	6251
816.948	6441
817.089	6464
817.23	6407
817.371	6414
817.512	6433
817.653	6437
817.793	6388
817.934	6429
818.075	6407
818.216	6410
818.356	6391
818.497	6262
818.638	6136
818.778	6102
818.919	6140
819.06	6220
819.2	6315
819.341	6365
819.481	6391
819.622	6555
819.762	6745
819.903	6696
820.043	6574
820.184	6589
820.324	6631
820.465	6726
820.605	6650
820.746	6681
820.886	6506
821.026	6639
821.167	6715
821.307	6791
821.447	6768
821.588	6738
821.728	6570
821.868	6509
822.008	6285
822.149	6388
822.289	6372
822.429	6232
822.569	6079
822.709	6102
822.849	5980
822.99	5954
823.13	5874
823.27	5908
823.41	5802
823.55	5802
823.69	5767
823.83	5813
823.97	5657
824.11	5543
824.25	5505
824.389	5539
824.529	5547
824.669	5543
824.809	5665
824.949	5661
825.089	5630
825.228	5611
825.368	5410
825.508	5406
825.648	5357
825.787	5410
825.927	5391
826.067	5277
826.206	5341
826.346	5330
826.485	5395
826.625	5383
826.765	5471
826.904	5497
827.044	5242
827.183	5223
827.323	5121
827.462	5250
827.601	5201
827.741	5193
827.88	5185
828.02	5098
828.159	5216
828.298	5254
828.437	5357
828.577	5379
828.716	5497
828.855	5334
828.994	5124
829.134	5155
829.273	5185
829.412	5147
829.551	5151
829.69	5204
829.829	5204
829.968	5353
830.107	5250
830.246	5330
830.385	5208
830.524	5102
830.663	5052
830.802	4995
830.941	4904
831.08	4919
831.219	4995
831.357	4965
831.496	5128
831.635	4946
831.774	4847
831.913	4816
832.051	4714
832.19	4721
832.329	4824
832.467	4729
832.606	4694
832.744	4748
832.883	4763
833.022	4710
833.16	4763
833.299	4812
833.437	4824
833.576	4797
833.714	4828
833.852	4866
833.991	4873
834.129	5022
834.267	4934
834.406	4930
834.544	4999
834.682	5018
834.821	4904
834.959	5162
835.097	4987
835.235	5113
835.373	5086
835.511	5124
835.65	5086
835.788	4984
835.926	4923
836.064	4889
836.202	4889
836.34	5193
836.478	5162
836.615	5136
836.753	5235
836.891	5299
837.029	5223
837.167	5201
837.305	5132
837.443	5121
837.58	5052
837.718	5223
837.856	5193
837.993	5113
838.131	5178
838.269	5189
838.406	5246
838.544	5197
838.681	5041
838.819	4991
838.956	4908
839.094	4896
839.231	5006
839.369	5102
839.506	5425
839.643	5220
839.781	5056
839.918	5022
840.055	5109
840.193	5083
840.33	5117
840.467	5132
840.604	5208
840.742	5402
840.879	5090
841.016	5064
841.153	5155
841.29	5421
841.427	5326
841.564	5284
841.701	5391
841.838	5303
841.975	5197
842.112	5220
842.249	5132
842.385	5132
842.522	5334
842.659	5185
842.796	5121
842.933	5201
843.069	5189
843.206	5147
843.343	5337
843.479	5208
843.616	5265
843.752	5010
843.889	5045
844.025	5250
844.162	5022
844.298	5197
844.435	5105
844.571	5045
844.708	5185
844.844	5296
844.98	5311
845.117	5296
845.253	5147
845.389	5033
845.525	5136
845.661	5143
845.798	5045
845.934	5086
846.07	5090
846.206	5159
846.342	5235
846.478	5136
846.614	4999
846.75	5025
846.886	4911
847.022	5121
847.158	4984
847.294	5086
847.429	5060
847.565	5048
847.701	5315
847.837	4843
847.972	4793
848.108	4923
848.244	4957
848.379	4778
848.515	4759
848.65	4725
848.786	4679
848.921	4774
849.057	4839
849.192	4892
849.328	4850
849.463	4850
849.598	4793
849.734	4759
849.869	4683
850.004	4630
850.14	4660
850.275	4599
850.41	4573
850.545	4596
850.68	4634
850.815	4687
850.95	4679
851.085	4854
851.22	4778
851.355	4675
851.49	4615
851.625	4675
851.76	4637
851.895	4603
852.03	4519
852.165	4687
852.299	4755
852.434	4729
852.569	4774
852.703	4729
852.838	4843
852.973	4919
853.107	4965
853.242	4717
853.376	4668
853.511	4599
853.645	4611
853.78	4805
853.914	4645
854.048	4649
854.183	4622
854.317	4714
854.451	4870
854.585	4694
854.72	4630
854.854	4790
854.988	4569
855.122	4637
855.256	4497
855.39	4672
855.524	4721
855.658	4675
855.792	4664
855.926	4763
856.06	4698
856.194	4790
856.327	4653
856.461	4618
856.595	4611
856.729	4637
856.862	4793
856.996	4668
857.13	4748
857.263	4752
857.397	4790
857.53	4637
857.664	4679
857.797	4759
857.931	4771
858.064	4672
858.197	4721
858.331	4660
858.464	4626
858.597	4535
858.731	4603
858.864	4668
858.997	4668
859.13	4653
859.263	4679
859.396	4706
859.529	4554
859.662	4584
859.795	4497
859.928	4603
860.061	4744
860.194	4721
860.327	4599
860.46	4542
860.592	4725
860.725	4733
860.858	4744
860.99	4588
861.123	4489
861.256	4538
861.388	4637
861.521	5429
861.653	4500
861.786	4497
861.918	4440
862.05	4504
862.183	4546
862.315	4577
862.447	4672
862.58	4546
862.712	4402
862.844	4344
862.976	4428
863.108	4447
863.24	4755
863.372	4371
863.504	4409
863.636	4379
863.768	4512
863.9	4417
864.032	4405
864.164	4405
864.296	4451
864.428	4516
864.559	4531
864.691	4561
864.823	4500
864.954	4500
865.086	4538
865.217	4383
865.349	4379
865.48	4432
865.612	4493
865.743	4603
865.875	4504
866.006	4432
866.137	4405
866.269	4398
866.4	4386
866.531	4405
866.662	4409
866.793	4367
866.924	4447
867.055	4569
867.186	4451
867.317	4417
867.448	4344
867.579	4421
867.71	4409
867.841	4337
867.972	4466
868.103	4432
868.233	4428
868.364	4440
868.495	4474
868.625	4649
868.756	4744
868.886	4538
869.017	4565
869.147	4786
869.278	4771
869.408	4694
869.539	4618
869.669	4679
869.799	4664
869.929	4809
870.06	4786
870.19	4987
870.32	4949
870.45	4919
870.58	4984
870.71	5064
870.84	5064
870.97	4911
871.1	4946
871.23	5174
871.36	5117
871.489	5033
871.619	5067
871.749	5083
871.879	5109
872.008	5098
872.138	5037
872.267	5022
872.397	4816
872.526	4892
872.656	4767
872.785	4774
872.915	4957
873.044	5048
873.173	4961
873.303	5022
873.432	4938
873.561	4946
873.69	4896
873.819	4839
873.948	4889
874.077	4835
874.206	4717
874.335	4828
874.464	4881
874.593	5071
874.722	4984
874.851	5102
874.979	5075
875.108	5014
875.237	4911
875.365	4885
875.494	4896
875.623	4953
875.751	4847
875.88	4896
876.008	4938
876.136	5018
876.265	5170
876.393	5349
876.521	5204
876.65	5235
876.778	5197
876.906	5067
877.034	5033
877.162	5052
877.29	4961
877.418	5052
877.546	5029
877.674	5022
877.802	5014
877.93	4984
878.058	4915
878.185	4862
878.313	4987
878.441	4934
878.568	4812
878.696	4858
878.824	4942
878.951	5010
879.079	5128
879.206	5242
879.333	5102
879.461	4923
879.588	5003
879.715	5136
879.842	5261
879.97	4995
880.097	4809
880.224	4717
880.351	4782
880.478	4805
880.605	4801
880.732	4752
880.859	5067
880.986	4839
881.112	4904
881.239	4774
881.366	4660
881.493	4615
881.619	4607
881.746	4660
881.872	4649
881.999	4694
882.125	4675
882.252	4752
882.378	4771
882.505	4923
882.631	4782
882.757	4706
882.883	4710
883.01	4702
883.136	4637
883.262	4573
883.388	4634
883.514	4858
883.64	4854
883.766	4767
883.892	4672
884.018	4748
884.143	4870
884.269	4968
884.395	4656
884.52	4611
884.646	4664
884.772	4535
884.897	4550
885.023	4622
885.148	4786
885.274	4843
885.399	4877
885.524	4698
885.65	4660
885.775	4698
885.9	4710
886.025	4831
886.15	4816
886.275	4694
886.4	4641
886.525	4759
886.65	4656
886.775	4679
886.9	4896
887.025	5025
887.149	4835
887.274	4618
887.399	4637
887.523	4584
887.648	4577
887.773	4615
887.897	4759
888.021	4812
888.146	4668
888.27	4767
888.395	4877
888.519	4736
888.643	4824
888.767	4839
888.891	4675
889.015	4580
889.139	4649
889.263	4637
889.387	4767
889.511	4881
889.635	4793
889.759	4637
889.883	4634
890.006	4691
890.13	4805
890.254	4607
890.377	4656
890.501	4531
890.624	4500
890.748	4626
890.871	4527
890.995	4481
891.118	4367
891.241	4432
891.364	4523
891.488	4630
891.611	4527
891.734	4580
891.857	4565
891.98	4527
892.103	4599
892.226	4561
892.349	4535
892.471	4394
892.594	4546
892.717	4599
892.839	4523
892.962	4538
893.085	4653
893.207	4603
893.33	4436
893.452	4546
893.575	4691
893.697	4531
893.819	4816
893.941	4801
894.064	4759
894.186	4538
894.308	4584
894.43	4694
894.552	4812
894.674	4812
894.796	4565
894.918	4615
895.04	4577
895.161	4714
895.283	4691
895.405	4569
895.526	4615
895.648	4607
895.769	4679
895.891	4714
896.012	4733
896.134	4717
896.255	4649
896.376	4660
896.498	4649
896.619	4679
896.74	4607
896.861	4672
896.982	4934
897.103	5064
897.224	4824
897.345	4702
897.466	4672
897.587	4683
897.708	4889
897.828	4755
897.949	4649
898.07	4542
898.19	4634
898.311	4793
898.431	4694
898.552	4691
898.672	4786
898.792	4812
898.913	4782
899.033	4618
899.153	4459
899.273	4398
899.393	4523
899.513	4504
899.633	4554
899.753	4527
899.873	4497
899.993	4538
900.113	4580
900.232	4554
900.352	4489
900.472	4481
900.591	4462
900.711	4485
900.83	4405
900.95	4630
901.069	4660
901.189	4584
901.308	4375
901.427	4280
901.546	4383
901.665	4474
901.784	4493
901.904	4375
902.023	4314
902.141	4196
902.26	4109
902.379	4310
902.498	4211
902.617	4227
902.735	4341
902.854	4318
902.973	4344
903.091	4234
903.21	4261
903.328	4272
903.446	4280
903.565	4261
903.683	4325
903.801	4280
903.919	4428
904.038	4421
904.156	4329
904.274	4440
904.392	4424
904.51	4405
904.627	4455
904.745	4584
904.863	4634
904.981	4402
905.098	4284
905.216	4390
905.334	4455
905.451	4386
905.569	4447
905.686	4565
905.803	4542
905.921	4383
906.038	4523
906.155	4440
906.272	4421
906.389	4421
906.506	4329
906.623	4383
906.74	4379
906.857	4322
906.974	4383
907.091	4596
907.208	4618
907.324	4573
907.441	4478
907.557	4329
907.674	4375
907.79	4314
907.907	4375
908.023	4432
908.139	4485
908.256	4459
908.372	4451
908.488	4443
908.604	4348
908.72	4280
908.836	4367
908.952	4348
909.068	4409
909.184	4592
909.3	4462
909.415	4637
909.531	4535
909.647	4360
909.762	4383
909.878	4333
909.993	4417
910.108	4375
910.224	4428
910.339	4485
910.454	4436
910.57	4344
910.685	4318
910.8	4664
910.915	4580
911.03	4485
911.145	4306
911.259	4371
911.374	4360
911.489	4295
911.604	4303
911.718	4192
911.833	4219
911.947	4082
912.062	4021
912.176	4215
912.291	4280
912.405	4253
912.519	4497
912.633	4493
912.748	4363
912.862	4310
912.976	4192
913.09	4101
913.204	4158
913.318	4249
913.431	4333
913.545	4367
913.659	4470
913.772	4383
913.886	4257
914	4166
914.113	4329
914.226	4481
914.34	4379
914.453	4253
914.566	4398
914.68	4257
914.793	4352
914.906	4173
915.019	4131
915.132	4074
915.245	4188
915.358	4223
915.47	4196
915.583	4265
915.696	4329
915.809	4413
915.921	4398
916.034	4265
916.146	4227
916.259	4204
916.371	4367
916.483	4352
916.595	4261
916.708	4348
916.82	4356
916.932	4318
917.044	4363
917.156	4337
917.268	4230
917.38	4299
917.491	4287
917.603	4329
917.715	4424
917.826	4493
917.938	4360
918.049	4261
918.161	4390
918.272	4538
918.384	4497
918.495	4466
918.606	4314
918.717	4207
918.828	4367
918.939	4379
919.05	4246
919.161	4303
919.272	4181
919.383	4169
919.494	4413
919.604	4611
919.715	4440
919.826	4341
919.936	4398
920.047	4531
920.157	4447
920.267	4736
920.378	4569
920.488	4500
920.598	4664
920.708	4908
920.818	4767
920.928	4759
921.038	4968
921.148	4930
921.258	4615
921.368	4580
921.477	4443
921.587	4421
921.697	4417
921.806	4550
921.916	4466
922.025	4253
922.134	4227
922.244	4162
922.353	4341
922.462	4150
922.571	4154
922.68	4002
922.789	3979
922.898	4040
923.007	3975
923.116	4124
923.224	4067
923.333	4055
923.442	3991
923.55	4002
923.659	4002
923.767	4101
923.876	3998
923.984	4131
924.092	4025
924.201	4067
924.309	4078
924.417	4154
924.525	4082
924.633	4112
924.741	4854
924.849	3945
924.956	4109
925.064	3968
925.172	3899
925.279	3968
925.387	4071
925.494	4059
925.602	4219
925.709	4177
925.816	4021
925.924	4116
926.031	4246
926.138	4158
926.245	4181
926.352	4101
926.459	4265
926.566	4329
926.673	4154
926.779	4109
926.886	4093
926.993	3991
927.099	3915
927.206	3964
927.312	3907
927.419	4059
927.525	4013
927.631	4105
927.737	3979
927.843	3941
927.95	3854
928.056	3915
928.162	3956
928.267	4036
928.373	4656
928.479	4101
928.585	3865
928.69	4040
928.796	4048
928.901	3975
929.007	3869
929.112	3979
929.218	3941
929.323	3918
929.428	3934
929.533	4078
929.638	3876
929.743	3972
929.848	4055
929.953	3979
930.058	3926
930.163	3774
930.267	3846
930.372	3956
930.477	3778
930.581	4090
930.685	3941
930.79	3800
930.894	3827
930.998	3884
931.103	3998
931.207	3713
931.311	3694
931.415	3667
931.519	3511
931.623	3557
