Data from test_V78500241_1776.txt Node
Date: Fri Mar 25 17:01:21 CST 2022
User: usil
Spectrometer: V785-0024
Trigger mode: 0
Integration Time (sec): 4.000000E-1
Scans to average: 1
Nonlinearity correction enabled: false
Boxcar width: 0
Storing dark spectrum: false
XAxis mode: Wavelengths
Number of Pixels in Spectrum: 1024
>>>>>Begin Spectral Data<<<<<
801.071	8031
801.214	8084
801.356	7833
801.499	7868
801.641	7811
801.783	7830
801.926	8016
802.068	8001
802.211	7982
802.353	8005
802.496	7875
802.638	7967
802.78	7879
802.923	7951
803.065	7951
803.208	7887
803.35	8008
803.492	8123
803.635	8202
803.777	8084
803.919	8191
804.061	8469
804.204	8206
804.346	8088
804.488	8005
804.63	8161
804.773	8046
804.915	8153
805.057	8320
805.199	8183
805.341	8248
805.483	8290
805.626	8229
805.768	8138
805.91	8199
806.052	8286
806.194	8187
806.336	8309
806.478	8123
806.62	8088
806.762	8252
806.904	8263
807.046	8514
807.188	8503
807.33	8377
807.472	8275
807.614	8221
807.756	8168
807.898	8027
808.04	7887
808.182	7925
808.324	7978
808.465	7993
808.607	8149
808.749	8149
808.891	8221
809.033	8343
809.174	8286
809.316	8119
809.458	8077
809.6	8016
809.741	8092
809.883	8054
810.025	8115
810.166	8058
810.308	8065
810.45	7978
810.591	7917
810.733	7833
810.875	7677
811.016	7590
811.158	7476
811.299	7662
811.441	7715
811.582	7712
811.724	7636
811.865	7578
812.007	7594
812.148	7552
812.29	7616
812.431	7799
812.573	7947
812.714	7959
812.855	8191
812.997	8240
813.138	8336
813.279	8202
813.421	8103
813.562	7951
813.703	7780
813.845	7715
813.986	7445
814.127	7274
814.268	7251
814.41	7285
814.551	7198
814.692	7244
814.833	7080
814.974	7129
815.115	7156
815.256	6951
815.397	6970
815.539	6985
815.68	6802
815.821	6806
815.962	6897
816.103	6871
816.244	6745
816.385	6684
816.526	6635
816.666	6525
816.807	6338
816.948	6506
817.089	6513
817.23	6460
817.371	6376
817.512	6395
817.653	6414
817.793	6319
817.934	6433
818.075	6437
818.216	6509
818.356	6490
818.497	6235
818.638	6098
818.778	6152
818.919	6159
819.06	6216
819.2	6319
819.341	6399
819.481	6426
819.622	6555
819.762	6757
819.903	6738
820.043	6650
820.184	6635
820.324	6616
820.465	6703
820.605	6681
820.746	6604
820.886	6582
821.026	6681
821.167	6734
821.307	6863
821.447	6776
821.588	6703
821.728	6563
821.868	6498
822.008	6323
822.149	6388
822.289	6380
822.429	6209
822.569	6068
822.709	6155
822.849	5961
822.99	5923
823.13	5988
823.27	5961
823.41	5783
823.55	5771
823.69	5817
823.83	5832
823.97	5771
824.11	5608
824.25	5532
824.389	5577
824.529	5596
824.669	5543
824.809	5581
824.949	5634
825.089	5680
825.228	5558
825.368	5421
825.508	5417
825.648	5357
825.787	5364
825.927	5421
826.067	5379
826.206	5326
826.346	5436
826.485	5410
826.625	5417
826.765	5547
826.904	5493
827.044	5292
827.183	5220
827.323	5216
827.462	5288
827.601	5208
827.741	5143
827.88	5227
828.02	5166
828.159	5280
828.298	5326
828.437	5357
828.577	5288
828.716	5463
828.855	5410
828.994	5185
829.134	5140
829.273	5174
829.412	5166
829.551	5174
829.69	5159
829.829	5235
829.968	5376
830.107	5296
830.246	5239
830.385	5246
830.524	5155
830.663	5083
830.802	4991
830.941	4900
831.08	4923
831.219	5025
831.357	5018
831.496	5193
831.635	5006
831.774	4858
831.913	4820
832.051	4729
832.19	4729
832.329	4866
832.467	4740
832.606	4630
832.744	4721
832.883	4748
833.022	4774
833.16	4740
833.299	4831
833.437	4816
833.576	4831
833.714	4790
833.852	4942
833.991	4976
834.129	4987
834.267	4965
834.406	4908
834.544	5041
834.682	4949
834.821	4934
834.959	5201
835.097	5045
835.235	5166
835.373	5147
835.511	5109
835.65	5064
835.788	5010
835.926	4923
836.064	4900
836.202	4892
836.34	5181
836.478	5254
836.615	5162
836.753	5227
836.891	5299
837.029	5193
837.167	5181
837.305	5170
837.443	5170
837.58	5060
837.718	5231
837.856	5216
837.993	5193
838.131	5277
838.269	5185
838.406	5273
838.544	5189
838.681	5060
838.819	5022
838.956	4919
839.094	4927
839.231	4984
839.369	5132
839.506	5410
839.643	5288
839.781	5037
839.918	5022
840.055	5090
840.193	5071
840.33	5128
840.467	5185
840.604	5197
840.742	5425
840.879	5105
841.016	5162
841.153	5181
841.29	5334
841.427	5330
841.564	5345
841.701	5387
841.838	5265
841.975	5265
842.112	5326
842.249	5151
842.385	5090
842.522	5360
842.659	5155
842.796	5140
842.933	5235
843.069	5132
843.206	5128
843.343	5288
843.479	5258
843.616	5265
843.752	5045
843.889	4999
844.025	5193
844.162	5029
844.298	5261
844.435	5045
844.571	5064
844.708	5235
844.844	5303
844.98	5360
845.117	5292
845.253	5181
845.389	5079
845.525	5178
845.661	5132
845.798	5045
845.934	5151
846.07	5041
846.206	5189
846.342	5296
846.478	5231
846.614	5048
846.75	4968
846.886	4942
847.022	5098
847.158	5025
847.294	5094
847.429	5132
847.565	5041
847.701	5368
847.837	4839
847.972	4805
848.108	4961
848.244	4923
848.379	4786
848.515	4721
848.65	4763
848.786	4744
848.921	4824
849.057	4915
849.192	4896
849.328	4820
849.463	4862
849.598	4767
849.734	4740
849.869	4683
850.004	4626
850.14	4698
850.275	4630
850.41	4565
850.545	4565
850.68	4599
850.815	4702
850.95	4634
851.085	4889
851.22	4797
851.355	4691
851.49	4611
851.625	4634
851.76	4626
851.895	4512
852.03	4569
852.165	4672
852.299	4717
852.434	4793
852.569	4752
852.703	4778
852.838	4881
852.973	4938
853.107	4919
853.242	4763
853.376	4710
853.511	4580
853.645	4668
853.78	4805
853.914	4694
854.048	4653
854.183	4717
854.317	4710
854.451	4809
854.585	4744
854.72	4630
854.854	4767
854.988	4569
855.122	4694
855.256	4569
855.39	4679
855.524	4778
855.658	4763
855.792	4725
855.926	4748
856.06	4778
856.194	4828
856.327	4733
856.461	4592
856.595	4672
856.729	4618
856.862	4805
856.996	4702
857.13	4702
857.263	4736
857.397	4805
857.53	4698
857.664	4748
857.797	4828
857.931	4748
858.064	4752
858.197	4759
858.331	4641
858.464	4622
858.597	4577
858.731	4599
858.864	4679
858.997	4584
859.13	4653
859.263	4672
859.396	4714
859.529	4596
859.662	4611
859.795	4538
859.928	4645
860.061	4752
860.194	4744
860.327	4622
860.46	4535
860.592	4710
860.725	4717
860.858	4740
860.99	4569
861.123	4546
861.256	4546
861.388	4592
861.521	5288
861.653	4455
861.786	4466
861.918	4527
862.05	4588
862.183	4558
862.315	4592
862.447	4664
862.58	4558
862.712	4421
862.844	4272
862.976	4478
863.108	4527
863.24	4866
863.372	4325
863.504	4424
863.636	4436
863.768	4466
863.9	4451
864.032	4402
864.164	4459
864.296	4451
864.428	4542
864.559	4577
864.691	4516
864.823	4481
864.954	4478
865.086	4489
865.217	4459
865.349	4436
865.48	4512
865.612	4481
865.743	4592
865.875	4489
866.006	4424
866.137	4466
866.269	4451
866.4	4379
866.531	4405
866.662	4402
866.793	4424
866.924	4432
867.055	4493
867.186	4455
867.317	4447
867.448	4428
867.579	4390
867.71	4402
867.841	4386
867.972	4470
868.103	4436
868.233	4447
868.364	4409
868.495	4466
868.625	4660
868.756	4740
868.886	4569
869.017	4660
869.147	4759
869.278	4752
869.408	4660
869.539	4630
869.669	4748
869.799	4679
869.929	4816
870.06	4740
870.19	4968
870.32	4938
870.45	4866
870.58	4984
870.71	5121
870.84	5098
870.97	4957
871.1	4927
871.23	5124
871.36	5132
871.489	5029
871.619	5086
871.749	5090
871.879	5098
872.008	5174
872.138	5086
872.267	4980
872.397	4847
872.526	4778
872.656	4778
872.785	4752
872.915	4923
873.044	5056
873.173	4923
873.303	4976
873.432	4976
873.561	5006
873.69	4873
873.819	4923
873.948	4934
874.077	4790
874.206	4759
874.335	4778
874.464	4858
874.593	5041
874.722	4930
874.851	5064
874.979	5071
875.108	5033
875.237	4923
875.365	4900
875.494	4850
875.623	4976
875.751	4828
875.88	4854
876.008	4946
876.136	5010
876.265	5231
876.393	5372
876.521	5303
876.65	5261
876.778	5185
876.906	5124
877.034	4995
877.162	5025
877.29	4984
877.418	5045
877.546	5048
877.674	5025
877.802	5052
877.93	5048
878.058	4930
878.185	4828
878.313	4946
878.441	4957
878.568	4793
878.696	4877
878.824	4961
878.951	4995
879.079	5121
879.206	5322
879.333	5136
879.461	4980
879.588	4991
879.715	5083
879.842	5239
879.97	5041
880.097	4752
880.224	4774
880.351	4801
880.478	4843
880.605	4763
880.732	4835
880.859	5083
880.986	4911
881.112	4938
881.239	4744
881.366	4691
881.493	4626
881.619	4546
881.746	4626
881.872	4599
881.999	4679
882.125	4714
882.252	4786
882.378	4892
882.505	4953
882.631	4824
882.757	4634
882.883	4717
883.01	4752
883.136	4649
883.262	4584
883.388	4615
883.514	4797
883.64	4877
883.766	4778
883.892	4675
884.018	4710
884.143	4866
884.269	4999
884.395	4675
884.52	4584
884.646	4618
884.772	4554
884.897	4542
885.023	4645
885.148	4755
885.274	4870
885.399	4831
885.524	4736
885.65	4675
885.775	4759
885.9	4748
886.025	4850
886.15	4797
886.275	4717
886.4	4679
886.525	4702
886.65	4702
886.775	4687
886.9	4923
887.025	4995
887.149	4782
887.274	4615
887.399	4607
887.523	4603
887.648	4607
887.773	4580
887.897	4782
888.021	4797
888.146	4653
888.27	4858
888.395	4961
888.519	4816
888.643	4870
888.767	4771
888.891	4706
889.015	4569
889.139	4649
889.263	4569
889.387	4740
889.511	4877
889.635	4828
889.759	4645
889.883	4634
890.006	4710
890.13	4820
890.254	4584
890.377	4725
890.501	4573
890.624	4538
890.748	4641
890.871	4489
890.995	4436
891.118	4405
891.241	4516
891.364	4538
891.488	4622
891.611	4455
891.734	4584
891.857	4626
891.98	4516
892.103	4634
892.226	4615
892.349	4462
892.471	4440
892.594	4535
892.717	4596
892.839	4558
892.962	4611
893.085	4599
893.207	4660
893.33	4470
893.452	4516
893.575	4675
893.697	4580
893.819	4774
893.941	4843
894.064	4755
894.186	4599
894.308	4561
894.43	4721
894.552	4805
894.674	4736
894.796	4588
894.918	4630
895.04	4634
895.161	4717
895.283	4675
895.405	4523
895.526	4615
895.648	4694
895.769	4645
895.891	4706
896.012	4714
896.134	4706
896.255	4645
896.376	4622
896.498	4641
896.619	4694
896.74	4622
896.861	4626
896.982	4919
897.103	5090
897.224	4843
897.345	4782
897.466	4691
897.587	4675
897.708	4877
897.828	4816
897.949	4649
898.07	4596
898.19	4588
898.311	4782
898.431	4687
898.552	4698
898.672	4809
898.792	4797
898.913	4782
899.033	4580
899.153	4527
899.273	4424
899.393	4493
899.513	4546
899.633	4493
899.753	4558
899.873	4508
899.993	4554
900.113	4497
900.232	4565
900.352	4569
900.472	4500
900.591	4386
900.711	4470
900.83	4462
900.95	4550
901.069	4698
901.189	4531
901.308	4329
901.427	4322
901.546	4325
901.665	4478
901.784	4531
901.904	4383
902.023	4356
902.141	4200
902.26	4204
902.379	4261
902.498	4242
902.617	4249
902.735	4303
902.854	4344
902.973	4318
903.091	4268
903.21	4253
903.328	4303
903.446	4211
903.565	4284
903.683	4337
903.801	4249
903.919	4413
904.038	4462
904.156	4306
904.274	4432
904.392	4428
904.51	4413
904.627	4470
904.745	4546
904.863	4615
904.981	4390
905.098	4295
905.216	4367
905.334	4352
905.451	4421
905.569	4436
905.686	4542
905.803	4519
905.921	4417
906.038	4565
906.155	4459
906.272	4417
906.389	4462
906.506	4337
906.623	4344
906.74	4352
906.857	4303
906.974	4386
907.091	4542
907.208	4691
907.324	4546
907.441	4512
907.557	4284
907.674	4333
907.79	4375
907.907	4405
908.023	4462
908.139	4489
908.256	4455
908.372	4459
908.488	4428
908.604	4322
908.72	4360
908.836	4371
908.952	4375
909.068	4398
909.184	4565
909.3	4500
909.415	4611
909.531	4573
909.647	4341
909.762	4379
909.878	4310
909.993	4417
910.108	4421
910.224	4371
910.339	4497
910.454	4386
910.57	4379
910.685	4325
910.8	4687
910.915	4649
911.03	4497
911.145	4291
911.259	4344
911.374	4348
911.489	4280
911.604	4280
911.718	4154
911.833	4234
911.947	4105
912.062	4021
912.176	4188
912.291	4242
912.405	4238
912.519	4432
912.633	4470
912.748	4371
912.862	4325
912.976	4158
913.09	4124
913.204	4196
913.318	4268
913.431	4360
913.545	4413
913.659	4436
913.772	4352
913.886	4265
914	4200
914.113	4363
914.226	4409
914.34	4379
914.453	4242
914.566	4409
914.68	4303
914.793	4306
914.906	4162
915.019	4128
915.132	4059
915.245	4219
915.358	4253
915.47	4261
915.583	4238
915.696	4314
915.809	4371
915.921	4421
916.034	4230
916.146	4276
916.259	4204
916.371	4329
916.483	4390
916.595	4219
916.708	4299
916.82	4344
916.932	4314
917.044	4333
917.156	4318
917.268	4246
917.38	4238
917.491	4249
917.603	4287
917.715	4394
917.826	4459
917.938	4341
918.049	4257
918.161	4436
918.272	4493
918.384	4516
918.495	4436
918.606	4246
918.717	4223
918.828	4337
918.939	4333
919.05	4242
919.161	4333
919.272	4139
919.383	4253
919.494	4417
919.604	4588
919.715	4440
919.826	4352
919.936	4409
920.047	4481
920.157	4500
920.267	4687
920.378	4504
920.488	4485
920.598	4710
920.708	4805
920.818	4748
920.928	4759
921.038	4930
921.148	4923
921.258	4603
921.368	4565
921.477	4462
921.587	4493
921.697	4375
921.806	4508
921.916	4436
922.025	4246
922.134	4291
922.244	4223
922.353	4363
922.462	4131
922.571	4124
922.68	3960
922.789	3994
922.898	4017
923.007	3964
923.116	4071
923.224	4101
923.333	4055
923.442	4017
923.55	4010
923.659	4029
923.767	4055
923.876	3972
923.984	4082
924.092	3964
924.201	4105
924.309	4116
924.417	4143
924.525	4036
924.633	4128
924.741	5052
924.849	3899
924.956	4124
925.064	3979
925.172	3884
925.279	3979
925.387	4067
925.494	4071
925.602	4211
925.709	4207
925.816	4013
925.924	4128
926.031	4234
926.138	4154
926.245	4139
926.352	4128
926.459	4227
926.566	4261
926.673	4192
926.779	4059
926.886	4112
926.993	3972
927.099	3975
927.206	3930
927.312	3922
927.419	4086
927.525	3975
927.631	4082
927.737	3941
927.843	3918
927.95	3823
928.056	3930
928.162	4002
928.267	4078
928.373	4607
928.479	4093
928.585	3854
928.69	3998
928.796	4071
928.901	3960
929.007	3838
929.112	3994
929.218	3991
929.323	4002
929.428	3941
929.533	4074
929.638	3880
929.743	3934
929.848	4036
929.953	4029
930.058	3926
930.163	3740
930.267	3816
930.372	4010
930.477	3797
930.581	4059
930.685	3949
930.79	3854
930.894	3926
930.998	3861
931.103	4029
931.207	3717
931.311	3682
931.415	3682
931.519	3481
931.623	3523
