Data from test_V78500241_2102.txt Node
Date: Fri Mar 25 17:03:37 CST 2022
User: usil
Spectrometer: V785-0024
Trigger mode: 0
Integration Time (sec): 4.000000E-1
Scans to average: 1
Nonlinearity correction enabled: false
Boxcar width: 0
Storing dark spectrum: false
XAxis mode: Wavelengths
Number of Pixels in Spectrum: 1024
>>>>>Begin Spectral Data<<<<<
801.071	8027
801.214	7982
801.356	7883
801.499	7868
801.641	7776
801.783	7852
801.926	7932
802.068	7906
802.211	7936
802.353	7936
802.496	7837
802.638	7917
802.78	7894
802.923	7898
803.065	7849
803.208	7871
803.35	8043
803.492	8027
803.635	8096
803.777	7974
803.919	8164
804.061	8396
804.204	8107
804.346	8065
804.488	7902
804.63	8115
804.773	8005
804.915	8123
805.057	8313
805.199	8119
805.341	8081
805.483	8271
805.626	8172
805.768	8126
805.91	8229
806.052	8225
806.194	8168
806.336	8267
806.478	8073
806.62	8077
806.762	8126
806.904	8305
807.046	8533
807.188	8358
807.33	8358
807.472	8305
807.614	8244
807.756	8107
807.898	7940
808.04	7902
808.182	7826
808.324	7868
808.465	7871
808.607	8077
808.749	8115
808.891	8191
809.033	8358
809.174	8161
809.316	8058
809.458	8103
809.6	8054
809.741	7986
809.883	8001
810.025	8081
810.166	8073
810.308	8027
810.45	8005
810.591	7803
810.733	7769
810.875	7655
811.016	7499
811.158	7468
811.299	7597
811.441	7643
811.582	7700
811.724	7556
811.865	7472
812.007	7548
812.148	7567
812.29	7666
812.431	7765
812.573	7864
812.714	8027
812.855	8134
812.997	8248
813.138	8290
813.279	8161
813.421	8062
813.562	7967
813.703	7769
813.845	7723
813.986	7422
814.127	7240
814.268	7232
814.41	7198
814.551	7171
814.692	7206
814.833	7084
814.974	7050
815.115	7137
815.256	6954
815.397	6935
815.539	6932
815.68	6802
815.821	6821
815.962	6875
816.103	6833
816.244	6658
816.385	6608
816.526	6563
816.666	6509
816.807	6331
816.948	6429
817.089	6426
817.23	6471
817.371	6357
817.512	6407
817.653	6350
817.793	6327
817.934	6426
818.075	6441
818.216	6410
818.356	6422
818.497	6289
818.638	6129
818.778	6201
818.919	6125
819.06	6163
819.2	6319
819.341	6342
819.481	6357
819.622	6551
819.762	6719
819.903	6700
820.043	6585
820.184	6547
820.324	6582
820.465	6688
820.605	6650
820.746	6635
820.886	6490
821.026	6696
821.167	6646
821.307	6837
821.447	6791
821.588	6673
821.728	6536
821.868	6475
822.008	6315
822.149	6327
822.289	6365
822.429	6144
822.569	6057
822.709	6152
822.849	5969
822.99	5866
823.13	5904
823.27	5904
823.41	5756
823.55	5836
823.69	5752
823.83	5809
823.97	5676
824.11	5535
824.25	5459
824.389	5566
824.529	5558
824.669	5562
824.809	5653
824.949	5615
825.089	5554
825.228	5585
825.368	5429
825.508	5360
825.648	5360
825.787	5372
825.927	5406
826.067	5318
826.206	5261
826.346	5387
826.485	5376
826.625	5440
826.765	5539
826.904	5509
827.044	5216
827.183	5185
827.323	5121
827.462	5193
827.601	5185
827.741	5189
827.88	5220
828.02	5090
828.159	5227
828.298	5296
828.437	5345
828.577	5239
828.716	5478
828.855	5326
828.994	5136
829.134	5143
829.273	5185
829.412	5132
829.551	5067
829.69	5162
829.829	5220
829.968	5345
830.107	5216
830.246	5292
830.385	5151
830.524	5151
830.663	5067
830.802	4999
830.941	4911
831.08	4908
831.219	4953
831.357	4995
831.496	5109
831.635	4904
831.774	4820
831.913	4763
832.051	4740
832.19	4748
832.329	4839
832.467	4721
832.606	4626
832.744	4744
832.883	4694
833.022	4736
833.16	4759
833.299	4801
833.437	4866
833.576	4828
833.714	4854
833.852	4873
833.991	4873
834.129	4949
834.267	4904
834.406	4900
834.544	4980
834.682	4972
834.821	4942
834.959	5117
835.097	4953
835.235	5147
835.373	5037
835.511	5124
835.65	5018
835.788	4991
835.926	4892
836.064	4892
836.202	4904
836.34	5159
836.478	5197
836.615	5124
836.753	5170
836.891	5250
837.029	5235
837.167	5155
837.305	5162
837.443	5151
837.58	5060
837.718	5242
837.856	5170
837.993	5098
838.131	5250
838.269	5201
838.406	5231
838.544	5162
838.681	5029
838.819	4980
838.956	4908
839.094	4877
839.231	4965
839.369	5121
839.506	5398
839.643	5254
839.781	5083
839.918	5014
840.055	5060
840.193	5071
840.33	5086
840.467	5090
840.604	5181
840.742	5467
840.879	5094
841.016	5079
841.153	5128
841.29	5364
841.427	5311
841.564	5303
841.701	5417
841.838	5242
841.975	5250
842.112	5239
842.249	5113
842.385	5086
842.522	5345
842.659	5143
842.796	5181
842.933	5197
843.069	5170
843.206	5147
843.343	5261
843.479	5201
843.616	5311
843.752	5071
843.889	4991
844.025	5216
844.162	5029
844.298	5204
844.435	5056
844.571	5045
844.708	5227
844.844	5250
844.98	5349
845.117	5299
845.253	5170
845.389	5071
845.525	5197
845.661	5159
845.798	5041
845.934	5109
846.07	4980
846.206	5181
846.342	5261
846.478	5155
846.614	5048
846.75	4911
846.886	4900
847.022	5151
847.158	5029
847.294	5010
847.429	5113
847.565	5037
847.701	5303
847.837	4820
847.972	4816
848.108	4984
848.244	4850
848.379	4736
848.515	4702
848.65	4710
848.786	4790
848.921	4793
849.057	4885
849.192	4896
849.328	4843
849.463	4771
849.598	4774
849.734	4816
849.869	4672
850.004	4607
850.14	4694
850.275	4615
850.41	4489
850.545	4596
850.68	4599
850.815	4634
850.95	4649
851.085	4805
851.22	4744
851.355	4683
851.49	4618
851.625	4675
851.76	4653
851.895	4588
852.03	4527
852.165	4645
852.299	4675
852.434	4759
852.569	4767
852.703	4774
852.838	4831
852.973	4961
853.107	4854
853.242	4755
853.376	4660
853.511	4527
853.645	4592
853.78	4828
853.914	4672
854.048	4683
854.183	4675
854.317	4714
854.451	4839
854.585	4679
854.72	4622
854.854	4725
854.988	4512
855.122	4641
855.256	4478
855.39	4691
855.524	4793
855.658	4694
855.792	4702
855.926	4729
856.06	4740
856.194	4767
856.327	4706
856.461	4577
856.595	4607
856.729	4626
856.862	4805
856.996	4687
857.13	4729
857.263	4797
857.397	4824
857.53	4660
857.664	4744
857.797	4748
857.931	4763
858.064	4706
858.197	4797
858.331	4660
858.464	4538
858.597	4516
858.731	4596
858.864	4641
858.997	4573
859.13	4607
859.263	4645
859.396	4710
859.529	4561
859.662	4569
859.795	4485
859.928	4653
860.061	4774
860.194	4782
860.327	4615
860.46	4546
860.592	4702
860.725	4714
860.858	4752
860.99	4519
861.123	4554
861.256	4535
861.388	4596
861.521	5425
861.653	4500
861.786	4390
861.918	4443
862.05	4516
862.183	4542
862.315	4508
862.447	4634
862.58	4561
862.712	4371
862.844	4322
862.976	4474
863.108	4455
863.24	4748
863.372	4341
863.504	4459
863.636	4440
863.768	4478
863.9	4455
864.032	4367
864.164	4405
864.296	4523
864.428	4569
864.559	4561
864.691	4569
864.823	4561
864.954	4497
865.086	4485
865.217	4481
865.349	4436
865.48	4485
865.612	4538
865.743	4668
865.875	4462
866.006	4432
866.137	4443
866.269	4481
866.4	4424
866.531	4394
866.662	4398
866.793	4421
866.924	4432
867.055	4554
867.186	4455
867.317	4360
867.448	4383
867.579	4421
867.71	4383
867.841	4352
867.972	4436
868.103	4432
868.233	4459
868.364	4440
868.495	4462
868.625	4649
868.756	4744
868.886	4565
869.017	4637
869.147	4755
869.278	4793
869.408	4668
869.539	4637
869.669	4748
869.799	4660
869.929	4763
870.06	4748
870.19	4949
870.32	4889
870.45	5003
870.58	4995
870.71	5113
870.84	5105
870.97	4923
871.1	4908
871.23	5162
871.36	5147
871.489	5003
871.619	5041
871.749	5102
871.879	5113
872.008	5143
872.138	5105
872.267	5010
872.397	4896
872.526	4793
872.656	4687
872.785	4816
872.915	4934
873.044	4991
873.173	4923
873.303	4991
873.432	4980
873.561	4911
873.69	4854
873.819	4870
873.948	4938
874.077	4744
874.206	4786
874.335	4809
874.464	4904
874.593	5029
874.722	4946
874.851	5117
874.979	5052
875.108	5003
875.237	4976
875.365	4850
875.494	4877
875.623	4999
875.751	4862
875.88	4873
876.008	4972
876.136	5075
876.265	5239
876.393	5376
876.521	5250
876.65	5216
876.778	5124
876.906	5041
877.034	4984
877.162	5022
877.29	5003
877.418	5048
877.546	5022
877.674	5003
877.802	4987
877.93	4946
878.058	4927
878.185	4870
878.313	4972
878.441	4987
878.568	4801
878.696	4801
878.824	5003
878.951	4987
879.079	5090
879.206	5280
879.333	5075
879.461	4934
879.588	4972
879.715	5155
879.842	5185
879.97	4987
880.097	4809
880.224	4717
880.351	4767
880.478	4831
880.605	4850
880.732	4812
880.859	5086
880.986	4919
881.112	4938
881.239	4793
881.366	4656
881.493	4561
881.619	4611
881.746	4634
881.872	4664
881.999	4660
882.125	4683
882.252	4767
882.378	4881
882.505	5003
882.631	4793
882.757	4675
882.883	4721
883.01	4725
883.136	4641
883.262	4588
883.388	4634
883.514	4774
883.64	4843
883.766	4812
883.892	4675
884.018	4717
884.143	4904
884.269	5018
884.395	4683
884.52	4660
884.646	4679
884.772	4561
884.897	4554
885.023	4641
885.148	4816
885.274	4870
885.399	4797
885.524	4717
885.65	4710
885.775	4702
885.9	4759
886.025	4870
886.15	4740
886.275	4721
886.4	4672
886.525	4740
886.65	4694
886.775	4721
886.9	4915
887.025	4972
887.149	4774
887.274	4691
887.399	4577
887.523	4584
887.648	4577
887.773	4554
887.897	4778
888.021	4801
888.146	4675
888.27	4812
888.395	4904
888.519	4763
888.643	4790
888.767	4831
888.891	4660
889.015	4641
889.139	4607
889.263	4607
889.387	4797
889.511	4877
889.635	4801
889.759	4660
889.883	4694
890.006	4752
890.13	4816
890.254	4561
890.377	4679
890.501	4554
890.624	4500
890.748	4626
890.871	4504
890.995	4432
891.118	4386
891.241	4470
891.364	4538
891.488	4599
891.611	4474
891.734	4516
891.857	4603
891.98	4500
892.103	4656
892.226	4607
892.349	4516
892.471	4451
892.594	4516
892.717	4618
892.839	4569
892.962	4599
893.085	4653
893.207	4554
893.33	4478
893.452	4535
893.575	4656
893.697	4622
893.819	4740
893.941	4850
894.064	4763
894.186	4577
894.308	4599
894.43	4706
894.552	4847
894.674	4736
894.796	4535
894.918	4611
895.04	4535
895.161	4687
895.283	4679
895.405	4489
895.526	4679
895.648	4740
895.769	4634
895.891	4767
896.012	4736
896.134	4679
896.255	4706
896.376	4603
896.498	4615
896.619	4683
896.74	4573
896.861	4634
896.982	4934
897.103	5045
897.224	4805
897.345	4725
897.466	4668
897.587	4744
897.708	4885
897.828	4805
897.949	4672
898.07	4569
898.19	4649
898.311	4858
898.431	4729
898.552	4748
898.672	4790
898.792	4782
898.913	4736
899.033	4622
899.153	4558
899.273	4436
899.393	4481
899.513	4508
899.633	4519
899.753	4527
899.873	4459
899.993	4558
900.113	4538
900.232	4573
900.352	4558
900.472	4466
900.591	4360
900.711	4489
900.83	4462
900.95	4615
901.069	4683
901.189	4546
901.308	4375
901.427	4291
901.546	4375
901.665	4443
901.784	4478
901.904	4344
902.023	4360
902.141	4196
902.26	4185
902.379	4341
902.498	4257
902.617	4188
902.735	4379
902.854	4413
902.973	4318
903.091	4204
903.21	4204
903.328	4314
903.446	4249
903.565	4200
903.683	4367
903.801	4272
903.919	4379
904.038	4432
904.156	4284
904.274	4466
904.392	4394
904.51	4466
904.627	4462
904.745	4588
904.863	4634
904.981	4341
905.098	4333
905.216	4348
905.334	4440
905.451	4417
905.569	4436
905.686	4531
905.803	4561
905.921	4390
906.038	4565
906.155	4508
906.272	4379
906.389	4455
906.506	4299
906.623	4417
906.74	4383
906.857	4314
906.974	4409
907.091	4554
907.208	4687
907.324	4577
907.441	4531
907.557	4322
907.674	4352
907.79	4299
907.907	4405
908.023	4538
908.139	4462
908.256	4417
908.372	4527
908.488	4443
908.604	4360
908.72	4352
908.836	4398
908.952	4329
909.068	4443
909.184	4546
909.3	4500
909.415	4577
909.531	4554
909.647	4360
909.762	4360
909.878	4352
909.993	4436
910.108	4424
910.224	4379
910.339	4470
910.454	4421
910.57	4363
910.685	4356
910.8	4664
910.915	4653
911.03	4550
911.145	4356
911.259	4310
911.374	4348
911.489	4291
911.604	4303
911.718	4185
911.833	4169
911.947	4032
912.062	4032
912.176	4188
912.291	4234
912.405	4265
912.519	4402
912.633	4512
912.748	4386
912.862	4318
912.976	4177
913.09	4109
913.204	4154
913.318	4257
913.431	4348
913.545	4398
913.659	4455
913.772	4329
913.886	4257
914	4223
914.113	4363
914.226	4405
914.34	4375
914.453	4238
914.566	4432
914.68	4310
914.793	4333
914.906	4131
915.019	4105
915.132	4044
915.245	4204
915.358	4211
915.47	4196
915.583	4291
915.696	4287
915.809	4413
915.921	4428
916.034	4253
916.146	4230
916.259	4230
916.371	4440
916.483	4390
916.595	4291
916.708	4287
916.82	4303
916.932	4306
917.044	4287
917.156	4306
917.268	4276
917.38	4257
917.491	4310
917.603	4333
917.715	4402
917.826	4462
917.938	4367
918.049	4261
918.161	4360
918.272	4512
918.384	4500
918.495	4455
918.606	4325
918.717	4246
918.828	4314
918.939	4314
919.05	4249
919.161	4314
919.272	4131
919.383	4234
919.494	4428
919.604	4626
919.715	4383
919.826	4367
919.936	4383
920.047	4592
920.157	4428
920.267	4729
920.378	4546
920.488	4512
920.598	4748
920.708	4911
920.818	4755
920.928	4736
921.038	4953
921.148	4934
921.258	4577
921.368	4538
921.477	4508
921.587	4424
921.697	4402
921.806	4550
921.916	4432
922.025	4268
922.134	4261
922.244	4238
922.353	4325
922.462	4196
922.571	4112
922.68	4021
922.789	3979
922.898	4002
923.007	3998
923.116	4090
923.224	4040
923.333	4101
923.442	3987
923.55	3975
923.659	3983
923.767	4139
923.876	3975
923.984	4143
924.092	3972
924.201	4051
924.309	4074
924.417	4112
924.525	4025
924.633	4074
924.741	5060
924.849	3915
924.956	4093
925.064	3964
925.172	3876
925.279	3937
925.387	4063
925.494	4036
925.602	4219
925.709	4177
925.816	4082
925.924	4147
926.031	4238
926.138	4150
926.245	4200
926.352	4093
926.459	4230
926.566	4265
926.673	4185
926.779	4032
926.886	4067
926.993	3945
927.099	3941
927.206	3941
927.312	3960
927.419	4082
927.525	4029
927.631	4071
927.737	3949
927.843	3956
927.95	3797
928.056	3953
928.162	4010
928.267	4093
928.373	4607
928.479	4135
928.585	3876
928.69	3987
928.796	4036
928.901	3949
929.007	3835
929.112	3983
929.218	3979
929.323	3941
929.428	3903
929.533	4090
929.638	3899
929.743	3979
929.848	4025
929.953	4010
930.058	3918
930.163	3759
930.267	3804
930.372	3930
930.477	3816
930.581	4086
930.685	3983
930.79	3846
930.894	3896
930.998	3838
931.103	4048
931.207	3679
931.311	3717
931.415	3713
931.519	3523
931.623	3564
