Data from test_V78500241_1563.txt Node
Date: Fri Mar 25 16:59:52 CST 2022
User: usil
Spectrometer: V785-0024
Trigger mode: 0
Integration Time (sec): 4.000000E-1
Scans to average: 1
Nonlinearity correction enabled: false
Boxcar width: 0
Storing dark spectrum: false
XAxis mode: Wavelengths
Number of Pixels in Spectrum: 1024
>>>>>Begin Spectral Data<<<<<
801.071	8024
801.214	7970
801.356	7951
801.499	7875
801.641	7753
801.783	7792
801.926	7951
802.068	7906
802.211	7967
802.353	7978
802.496	7841
802.638	7906
802.78	7921
802.923	8008
803.065	7947
803.208	7940
803.35	8024
803.492	8096
803.635	8214
803.777	7997
803.919	8195
804.061	8469
804.204	8134
804.346	8065
804.488	7963
804.63	8111
804.773	8024
804.915	8176
805.057	8347
805.199	8225
805.341	8275
805.483	8290
805.626	8191
805.768	8123
805.91	8206
806.052	8248
806.194	8081
806.336	8294
806.478	8092
806.62	8088
806.762	8111
806.904	8271
807.046	8533
807.188	8385
807.33	8294
807.472	8366
807.614	8259
807.756	8248
807.898	8111
808.04	7894
808.182	7944
808.324	7883
808.465	7890
808.607	8180
808.749	8176
808.891	8267
809.033	8339
809.174	8271
809.316	8096
809.458	8103
809.6	8058
809.741	8050
809.883	8073
810.025	8138
810.166	8134
810.308	8092
810.45	8035
810.591	7913
810.733	7693
810.875	7712
811.016	7537
811.158	7571
811.299	7632
811.441	7723
811.582	7704
811.724	7636
811.865	7544
812.007	7666
812.148	7628
812.29	7666
812.431	7803
812.573	7936
812.714	7982
812.855	8119
812.997	8305
813.138	8343
813.279	8176
813.421	8145
813.562	7997
813.703	7856
813.845	7731
813.986	7434
814.127	7293
814.268	7217
814.41	7285
814.551	7236
814.692	7217
814.833	7099
814.974	7122
815.115	7168
815.256	6973
815.397	6977
815.539	6989
815.68	6821
815.821	6829
815.962	6837
816.103	6871
816.244	6692
816.385	6612
816.526	6700
816.666	6513
816.807	6311
816.948	6452
817.089	6532
817.23	6471
817.371	6418
817.512	6376
817.653	6441
817.793	6407
817.934	6433
818.075	6536
818.216	6429
818.356	6437
818.497	6270
818.638	6175
818.778	6133
818.919	6178
819.06	6159
819.2	6357
819.341	6296
819.481	6414
819.622	6528
819.762	6722
819.903	6703
820.043	6639
820.184	6612
820.324	6593
820.465	6703
820.605	6700
820.746	6696
820.886	6498
821.026	6684
821.167	6707
821.307	6806
821.447	6715
821.588	6673
821.728	6593
821.868	6509
822.008	6372
822.149	6380
822.289	6407
822.429	6209
822.569	6194
822.709	6129
822.849	5942
822.99	5904
823.13	5927
823.27	5885
823.41	5764
823.55	5805
823.69	5805
823.83	5790
823.97	5726
824.11	5551
824.25	5535
824.389	5585
824.529	5570
824.669	5505
824.809	5707
824.949	5703
825.089	5665
825.228	5596
825.368	5391
825.508	5395
825.648	5322
825.787	5376
825.927	5368
826.067	5315
826.206	5315
826.346	5410
826.485	5459
826.625	5501
826.765	5562
826.904	5554
827.044	5292
827.183	5231
827.323	5147
827.462	5288
827.601	5181
827.741	5216
827.88	5223
828.02	5143
828.159	5250
828.298	5330
828.437	5379
828.577	5284
828.716	5520
828.855	5330
828.994	5147
829.134	5155
829.273	5155
829.412	5162
829.551	5121
829.69	5178
829.829	5239
829.968	5337
830.107	5288
830.246	5311
830.385	5181
830.524	5128
830.663	5102
830.802	4999
830.941	4896
831.08	4889
831.219	4961
831.357	4965
831.496	5178
831.635	4908
831.774	4870
831.913	4862
832.051	4786
832.19	4774
832.329	4892
832.467	4736
832.606	4664
832.744	4767
832.883	4748
833.022	4740
833.16	4839
833.299	4843
833.437	4828
833.576	4824
833.714	4862
833.852	4908
833.991	4923
834.129	4991
834.267	4930
834.406	4908
834.544	4938
834.682	5003
834.821	4949
834.959	5170
835.097	5033
835.235	5166
835.373	5045
835.511	5155
835.65	5083
835.788	5029
835.926	4911
836.064	4881
836.202	4968
836.34	5170
836.478	5231
836.615	5155
836.753	5121
836.891	5330
837.029	5288
837.167	5197
837.305	5212
837.443	5170
837.58	5079
837.718	5235
837.856	5185
837.993	5181
838.131	5239
838.269	5208
838.406	5181
838.544	5181
838.681	5041
838.819	4984
838.956	4892
839.094	4942
839.231	5033
839.369	5109
839.506	5402
839.643	5280
839.781	5048
839.918	5037
840.055	5117
840.193	5121
840.33	5117
840.467	5189
840.604	5174
840.742	5452
840.879	5060
841.016	5022
841.153	5197
841.29	5417
841.427	5357
841.564	5311
841.701	5383
841.838	5311
841.975	5239
842.112	5296
842.249	5162
842.385	5155
842.522	5376
842.659	5208
842.796	5216
842.933	5174
843.069	5189
843.206	5220
843.343	5284
843.479	5231
843.616	5277
843.752	5052
843.889	4980
844.025	5250
844.162	5003
844.298	5212
844.435	5105
844.571	5045
844.708	5220
844.844	5318
844.98	5349
845.117	5299
845.253	5181
845.389	5056
845.525	5193
845.661	5170
845.798	5075
845.934	5185
846.07	5041
846.206	5178
846.342	5296
846.478	5193
846.614	5105
846.75	4980
846.886	4961
847.022	5159
847.158	5003
847.294	5071
847.429	5121
847.565	5052
847.701	5360
847.837	4889
847.972	4793
848.108	4984
848.244	4972
848.379	4820
848.515	4763
848.65	4774
848.786	4763
848.921	4809
849.057	4885
849.192	4968
849.328	4793
849.463	4866
849.598	4790
849.734	4801
849.869	4698
850.004	4637
850.14	4717
850.275	4603
850.41	4565
850.545	4554
850.68	4630
850.815	4596
850.95	4653
851.085	4927
851.22	4752
851.355	4698
851.49	4599
851.625	4656
851.76	4615
851.895	4603
852.03	4561
852.165	4660
852.299	4767
852.434	4752
852.569	4759
852.703	4816
852.838	4877
852.973	4934
853.107	4976
853.242	4721
853.376	4729
853.511	4550
853.645	4649
853.78	4820
853.914	4725
854.048	4691
854.183	4675
854.317	4702
854.451	4831
854.585	4687
854.72	4630
854.854	4774
854.988	4580
855.122	4611
855.256	4504
855.39	4664
855.524	4759
855.658	4725
855.792	4691
855.926	4763
856.06	4752
856.194	4843
856.327	4668
856.461	4660
856.595	4592
856.729	4626
856.862	4740
856.996	4694
857.13	4767
857.263	4755
857.397	4824
857.53	4637
857.664	4763
857.797	4786
857.931	4793
858.064	4702
858.197	4782
858.331	4679
858.464	4637
858.597	4554
858.731	4626
858.864	4641
858.997	4596
859.13	4634
859.263	4649
859.396	4710
859.529	4611
859.662	4592
859.795	4535
859.928	4607
860.061	4767
860.194	4797
860.327	4607
860.46	4596
860.592	4675
860.725	4740
860.858	4729
860.99	4592
861.123	4607
861.256	4516
861.388	4622
861.521	5261
861.653	4527
861.786	4493
861.918	4485
862.05	4550
862.183	4596
862.315	4622
862.447	4653
862.58	4554
862.712	4405
862.844	4295
862.976	4474
863.108	4470
863.24	4774
863.372	4356
863.504	4455
863.636	4371
863.768	4481
863.9	4421
864.032	4344
864.164	4383
864.296	4478
864.428	4512
864.559	4573
864.691	4493
864.823	4519
864.954	4523
865.086	4493
865.217	4470
865.349	4440
865.48	4481
865.612	4489
865.743	4645
865.875	4432
866.006	4436
866.137	4493
866.269	4466
866.4	4421
866.531	4478
866.662	4383
866.793	4405
866.924	4443
867.055	4489
867.186	4459
867.317	4428
867.448	4383
867.579	4413
867.71	4405
867.841	4348
867.972	4451
868.103	4466
868.233	4478
868.364	4478
868.495	4504
868.625	4626
868.756	4744
868.886	4554
869.017	4603
869.147	4778
869.278	4774
869.408	4637
869.539	4626
869.669	4733
869.799	4668
869.929	4786
870.06	4763
870.19	4999
870.32	4877
870.45	4923
870.58	4995
870.71	5136
870.84	5086
870.97	4953
871.1	4854
871.23	5121
871.36	5113
871.489	4995
871.619	5048
871.749	5102
871.879	5166
872.008	5170
872.138	5075
872.267	5010
872.397	4831
872.526	4763
872.656	4725
872.785	4771
872.915	4953
873.044	5075
873.173	4938
873.303	4976
873.432	4923
873.561	4987
873.69	4820
873.819	4824
873.948	4892
874.077	4858
874.206	4763
874.335	4816
874.464	4930
874.593	5083
874.722	4991
874.851	5079
874.979	5052
875.108	5029
875.237	4911
875.365	4911
875.494	4915
875.623	4991
875.751	4774
875.88	4862
876.008	4957
876.136	5033
876.265	5181
876.393	5368
876.521	5277
876.65	5227
876.778	5185
876.906	5071
877.034	4972
877.162	5006
877.29	4930
877.418	5045
877.546	5083
877.674	5010
877.802	5041
877.93	5037
878.058	4919
878.185	4911
878.313	4927
878.441	4946
878.568	4816
878.696	4862
878.824	4965
878.951	5056
879.079	5079
879.206	5299
879.333	5132
879.461	4919
879.588	4999
879.715	5086
879.842	5239
879.97	4995
880.097	4782
880.224	4717
880.351	4790
880.478	4797
880.605	4786
880.732	4752
880.859	5067
880.986	4881
881.112	4961
881.239	4763
881.366	4744
881.493	4675
881.619	4599
881.746	4653
881.872	4672
881.999	4649
882.125	4668
882.252	4793
882.378	4839
882.505	4968
882.631	4835
882.757	4675
882.883	4733
883.01	4736
883.136	4683
883.262	4580
883.388	4622
883.514	4866
883.64	4877
883.766	4843
883.892	4702
884.018	4755
884.143	4942
884.269	5037
884.395	4653
884.52	4691
884.646	4641
884.772	4569
884.897	4535
885.023	4656
885.148	4733
885.274	4900
885.399	4793
885.524	4679
885.65	4698
885.775	4736
885.9	4752
886.025	4805
886.15	4797
886.275	4740
886.4	4672
886.525	4748
886.65	4710
886.775	4672
886.9	4896
887.025	4968
887.149	4805
887.274	4691
887.399	4538
887.523	4611
887.648	4550
887.773	4588
887.897	4767
888.021	4767
888.146	4668
888.27	4828
888.395	4885
888.519	4778
888.643	4812
888.767	4843
888.891	4702
889.015	4596
889.139	4615
889.263	4607
889.387	4744
889.511	4839
889.635	4786
889.759	4599
889.883	4668
890.006	4793
890.13	4824
890.254	4634
890.377	4675
890.501	4535
890.624	4565
890.748	4637
890.871	4504
890.995	4409
891.118	4398
891.241	4531
891.364	4504
891.488	4664
891.611	4459
891.734	4519
891.857	4622
891.98	4546
892.103	4645
892.226	4535
892.349	4497
892.471	4383
892.594	4504
892.717	4599
892.839	4546
892.962	4538
893.085	4664
893.207	4641
893.33	4466
893.452	4519
893.575	4653
893.697	4580
893.819	4767
893.941	4797
894.064	4786
894.186	4607
894.308	4565
894.43	4740
894.552	4793
894.674	4725
894.796	4500
894.918	4565
895.04	4558
895.161	4687
895.283	4653
895.405	4592
895.526	4622
895.648	4710
895.769	4664
895.891	4706
896.012	4702
896.134	4740
896.255	4683
896.376	4653
896.498	4596
896.619	4706
896.74	4615
896.861	4656
896.982	4930
897.103	5060
897.224	4850
897.345	4733
897.466	4611
897.587	4733
897.708	4850
897.828	4828
897.949	4649
898.07	4538
898.19	4637
898.311	4873
898.431	4653
898.552	4767
898.672	4797
898.792	4793
898.913	4740
899.033	4660
899.153	4489
899.273	4424
899.393	4489
899.513	4527
899.633	4531
899.753	4577
899.873	4500
899.993	4592
900.113	4538
900.232	4599
900.352	4527
900.472	4489
900.591	4360
900.711	4485
900.83	4466
900.95	4588
901.069	4611
901.189	4538
901.308	4360
901.427	4333
901.546	4341
901.665	4481
901.784	4493
901.904	4371
902.023	4333
902.141	4181
902.26	4173
902.379	4325
902.498	4234
902.617	4246
902.735	4386
902.854	4398
902.973	4341
903.091	4215
903.21	4177
903.328	4310
903.446	4261
903.565	4227
903.683	4363
903.801	4322
903.919	4402
904.038	4428
904.156	4322
904.274	4417
904.392	4398
904.51	4405
904.627	4455
904.745	4554
904.863	4599
904.981	4424
905.098	4329
905.216	4371
905.334	4451
905.451	4455
905.569	4432
905.686	4550
905.803	4577
905.921	4363
906.038	4554
906.155	4466
906.272	4341
906.389	4447
906.506	4329
906.623	4383
906.74	4421
906.857	4318
906.974	4386
907.091	4577
907.208	4630
907.324	4592
907.441	4428
907.557	4329
907.674	4344
907.79	4344
907.907	4405
908.023	4459
908.139	4489
908.256	4402
908.372	4455
908.488	4440
908.604	4356
908.72	4352
908.836	4363
908.952	4398
909.068	4451
909.184	4546
909.3	4489
909.415	4580
909.531	4508
909.647	4398
909.762	4360
909.878	4379
909.993	4459
910.108	4443
910.224	4417
910.339	4443
910.454	4409
910.57	4344
910.685	4314
910.8	4611
910.915	4554
911.03	4508
911.145	4295
911.259	4314
911.374	4352
911.489	4306
911.604	4276
911.718	4112
911.833	4207
911.947	4059
912.062	4010
912.176	4185
912.291	4284
912.405	4272
912.519	4493
912.633	4497
912.748	4383
912.862	4287
912.976	4207
913.09	4139
913.204	4173
913.318	4253
913.431	4447
913.545	4367
913.659	4451
913.772	4318
913.886	4207
914	4169
914.113	4424
914.226	4383
914.34	4371
914.453	4234
914.566	4428
914.68	4303
914.793	4325
914.906	4181
915.019	4101
915.132	4097
915.245	4200
915.358	4246
915.47	4265
915.583	4261
915.696	4299
915.809	4398
915.921	4386
916.034	4280
916.146	4215
916.259	4188
916.371	4356
916.483	4371
916.595	4265
916.708	4356
916.82	4291
916.932	4306
917.044	4314
917.156	4280
917.268	4249
917.38	4287
917.491	4287
917.603	4360
917.715	4424
917.826	4405
917.938	4363
918.049	4223
918.161	4390
918.272	4512
918.384	4527
918.495	4421
918.606	4261
918.717	4230
918.828	4367
918.939	4367
919.05	4280
919.161	4303
919.272	4131
919.383	4223
919.494	4447
919.604	4637
919.715	4440
919.826	4386
919.936	4424
920.047	4531
920.157	4500
920.267	4744
920.378	4527
920.488	4519
920.598	4717
920.708	4854
920.818	4763
920.928	4744
921.038	5025
921.148	4892
921.258	4641
921.368	4577
921.477	4527
921.587	4421
921.697	4375
921.806	4531
921.916	4402
922.025	4272
922.134	4276
922.244	4204
922.353	4341
922.462	4177
922.571	4139
922.68	4010
922.789	3979
922.898	4017
923.007	3972
923.116	4143
923.224	4074
923.333	4082
923.442	4010
923.55	3991
923.659	4002
923.767	4109
923.876	3972
923.984	4086
924.092	4040
924.201	4082
924.309	4067
924.417	4131
924.525	4010
924.633	4097
924.741	5037
924.849	3922
924.956	4143
925.064	3945
925.172	3915
925.279	3930
925.387	4044
925.494	4044
925.602	4196
925.709	4173
925.816	4071
925.924	4150
926.031	4211
926.138	4177
926.245	4207
926.352	4101
926.459	4238
926.566	4310
926.673	4154
926.779	4071
926.886	4082
926.993	3960
927.099	3964
927.206	3953
927.312	3930
927.419	4067
927.525	4059
927.631	4074
927.737	3941
927.843	3907
927.95	3838
928.056	3937
928.162	4006
928.267	4021
928.373	4546
928.479	4128
928.585	3854
928.69	4032
928.796	4059
928.901	3953
929.007	3846
929.112	3956
929.218	3937
929.323	3915
929.428	3979
929.533	4112
929.638	3899
929.743	3956
929.848	4032
929.953	3964
930.058	3907
930.163	3755
930.267	3804
930.372	3972
930.477	3816
930.581	4063
930.685	3956
930.79	3823
930.894	3812
930.998	3835
931.103	4059
931.207	3701
931.311	3694
931.415	3675
931.519	3507
931.623	3519
