Data from test_V78500241_27.txt Node
Date: Fri Mar 25 16:49:11 CST 2022
User: usil
Spectrometer: V785-0024
Trigger mode: 0
Integration Time (sec): 4.000000E-1
Scans to average: 1
Nonlinearity correction enabled: false
Boxcar width: 0
Storing dark spectrum: false
XAxis mode: Wavelengths
Number of Pixels in Spectrum: 1024
>>>>>Begin Spectral Data<<<<<
801.071	8134
801.214	8115
801.356	8031
801.499	7940
801.641	7890
801.783	7951
801.926	8054
802.068	8092
802.211	8096
802.353	8138
802.496	7925
802.638	8058
802.78	7989
802.923	7947
803.065	8024
803.208	7852
803.35	7978
803.492	8161
803.635	8187
803.777	8020
803.919	8225
804.061	8492
804.204	8164
804.346	8183
804.488	7989
804.63	8107
804.773	7982
804.915	8096
805.057	8332
805.199	8229
805.341	8263
805.483	8400
805.626	8320
805.768	8210
805.91	8221
806.052	8233
806.194	8145
806.336	8256
806.478	8084
806.62	8126
806.762	8195
806.904	8343
807.046	8476
807.188	8415
807.33	8377
807.472	8412
807.614	8153
807.756	8103
807.898	8012
808.04	7955
808.182	7986
808.324	7963
808.465	7928
808.607	8050
808.749	8138
808.891	8214
809.033	8229
809.174	8214
809.316	8096
809.458	8107
809.6	8062
809.741	8065
809.883	8039
810.025	8088
810.166	8161
810.308	8096
810.45	8050
810.591	7940
810.733	7776
810.875	7818
811.016	7601
811.158	7521
811.299	7674
811.441	7879
811.582	7803
811.724	7670
811.865	7639
812.007	7715
812.148	7628
812.29	7700
812.431	7803
812.573	7967
812.714	8024
812.855	8161
812.997	8225
813.138	8309
813.279	8229
813.421	8111
813.562	8134
813.703	7947
813.845	7769
813.986	7510
814.127	7274
814.268	7259
814.41	7194
814.551	7251
814.692	7327
814.833	7187
814.974	7156
815.115	7103
815.256	7046
815.397	7015
815.539	6958
815.68	6768
815.821	6886
815.962	6901
816.103	6916
816.244	6776
816.385	6696
816.526	6745
816.666	6566
816.807	6395
816.948	6506
817.089	6540
817.23	6460
817.371	6467
817.512	6433
817.653	6395
817.793	6403
817.934	6467
818.075	6498
818.216	6452
818.356	6441
818.497	6266
818.638	6186
818.778	6205
818.919	6163
819.06	6186
819.2	6403
819.341	6369
819.481	6445
819.622	6593
819.762	6791
819.903	6768
820.043	6665
820.184	6646
820.324	6700
820.465	6734
820.605	6776
820.746	6681
820.886	6547
821.026	6692
821.167	6753
821.307	6844
821.447	6798
821.588	6730
821.728	6669
821.868	6570
822.008	6403
822.149	6414
822.289	6418
822.429	6220
822.569	6171
822.709	6155
822.849	5980
822.99	5977
823.13	6011
823.27	5996
823.41	5851
823.55	5844
823.69	5828
823.83	5855
823.97	5809
824.11	5600
824.25	5528
824.389	5577
824.529	5600
824.669	5528
824.809	5695
824.949	5733
825.089	5688
825.228	5608
825.368	5448
825.508	5402
825.648	5357
825.787	5429
825.927	5417
826.067	5364
826.206	5353
826.346	5421
826.485	5486
826.625	5497
826.765	5570
826.904	5535
827.044	5292
827.183	5284
827.323	5159
827.462	5280
827.601	5212
827.741	5284
827.88	5265
828.02	5155
828.159	5261
828.298	5360
828.437	5467
828.577	5330
828.716	5562
828.855	5387
828.994	5227
829.134	5208
829.273	5197
829.412	5166
829.551	5162
829.69	5212
829.829	5318
829.968	5414
830.107	5349
830.246	5334
830.385	5170
830.524	5174
830.663	5128
830.802	4999
830.941	4923
831.08	4900
831.219	5006
831.357	5045
831.496	5239
831.635	5006
831.774	4900
831.913	4892
832.051	4763
832.19	4828
832.329	4934
832.467	4759
832.606	4675
832.744	4793
832.883	4729
833.022	4790
833.16	4858
833.299	4831
833.437	4858
833.576	4938
833.714	4881
833.852	4953
833.991	4999
834.129	5041
834.267	5025
834.406	4968
834.544	5025
834.682	5025
834.821	5014
834.959	5216
835.097	5083
835.235	5166
835.373	5117
835.511	5155
835.65	5071
835.788	5124
835.926	4965
836.064	4942
836.202	4965
836.34	5246
836.478	5246
836.615	5174
836.753	5254
836.891	5322
837.029	5330
837.167	5269
837.305	5227
837.443	5204
837.58	5128
837.718	5299
837.856	5242
837.993	5201
838.131	5292
838.269	5296
838.406	5231
838.544	5246
838.681	5105
838.819	5060
838.956	4934
839.094	4946
839.231	5018
839.369	5098
839.506	5486
839.643	5353
839.781	5136
839.918	5113
840.055	5121
840.193	5166
840.33	5136
840.467	5201
840.604	5258
840.742	5505
840.879	5121
841.016	5143
841.153	5185
841.29	5421
841.427	5421
841.564	5345
841.701	5433
841.838	5292
841.975	5292
842.112	5334
842.249	5174
842.385	5124
842.522	5387
842.659	5227
842.796	5178
842.933	5299
843.069	5201
843.206	5193
843.343	5334
843.479	5250
843.616	5307
843.752	5056
843.889	5048
844.025	5235
844.162	5064
844.298	5292
844.435	5162
844.571	5102
844.708	5277
844.844	5349
844.98	5372
845.117	5307
845.253	5178
845.389	5143
845.525	5155
845.661	5189
845.798	5128
845.934	5166
846.07	5109
846.206	5307
846.342	5326
846.478	5223
846.614	5041
846.75	5025
846.886	5006
847.022	5193
847.158	5064
847.294	5090
847.429	5105
847.565	5121
847.701	5410
847.837	4892
847.972	4854
848.108	5041
848.244	4984
848.379	4839
848.515	4771
848.65	4752
848.786	4778
848.921	4820
849.057	4930
849.192	4927
849.328	4862
849.463	4881
849.598	4812
849.734	4812
849.869	4763
850.004	4683
850.14	4736
850.275	4656
850.41	4550
850.545	4634
850.68	4607
850.815	4668
850.95	4664
851.085	4850
851.22	4843
851.355	4664
851.49	4660
851.625	4634
851.76	4656
851.895	4622
852.03	4588
852.165	4675
852.299	4812
852.434	4866
852.569	4767
852.703	4820
852.838	4904
852.973	4987
853.107	4900
853.242	4778
853.376	4771
853.511	4618
853.645	4679
853.78	4877
853.914	4733
854.048	4714
854.183	4748
854.317	4679
854.451	4870
854.585	4729
854.72	4694
854.854	4820
854.988	4611
855.122	4683
855.256	4550
855.39	4717
855.524	4858
855.658	4752
855.792	4748
855.926	4790
856.06	4843
856.194	4824
856.327	4717
856.461	4653
856.595	4630
856.729	4637
856.862	4793
856.996	4755
857.13	4786
857.263	4824
857.397	4850
857.53	4675
857.664	4767
857.797	4839
857.931	4801
858.064	4759
858.197	4805
858.331	4668
858.464	4675
858.597	4596
858.731	4725
858.864	4683
858.997	4656
859.13	4714
859.263	4706
859.396	4740
859.529	4626
859.662	4607
859.795	4611
859.928	4660
860.061	4843
860.194	4858
860.327	4641
860.46	4634
860.592	4786
860.725	4740
860.858	4752
860.99	4622
861.123	4588
861.256	4592
861.388	4675
861.521	5455
861.653	4558
861.786	4432
861.918	4497
862.05	4573
862.183	4630
862.315	4630
862.447	4679
862.58	4592
862.712	4409
862.844	4363
862.976	4531
863.108	4489
863.24	4949
863.372	4375
863.504	4459
863.636	4417
863.768	4538
863.9	4470
864.032	4440
864.164	4440
864.296	4538
864.428	4603
864.559	4580
864.691	4618
864.823	4531
864.954	4523
865.086	4584
865.217	4485
865.349	4440
865.48	4497
865.612	4550
865.743	4694
865.875	4497
866.006	4512
866.137	4558
866.269	4493
866.4	4493
866.531	4478
866.662	4443
866.793	4455
866.924	4455
867.055	4519
867.186	4493
867.317	4451
867.448	4409
867.579	4436
867.71	4432
867.841	4413
867.972	4474
868.103	4508
868.233	4554
868.364	4523
868.495	4577
868.625	4679
868.756	4828
868.886	4626
869.017	4675
869.147	4801
869.278	4824
869.408	4694
869.539	4687
869.669	4805
869.799	4679
869.929	4797
870.06	4748
870.19	5010
870.32	4949
870.45	4995
870.58	5079
870.71	5208
870.84	5159
870.97	4995
871.1	4942
871.23	5193
871.36	5197
871.489	5128
871.619	5083
871.749	5113
871.879	5185
872.008	5223
872.138	5079
872.267	5022
872.397	4927
872.526	4839
872.656	4755
872.785	4877
872.915	4968
873.044	5086
873.173	4995
873.303	5003
873.432	5022
873.561	5010
873.69	4911
873.819	4919
873.948	4946
874.077	4850
874.206	4824
874.335	4850
874.464	4987
874.593	5121
874.722	4995
874.851	5143
874.979	5143
875.108	5121
875.237	4987
875.365	4892
875.494	4953
875.623	5014
875.751	4847
875.88	4942
876.008	5098
876.136	5098
876.265	5250
876.393	5372
876.521	5326
876.65	5311
876.778	5220
876.906	5113
877.034	5048
877.162	5113
877.29	5060
877.418	5094
877.546	5098
877.674	5075
877.802	5086
877.93	5037
878.058	4934
878.185	4949
878.313	5010
878.441	4984
878.568	4828
878.696	4908
878.824	5025
878.951	5052
879.079	5197
879.206	5311
879.333	5155
879.461	4995
879.588	5086
879.715	5174
879.842	5273
879.97	5056
880.097	4835
880.224	4744
880.351	4873
880.478	4854
880.605	4870
880.732	4824
880.859	5102
880.986	4923
881.112	4942
881.239	4835
881.366	4694
881.493	4626
881.619	4645
881.746	4645
881.872	4653
881.999	4660
882.125	4733
882.252	4885
882.378	4854
882.505	5006
882.631	4858
882.757	4729
882.883	4801
883.01	4805
883.136	4752
883.262	4607
883.388	4630
883.514	4892
883.64	4896
883.766	4812
883.892	4679
884.018	4778
884.143	4900
884.269	5071
884.395	4698
884.52	4656
884.646	4637
884.772	4603
884.897	4588
885.023	4675
885.148	4847
885.274	4870
885.399	4850
885.524	4767
885.65	4752
885.775	4793
885.9	4755
886.025	4908
886.15	4820
886.275	4744
886.4	4694
886.525	4824
886.65	4755
886.775	4729
886.9	4949
887.025	5079
887.149	4835
887.274	4714
887.399	4618
887.523	4622
887.648	4607
887.773	4630
887.897	4771
888.021	4763
888.146	4702
888.27	4835
888.395	4972
888.519	4858
888.643	4828
888.767	4892
888.891	4691
889.015	4641
889.139	4672
889.263	4634
889.387	4778
889.511	4904
889.635	4870
889.759	4675
889.883	4698
890.006	4740
890.13	4831
890.254	4672
890.377	4706
890.501	4580
890.624	4516
890.748	4694
890.871	4554
890.995	4447
891.118	4402
891.241	4519
891.364	4634
891.488	4687
891.611	4542
891.734	4558
891.857	4683
891.98	4577
892.103	4691
892.226	4584
892.349	4535
892.471	4451
892.594	4538
892.717	4615
892.839	4596
892.962	4592
893.085	4672
893.207	4656
893.33	4516
893.452	4546
893.575	4721
893.697	4622
893.819	4877
893.941	4831
894.064	4805
894.186	4584
894.308	4637
894.43	4752
894.552	4820
894.674	4774
894.796	4542
894.918	4573
895.04	4622
895.161	4710
895.283	4733
895.405	4641
895.526	4683
895.648	4714
895.769	4763
895.891	4786
896.012	4812
896.134	4816
896.255	4687
896.376	4649
896.498	4702
896.619	4664
896.74	4645
896.861	4736
896.982	4972
897.103	5147
897.224	4839
897.345	4774
897.466	4687
897.587	4748
897.708	4930
897.828	4809
897.949	4748
898.07	4577
898.19	4736
898.311	4892
898.431	4801
898.552	4778
898.672	4835
898.792	4828
898.913	4820
899.033	4649
899.153	4542
899.273	4493
899.393	4561
899.513	4550
899.633	4588
899.753	4580
899.873	4558
899.993	4584
900.113	4599
900.232	4615
900.352	4599
900.472	4527
900.591	4451
900.711	4577
900.83	4481
900.95	4683
901.069	4729
901.189	4542
901.308	4421
901.427	4394
901.546	4371
901.665	4542
901.784	4527
901.904	4470
902.023	4417
902.141	4261
902.26	4185
902.379	4356
902.498	4291
902.617	4246
902.735	4409
902.854	4432
902.973	4394
903.091	4265
903.21	4287
903.328	4379
903.446	4265
903.565	4295
903.683	4379
903.801	4329
903.919	4432
904.038	4481
904.156	4363
904.274	4481
904.392	4417
904.51	4497
904.627	4542
904.745	4599
904.863	4694
904.981	4428
905.098	4428
905.216	4390
905.334	4481
905.451	4459
905.569	4493
905.686	4634
905.803	4618
905.921	4451
906.038	4626
906.155	4558
906.272	4405
906.389	4516
906.506	4333
906.623	4424
906.74	4413
906.857	4348
906.974	4417
907.091	4641
907.208	4744
907.324	4679
907.441	4607
907.557	4417
907.674	4356
907.79	4375
907.907	4485
908.023	4527
908.139	4504
908.256	4493
908.372	4523
908.488	4516
908.604	4379
908.72	4367
908.836	4459
908.952	4405
909.068	4478
909.184	4634
909.3	4554
909.415	4599
909.531	4607
909.647	4424
909.762	4413
909.878	4398
909.993	4466
910.108	4481
910.224	4440
910.339	4516
910.454	4455
910.57	4375
910.685	4360
910.8	4683
910.915	4615
911.03	4546
911.145	4371
911.259	4367
911.374	4417
911.489	4329
911.604	4295
911.718	4215
911.833	4242
911.947	4135
912.062	4093
912.176	4276
912.291	4284
912.405	4303
912.519	4554
912.633	4523
912.748	4436
912.862	4333
912.976	4223
913.09	4128
913.204	4223
913.318	4284
913.431	4451
913.545	4409
913.659	4466
913.772	4405
913.886	4329
914	4306
914.113	4402
914.226	4470
914.34	4409
914.453	4322
914.566	4500
914.68	4348
914.793	4352
914.906	4211
915.019	4169
915.132	4128
915.245	4207
915.358	4249
915.47	4265
915.583	4318
915.696	4314
915.809	4451
915.921	4462
916.034	4329
916.146	4337
916.259	4265
916.371	4432
916.483	4363
916.595	4249
916.708	4363
916.82	4379
916.932	4363
917.044	4375
917.156	4367
917.268	4272
917.38	4322
917.491	4322
917.603	4352
917.715	4447
917.826	4455
917.938	4390
918.049	4303
918.161	4478
918.272	4546
918.384	4603
918.495	4500
918.606	4356
918.717	4272
918.828	4352
918.939	4447
919.05	4303
919.161	4360
919.272	4135
919.383	4284
919.494	4523
919.604	4645
919.715	4497
919.826	4375
919.936	4489
920.047	4577
920.157	4523
920.267	4740
920.378	4550
920.488	4535
920.598	4778
920.708	4938
920.818	4767
920.928	4828
921.038	5025
921.148	4961
921.258	4592
921.368	4569
921.477	4512
921.587	4508
921.697	4428
921.806	4637
921.916	4470
922.025	4333
922.134	4322
922.244	4303
922.353	4360
922.462	4227
922.571	4166
922.68	4090
922.789	4044
922.898	4097
923.007	4036
923.116	4181
923.224	4093
923.333	4173
923.442	4048
923.55	4044
923.659	4074
923.767	4139
923.876	4051
923.984	4181
924.092	4078
924.201	4093
924.309	4162
924.417	4192
924.525	4105
924.633	4120
924.741	5083
924.849	3968
924.956	4166
925.064	4029
925.172	3926
925.279	4006
925.387	4097
925.494	4120
925.602	4242
925.709	4230
925.816	4086
925.924	4166
926.031	4287
926.138	4238
926.245	4280
926.352	4128
926.459	4306
926.566	4341
926.673	4188
926.779	4147
926.886	4143
926.993	4017
927.099	4002
927.206	3937
927.312	3991
927.419	4093
927.525	4071
927.631	4177
927.737	3926
927.843	4006
927.95	3861
928.056	4029
928.162	4048
928.267	4124
928.373	4729
928.479	4143
928.585	3922
928.69	4071
928.796	4173
928.901	4010
929.007	3869
929.112	4074
929.218	4044
929.323	3983
929.428	3983
929.533	4124
929.638	3945
929.743	4017
929.848	4067
929.953	4044
930.058	3979
930.163	3865
930.267	3861
930.372	4025
930.477	3846
930.581	4131
930.685	4017
930.79	3865
930.894	3918
930.998	3876
931.103	4067
931.207	3762
931.311	3728
931.415	3679
931.519	3576
931.623	3564
