Data from test_V78500241_1915.txt Node
Date: Fri Mar 25 17:02:18 CST 2022
User: usil
Spectrometer: V785-0024
Trigger mode: 0
Integration Time (sec): 4.000000E-1
Scans to average: 1
Nonlinearity correction enabled: false
Boxcar width: 0
Storing dark spectrum: false
XAxis mode: Wavelengths
Number of Pixels in Spectrum: 1024
>>>>>Begin Spectral Data<<<<<
801.071	7978
801.214	7947
801.356	7788
801.499	7871
801.641	7780
801.783	7883
801.926	7925
802.068	7894
802.211	8001
802.353	8012
802.496	7875
802.638	7811
802.78	7871
802.923	7894
803.065	7837
803.208	7822
803.35	8016
803.492	8065
803.635	8077
803.777	8046
803.919	8119
804.061	8442
804.204	8142
804.346	8020
804.488	7993
804.63	8065
804.773	8005
804.915	8172
805.057	8309
805.199	8172
805.341	8168
805.483	8275
805.626	8153
805.768	8103
805.91	8275
806.052	8218
806.194	8145
806.336	8267
806.478	8046
806.62	8092
806.762	8142
806.904	8263
807.046	8415
807.188	8366
807.33	8298
807.472	8339
807.614	8187
807.756	8142
807.898	7974
808.04	7852
808.182	7913
808.324	7898
808.465	7890
808.607	8126
808.749	8103
808.891	8153
809.033	8301
809.174	8183
809.316	8096
809.458	8039
809.6	8062
809.741	8058
809.883	8001
810.025	8153
810.166	8020
810.308	8005
810.45	7993
810.591	7833
810.733	7750
810.875	7746
811.016	7578
811.158	7445
811.299	7563
811.441	7670
811.582	7681
811.724	7514
811.865	7605
812.007	7655
812.148	7590
812.29	7628
812.431	7753
812.573	7852
812.714	8043
812.855	8164
812.997	8183
813.138	8317
813.279	8199
813.421	8134
813.562	7909
813.703	7826
813.845	7746
813.986	7400
814.127	7179
814.268	7206
814.41	7198
814.551	7190
814.692	7251
814.833	7080
814.974	7171
815.115	7114
815.256	6985
815.397	6958
815.539	6958
815.68	6791
815.821	6764
815.962	6856
816.103	6806
816.244	6711
816.385	6601
816.526	6551
816.666	6479
816.807	6353
816.948	6475
817.089	6452
817.23	6441
817.371	6346
817.512	6395
817.653	6422
817.793	6350
817.934	6376
818.075	6471
818.216	6418
818.356	6353
818.497	6239
818.638	6155
818.778	6178
818.919	6133
819.06	6171
819.2	6296
819.341	6319
819.481	6353
819.622	6502
819.762	6703
819.903	6722
820.043	6578
820.184	6608
820.324	6540
820.465	6688
820.605	6707
820.746	6627
820.886	6536
821.026	6646
821.167	6658
821.307	6772
821.447	6734
821.588	6646
821.728	6601
821.868	6475
822.008	6410
822.149	6384
822.289	6296
822.429	6152
822.569	6060
822.709	6079
822.849	5901
822.99	5916
823.13	5885
823.27	5965
823.41	5805
823.55	5798
823.69	5824
823.83	5726
823.97	5676
824.11	5551
824.25	5520
824.389	5516
824.529	5611
824.669	5524
824.809	5619
824.949	5646
825.089	5600
825.228	5535
825.368	5364
825.508	5395
825.648	5360
825.787	5379
825.927	5357
826.067	5311
826.206	5299
826.346	5349
826.485	5395
826.625	5406
826.765	5490
826.904	5425
827.044	5292
827.183	5193
827.323	5178
827.462	5185
827.601	5155
827.741	5197
827.88	5254
828.02	5086
828.159	5193
828.298	5273
828.437	5334
828.577	5288
828.716	5532
828.855	5303
828.994	5147
829.134	5124
829.273	5250
829.412	5113
829.551	5083
829.69	5201
829.829	5258
829.968	5360
830.107	5277
830.246	5318
830.385	5178
830.524	5136
830.663	5079
830.802	4904
830.941	4866
831.08	4850
831.219	4949
831.357	5010
831.496	5132
831.635	4900
831.774	4824
831.913	4847
832.051	4721
832.19	4774
832.329	4911
832.467	4656
832.606	4679
832.744	4660
832.883	4733
833.022	4702
833.16	4763
833.299	4824
833.437	4839
833.576	4793
833.714	4862
833.852	4873
833.991	4877
834.129	4911
834.267	4930
834.406	4896
834.544	4965
834.682	4976
834.821	4946
834.959	5162
835.097	5010
835.235	5098
835.373	5060
835.511	5098
835.65	4984
835.788	5003
835.926	4885
836.064	4870
836.202	4877
836.34	5132
836.478	5201
836.615	5113
836.753	5231
836.891	5235
837.029	5201
837.167	5178
837.305	5132
837.443	5178
837.58	5052
837.718	5280
837.856	5178
837.993	5109
838.131	5208
838.269	5204
838.406	5197
838.544	5170
838.681	5045
838.819	4995
838.956	4881
839.094	4908
839.231	4976
839.369	5128
839.506	5436
839.643	5250
839.781	5064
839.918	5006
840.055	5094
840.193	5098
840.33	5098
840.467	5193
840.604	5147
840.742	5425
840.879	5064
841.016	5060
841.153	5094
841.29	5326
841.427	5303
841.564	5288
841.701	5353
841.838	5269
841.975	5242
842.112	5250
842.249	5105
842.385	5128
842.522	5326
842.659	5166
842.796	5174
842.933	5170
843.069	5098
843.206	5143
843.343	5311
843.479	5258
843.616	5220
843.752	5014
843.889	5003
844.025	5258
844.162	5003
844.298	5197
844.435	5102
844.571	5018
844.708	5204
844.844	5288
844.98	5395
845.117	5254
845.253	5102
845.389	5094
845.525	5178
845.661	5121
845.798	5056
845.934	5140
846.07	5025
846.206	5185
846.342	5227
846.478	5170
846.614	5029
846.75	4987
846.886	4919
847.022	5121
847.158	5003
847.294	5064
847.429	5052
847.565	5022
847.701	5322
847.837	4870
847.972	4790
848.108	4953
848.244	4946
848.379	4774
848.515	4725
848.65	4672
848.786	4755
848.921	4717
849.057	4801
849.192	4892
849.328	4809
849.463	4839
849.598	4755
849.734	4801
849.869	4679
850.004	4538
850.14	4664
850.275	4618
850.41	4565
850.545	4542
850.68	4580
850.815	4558
850.95	4607
851.085	4801
851.22	4710
851.355	4611
851.49	4645
851.625	4626
851.76	4630
851.895	4588
852.03	4558
852.165	4653
852.299	4706
852.434	4763
852.569	4763
852.703	4763
852.838	4847
852.973	4919
853.107	4873
853.242	4744
853.376	4687
853.511	4519
853.645	4584
853.78	4801
853.914	4664
854.048	4679
854.183	4618
854.317	4664
854.451	4839
854.585	4637
854.72	4603
854.854	4759
854.988	4592
855.122	4592
855.256	4504
855.39	4664
855.524	4793
855.658	4687
855.792	4706
855.926	4706
856.06	4759
856.194	4828
856.327	4679
856.461	4580
856.595	4592
856.729	4645
856.862	4767
856.996	4637
857.13	4721
857.263	4736
857.397	4831
857.53	4637
857.664	4698
857.797	4740
857.931	4797
858.064	4660
858.197	4721
858.331	4649
858.464	4664
858.597	4573
858.731	4588
858.864	4634
858.997	4599
859.13	4656
859.263	4664
859.396	4744
859.529	4577
859.662	4558
859.795	4573
859.928	4611
860.061	4763
860.194	4714
860.327	4603
860.46	4558
860.592	4710
860.725	4664
860.858	4725
860.99	4584
861.123	4523
861.256	4569
861.388	4592
861.521	5254
861.653	4523
861.786	4432
861.918	4462
862.05	4489
862.183	4573
862.315	4561
862.447	4607
862.58	4573
862.712	4390
862.844	4333
862.976	4500
863.108	4447
863.24	4755
863.372	4329
863.504	4390
863.636	4379
863.768	4550
863.9	4436
864.032	4394
864.164	4421
864.296	4470
864.428	4558
864.559	4485
864.691	4489
864.823	4512
864.954	4531
865.086	4508
865.217	4459
865.349	4371
865.48	4459
865.612	4470
865.743	4626
865.875	4459
866.006	4421
866.137	4443
866.269	4451
866.4	4409
866.531	4440
866.662	4352
866.793	4367
866.924	4440
867.055	4508
867.186	4440
867.317	4379
867.448	4428
867.579	4379
867.71	4417
867.841	4383
867.972	4485
868.103	4447
868.233	4447
868.364	4432
868.495	4497
868.625	4660
868.756	4710
868.886	4546
869.017	4634
869.147	4778
869.278	4805
869.408	4679
869.539	4584
869.669	4706
869.799	4656
869.929	4755
870.06	4752
870.19	4889
870.32	4892
870.45	4885
870.58	5003
870.71	5033
870.84	5086
870.97	4946
871.1	4850
871.23	5113
871.36	5105
871.489	5025
871.619	5090
871.749	5136
871.879	5098
872.008	5212
872.138	4999
872.267	5033
872.397	4805
872.526	4752
872.656	4740
872.785	4820
872.915	4965
873.044	4968
873.173	4911
873.303	4930
873.432	4972
873.561	4999
873.69	4862
873.819	4877
873.948	4919
874.077	4839
874.206	4725
874.335	4839
874.464	4972
874.593	5029
874.722	4870
874.851	5056
874.979	5060
875.108	5029
875.237	4877
875.365	4847
875.494	4892
875.623	4995
875.751	4797
875.88	4870
876.008	4976
876.136	5033
876.265	5166
876.393	5345
876.521	5227
876.65	5212
876.778	5109
876.906	5037
877.034	5041
877.162	5079
877.29	4923
877.418	5083
877.546	5083
877.674	5048
877.802	4961
877.93	5033
878.058	4949
878.185	4873
878.313	4934
878.441	4930
878.568	4755
878.696	4816
878.824	4984
878.951	5029
879.079	5075
879.206	5292
879.333	5090
879.461	5014
879.588	5006
879.715	5094
879.842	5178
879.97	4980
880.097	4782
880.224	4729
880.351	4812
880.478	4866
880.605	4774
880.732	4763
880.859	5071
880.986	4824
881.112	4854
881.239	4774
881.366	4672
881.493	4577
881.619	4596
881.746	4656
881.872	4683
881.999	4637
882.125	4660
882.252	4710
882.378	4824
882.505	4949
882.631	4752
882.757	4645
882.883	4679
883.01	4694
883.136	4626
883.262	4611
883.388	4607
883.514	4809
883.64	4816
883.766	4717
883.892	4626
884.018	4733
884.143	4828
884.269	4976
884.395	4702
884.52	4649
884.646	4630
884.772	4569
884.897	4565
885.023	4698
885.148	4771
885.274	4919
885.399	4809
885.524	4736
885.65	4721
885.775	4729
885.9	4736
886.025	4805
886.15	4782
886.275	4755
886.4	4672
886.525	4736
886.65	4714
886.775	4683
886.9	4873
887.025	5067
887.149	4778
887.274	4706
887.399	4588
887.523	4592
887.648	4565
887.773	4573
887.897	4721
888.021	4721
888.146	4679
888.27	4774
888.395	4938
888.519	4782
888.643	4767
888.767	4843
888.891	4653
889.015	4618
889.139	4611
889.263	4607
889.387	4721
889.511	4858
889.635	4820
889.759	4672
889.883	4622
890.006	4687
890.13	4816
890.254	4592
890.377	4641
890.501	4607
890.624	4497
890.748	4672
890.871	4497
890.995	4440
891.118	4383
891.241	4573
891.364	4531
891.488	4592
891.611	4474
891.734	4508
891.857	4577
891.98	4516
892.103	4634
892.226	4584
892.349	4478
892.471	4409
892.594	4580
892.717	4599
892.839	4573
892.962	4618
893.085	4675
893.207	4611
893.33	4428
893.452	4588
893.575	4660
893.697	4588
893.819	4740
893.941	4774
894.064	4755
894.186	4558
894.308	4550
894.43	4714
894.552	4835
894.674	4710
894.796	4535
894.918	4599
895.04	4558
895.161	4687
895.283	4694
895.405	4573
895.526	4626
895.648	4649
895.769	4698
895.891	4744
896.012	4694
896.134	4691
896.255	4691
896.376	4615
896.498	4565
896.619	4694
896.74	4603
896.861	4691
896.982	4927
897.103	5086
897.224	4816
897.345	4755
897.466	4679
897.587	4694
897.708	4885
897.828	4744
897.949	4626
898.07	4580
898.19	4611
898.311	4820
898.431	4664
898.552	4736
898.672	4790
898.792	4828
898.913	4717
899.033	4603
899.153	4542
899.273	4421
899.393	4459
899.513	4527
899.633	4508
899.753	4516
899.873	4542
899.993	4573
900.113	4565
900.232	4584
900.352	4531
900.472	4474
900.591	4455
900.711	4474
900.83	4436
900.95	4592
901.069	4694
901.189	4554
901.308	4348
901.427	4287
901.546	4360
901.665	4500
901.784	4447
901.904	4379
902.023	4272
902.141	4192
902.26	4188
902.379	4299
902.498	4280
902.617	4204
902.735	4356
902.854	4413
902.973	4337
903.091	4207
903.21	4238
903.328	4295
903.446	4291
903.565	4306
903.683	4337
903.801	4257
903.919	4390
904.038	4459
904.156	4318
904.274	4451
904.392	4367
904.51	4398
904.627	4474
904.745	4584
904.863	4626
904.981	4371
905.098	4303
905.216	4379
905.334	4447
905.451	4451
905.569	4443
905.686	4531
905.803	4580
905.921	4398
906.038	4538
906.155	4497
906.272	4436
906.389	4428
906.506	4367
906.623	4337
906.74	4348
906.857	4272
906.974	4360
907.091	4584
907.208	4691
907.324	4561
907.441	4485
907.557	4333
907.674	4386
907.79	4356
907.907	4398
908.023	4432
908.139	4500
908.256	4405
908.372	4436
908.488	4489
908.604	4348
908.72	4325
908.836	4363
908.952	4352
909.068	4421
909.184	4561
909.3	4481
909.415	4588
909.531	4588
909.647	4348
909.762	4356
909.878	4322
909.993	4455
910.108	4371
910.224	4402
910.339	4466
910.454	4428
910.57	4383
910.685	4306
910.8	4710
910.915	4596
911.03	4451
911.145	4249
911.259	4344
911.374	4371
911.489	4295
911.604	4238
911.718	4120
911.833	4166
911.947	4105
912.062	3991
912.176	4207
912.291	4211
912.405	4249
912.519	4432
912.633	4500
912.748	4363
912.862	4291
912.976	4192
913.09	4086
913.204	4173
913.318	4253
913.431	4367
913.545	4356
913.659	4432
913.772	4318
913.886	4272
914	4215
914.113	4394
914.226	4466
914.34	4398
914.453	4246
914.566	4402
914.68	4310
914.793	4314
914.906	4135
915.019	4139
915.132	4051
915.245	4192
915.358	4139
915.47	4215
915.583	4291
915.696	4257
915.809	4379
915.921	4424
916.034	4253
916.146	4261
916.259	4333
916.371	4375
916.483	4371
916.595	4246
916.708	4295
916.82	4356
916.932	4295
917.044	4329
917.156	4348
917.268	4253
917.38	4238
917.491	4295
917.603	4287
917.715	4459
917.826	4447
917.938	4322
918.049	4242
918.161	4421
918.272	4577
918.384	4523
918.495	4424
918.606	4272
918.717	4257
918.828	4344
918.939	4344
919.05	4253
919.161	4383
919.272	4147
919.383	4196
919.494	4421
919.604	4607
919.715	4424
919.826	4394
919.936	4413
920.047	4474
920.157	4455
920.267	4656
920.378	4550
920.488	4481
920.598	4694
920.708	4858
920.818	4801
920.928	4721
921.038	4976
921.148	4889
921.258	4607
921.368	4519
921.477	4493
921.587	4455
921.697	4379
921.806	4527
921.916	4402
922.025	4261
922.134	4272
922.244	4284
922.353	4322
922.462	4166
922.571	4139
922.68	3987
922.789	3968
922.898	3983
923.007	3991
923.116	4120
923.224	4093
923.333	4059
923.442	4017
923.55	3960
923.659	4006
923.767	4139
923.876	4010
923.984	4120
924.092	4002
924.201	4105
924.309	4090
924.417	4090
924.525	4036
924.633	4067
924.741	5056
924.849	3926
924.956	4124
925.064	3983
925.172	3892
925.279	3945
925.387	4010
925.494	4078
925.602	4246
925.709	4230
925.816	4036
925.924	4116
926.031	4227
926.138	4135
926.245	4188
926.352	4093
926.459	4227
926.566	4265
926.673	4177
926.779	4093
926.886	4055
926.993	3968
927.099	3956
927.206	3899
927.312	3956
927.419	4051
927.525	4032
927.631	4090
927.737	3956
927.843	3937
927.95	3797
928.056	3945
928.162	3979
928.267	4010
928.373	4588
928.479	4101
928.585	3880
928.69	4044
928.796	4032
928.901	3915
929.007	3854
929.112	4006
929.218	3926
929.323	3915
929.428	3937
929.533	4105
929.638	3953
929.743	3937
929.848	4013
929.953	4017
930.058	3956
930.163	3743
930.267	3812
930.372	3934
930.477	3854
930.581	4101
930.685	3926
930.79	3827
930.894	3899
930.998	3835
931.103	4051
931.207	3751
931.311	3690
931.415	3671
931.519	3545
931.623	3557
