Data from test_V78500241_828.txt Node
Date: Fri Mar 25 16:54:45 CST 2022
User: usil
Spectrometer: V785-0024
Trigger mode: 0
Integration Time (sec): 4.000000E-1
Scans to average: 1
Nonlinearity correction enabled: false
Boxcar width: 0
Storing dark spectrum: false
XAxis mode: Wavelengths
Number of Pixels in Spectrum: 1024
>>>>>Begin Spectral Data<<<<<
801.071	7909
801.214	8043
801.356	7856
801.499	7868
801.641	7734
801.783	7807
801.926	7932
802.068	7959
802.211	7936
802.353	7978
802.496	7807
802.638	7845
802.78	7928
802.923	7879
803.065	7871
803.208	7887
803.35	8046
803.492	8123
803.635	8130
803.777	8005
803.919	8088
804.061	8415
804.204	8103
804.346	8005
804.488	7970
804.63	8145
804.773	7970
804.915	8092
805.057	8218
805.199	8142
805.341	8191
805.483	8275
805.626	8138
805.768	8069
805.91	8168
806.052	8195
806.194	8126
806.336	8282
806.478	8077
806.62	8050
806.762	8081
806.904	8252
807.046	8473
807.188	8377
807.33	8362
807.472	8317
807.614	8130
807.756	8096
807.898	7989
808.04	7830
808.182	7875
808.324	7913
808.465	7875
808.607	8005
808.749	7982
808.891	8191
809.033	8252
809.174	8138
809.316	8088
809.458	8001
809.6	8008
809.741	8001
809.883	7986
810.025	8065
810.166	7982
810.308	7997
810.45	8035
810.591	7883
810.733	7738
810.875	7643
811.016	7499
811.158	7499
811.299	7586
811.441	7666
811.582	7651
811.724	7578
811.865	7506
812.007	7586
812.148	7563
812.29	7563
812.431	7658
812.573	7837
812.714	7921
812.855	8123
812.997	8191
813.138	8301
813.279	8161
813.421	8062
813.562	7974
813.703	7890
813.845	7742
813.986	7434
814.127	7270
814.268	7244
814.41	7126
814.551	7114
814.692	7118
814.833	7027
814.974	7053
815.115	7103
815.256	6920
815.397	6909
815.539	6894
815.68	6802
815.821	6810
815.962	6844
816.103	6810
816.244	6726
816.385	6639
816.526	6559
816.666	6483
816.807	6292
816.948	6426
817.089	6464
817.23	6445
817.371	6365
817.512	6365
817.653	6441
817.793	6365
817.934	6376
818.075	6433
818.216	6304
818.356	6388
818.497	6152
818.638	6064
818.778	6098
818.919	6163
819.06	6117
819.2	6251
819.341	6289
819.481	6365
819.622	6460
819.762	6684
819.903	6677
820.043	6604
820.184	6589
820.324	6593
820.465	6658
820.605	6650
820.746	6631
820.886	6460
821.026	6673
821.167	6734
821.307	6745
821.447	6734
821.588	6700
821.728	6563
821.868	6448
822.008	6346
822.149	6346
822.289	6365
822.429	6148
822.569	6121
822.709	6079
822.849	5901
822.99	5901
823.13	5878
823.27	5889
823.41	5718
823.55	5741
823.69	5745
823.83	5775
823.97	5699
824.11	5478
824.25	5493
824.389	5505
824.529	5573
824.669	5566
824.809	5585
824.949	5703
825.089	5581
825.228	5554
825.368	5368
825.508	5372
825.648	5341
825.787	5372
825.927	5368
826.067	5269
826.206	5265
826.346	5395
826.485	5391
826.625	5391
826.765	5558
826.904	5482
827.044	5208
827.183	5204
827.323	5079
827.462	5212
827.601	5132
827.741	5193
827.88	5193
828.02	5143
828.159	5284
828.298	5296
828.437	5296
828.577	5296
828.716	5406
828.855	5269
828.994	5181
829.134	5147
829.273	5193
829.412	5124
829.551	5109
829.69	5155
829.829	5250
829.968	5376
830.107	5197
830.246	5299
830.385	5178
830.524	5128
830.663	5064
830.802	4942
830.941	4854
831.08	4889
831.219	4980
831.357	4972
831.496	5151
831.635	4900
831.774	4805
831.913	4889
832.051	4752
832.19	4744
832.329	4790
832.467	4702
832.606	4626
832.744	4683
832.883	4683
833.022	4710
833.16	4782
833.299	4858
833.437	4831
833.576	4847
833.714	4831
833.852	4843
833.991	4904
834.129	4965
834.267	4927
834.406	4923
834.544	4972
834.682	4980
834.821	4904
834.959	5151
835.097	4923
835.235	5124
835.373	5098
835.511	5052
835.65	5006
835.788	5056
835.926	4911
836.064	4870
836.202	4896
836.34	5159
836.478	5212
836.615	5098
836.753	5212
836.891	5280
837.029	5201
837.167	5193
837.305	5143
837.443	5166
837.58	5124
837.718	5208
837.856	5204
837.993	5151
838.131	5220
838.269	5170
838.406	5227
838.544	5136
838.681	4972
838.819	4999
838.956	4896
839.094	4870
839.231	4980
839.369	5060
839.506	5448
839.643	5235
839.781	5022
839.918	5045
840.055	5060
840.193	5128
840.33	5079
840.467	5128
840.604	5136
840.742	5425
840.879	5086
841.016	5083
841.153	5140
841.29	5341
841.427	5322
841.564	5330
841.701	5315
841.838	5311
841.975	5273
842.112	5292
842.249	5151
842.385	5102
842.522	5299
842.659	5185
842.796	5155
842.933	5140
843.069	5140
843.206	5159
843.343	5299
843.479	5208
843.616	5220
843.752	5029
843.889	5006
844.025	5208
844.162	5003
844.298	5189
844.435	5079
844.571	5033
844.708	5197
844.844	5318
844.98	5235
845.117	5277
845.253	5162
845.389	5067
845.525	5136
845.661	5113
845.798	4991
845.934	5113
846.07	5094
846.206	5132
846.342	5216
846.478	5162
846.614	4984
846.75	4934
846.886	4908
847.022	5098
847.158	5029
847.294	5067
847.429	5128
847.565	4984
847.701	5273
847.837	4839
847.972	4797
848.108	4972
848.244	4934
848.379	4778
848.515	4714
848.65	4710
848.786	4763
848.921	4744
849.057	4854
849.192	4877
849.328	4850
849.463	4854
849.598	4786
849.734	4752
849.869	4656
850.004	4618
850.14	4649
850.275	4550
850.41	4512
850.545	4596
850.68	4565
850.815	4656
850.95	4599
851.085	4854
851.22	4725
851.355	4691
851.49	4615
851.625	4584
851.76	4656
851.895	4512
852.03	4500
852.165	4645
852.299	4637
852.434	4778
852.569	4729
852.703	4744
852.838	4854
852.973	4896
853.107	4908
853.242	4717
853.376	4683
853.511	4538
853.645	4603
853.78	4793
853.914	4637
854.048	4641
854.183	4618
854.317	4706
854.451	4854
854.585	4637
854.72	4649
854.854	4721
854.988	4550
855.122	4599
855.256	4546
855.39	4653
855.524	4771
855.658	4710
855.792	4630
855.926	4675
856.06	4767
856.194	4801
856.327	4649
856.461	4641
856.595	4630
856.729	4577
856.862	4691
856.996	4687
857.13	4679
857.263	4733
857.397	4771
857.53	4675
857.664	4759
857.797	4763
857.931	4752
858.064	4733
858.197	4740
858.331	4630
858.464	4599
858.597	4523
858.731	4630
858.864	4615
858.997	4596
859.13	4618
859.263	4645
859.396	4687
859.529	4580
859.662	4542
859.795	4561
859.928	4603
860.061	4759
860.194	4725
860.327	4580
860.46	4577
860.592	4645
860.725	4702
860.858	4725
860.99	4599
861.123	4497
861.256	4481
861.388	4618
861.521	5277
861.653	4500
861.786	4417
861.918	4451
862.05	4493
862.183	4573
862.315	4611
862.447	4645
862.58	4538
862.712	4356
862.844	4383
862.976	4421
863.108	4413
863.24	4736
863.372	4341
863.504	4398
863.636	4398
863.768	4436
863.9	4421
864.032	4356
864.164	4390
864.296	4500
864.428	4546
864.559	4516
864.691	4481
864.823	4455
864.954	4485
865.086	4516
865.217	4451
865.349	4428
865.48	4409
865.612	4489
865.743	4645
865.875	4451
866.006	4409
866.137	4497
866.269	4428
866.4	4462
866.531	4440
866.662	4390
866.793	4424
866.924	4421
867.055	4504
867.186	4402
867.317	4428
867.448	4348
867.579	4386
867.71	4371
867.841	4310
867.972	4440
868.103	4478
868.233	4421
868.364	4409
868.495	4489
868.625	4656
868.756	4774
868.886	4516
869.017	4588
869.147	4748
869.278	4710
869.408	4626
869.539	4592
869.669	4672
869.799	4691
869.929	4698
870.06	4725
870.19	4968
870.32	4919
870.45	4892
870.58	4923
870.71	5079
870.84	5079
870.97	4976
871.1	4873
871.23	5113
871.36	5105
871.489	4995
871.619	5041
871.749	5052
871.879	5083
872.008	5159
872.138	5071
872.267	5014
872.397	4847
872.526	4805
872.656	4771
872.785	4771
872.915	4972
873.044	5022
873.173	4923
873.303	4934
873.432	4923
873.561	4946
873.69	4889
873.819	4847
873.948	4877
874.077	4820
874.206	4786
874.335	4763
874.464	4938
874.593	4999
874.722	4885
874.851	5052
874.979	5037
875.108	5014
875.237	4908
875.365	4881
875.494	4824
875.623	4968
875.751	4797
875.88	4881
876.008	4991
876.136	4972
876.265	5216
876.393	5364
876.521	5261
876.65	5246
876.778	5124
876.906	5018
877.034	5037
877.162	5033
877.29	4957
877.418	5022
877.546	4987
877.674	4976
877.802	5037
877.93	4987
878.058	4942
878.185	4850
878.313	4919
878.441	4968
878.568	4771
878.696	4812
878.824	4908
878.951	4968
879.079	5124
879.206	5322
879.333	5056
879.461	4961
879.588	4949
879.715	5117
879.842	5147
879.97	4968
880.097	4793
880.224	4729
880.351	4843
880.478	4786
880.605	4767
880.732	4759
880.859	5045
880.986	4870
881.112	4862
881.239	4759
881.366	4634
881.493	4554
881.619	4580
881.746	4675
881.872	4630
881.999	4656
882.125	4679
882.252	4740
882.378	4843
882.505	4923
882.631	4786
882.757	4664
882.883	4710
883.01	4698
883.136	4702
883.262	4630
883.388	4641
883.514	4782
883.64	4866
883.766	4759
883.892	4679
884.018	4714
884.143	4881
884.269	5022
884.395	4668
884.52	4634
884.646	4618
884.772	4599
884.897	4580
885.023	4618
885.148	4782
885.274	4801
885.399	4778
885.524	4656
885.65	4656
885.775	4748
885.9	4706
886.025	4828
886.15	4801
886.275	4687
886.4	4649
886.525	4755
886.65	4660
886.775	4679
886.9	4896
887.025	5037
887.149	4797
887.274	4607
887.399	4554
887.523	4588
887.648	4596
887.773	4554
887.897	4771
888.021	4782
888.146	4660
888.27	4763
888.395	4866
888.519	4801
888.643	4782
888.767	4831
888.891	4649
889.015	4596
889.139	4603
889.263	4615
889.387	4725
889.511	4805
889.635	4790
889.759	4615
889.883	4615
890.006	4683
890.13	4835
890.254	4622
890.377	4691
890.501	4519
890.624	4474
890.748	4622
890.871	4519
890.995	4424
891.118	4383
891.241	4489
891.364	4531
891.488	4656
891.611	4504
891.734	4535
891.857	4546
891.98	4565
892.103	4656
892.226	4542
892.349	4481
892.471	4428
892.594	4516
892.717	4561
892.839	4580
892.962	4588
893.085	4630
893.207	4561
893.33	4470
893.452	4538
893.575	4668
893.697	4538
893.819	4744
893.941	4797
894.064	4744
894.186	4531
894.308	4577
894.43	4698
894.552	4805
894.674	4755
894.796	4508
894.918	4554
895.04	4512
895.161	4717
895.283	4672
895.405	4546
895.526	4622
895.648	4599
895.769	4679
895.891	4634
896.012	4752
896.134	4714
896.255	4641
896.376	4569
896.498	4569
896.619	4683
896.74	4546
896.861	4668
896.982	4923
897.103	5029
897.224	4801
897.345	4725
897.466	4630
897.587	4702
897.708	4866
897.828	4774
897.949	4618
898.07	4485
898.19	4641
898.311	4790
898.431	4626
898.552	4691
898.672	4797
898.792	4801
898.913	4717
899.033	4622
899.153	4523
899.273	4402
899.393	4519
899.513	4493
899.633	4569
899.753	4592
899.873	4474
899.993	4573
900.113	4523
900.232	4577
900.352	4531
900.472	4535
900.591	4405
900.711	4531
900.83	4485
900.95	4660
901.069	4691
901.189	4546
901.308	4341
901.427	4386
901.546	4405
901.665	4527
901.784	4535
901.904	4405
902.023	4352
902.141	4219
902.26	4207
902.379	4344
902.498	4276
902.617	4257
902.735	4356
902.854	4417
902.973	4360
903.091	4223
903.21	4196
903.328	4310
903.446	4329
903.565	4310
903.683	4394
903.801	4322
903.919	4466
904.038	4451
904.156	4322
904.274	4462
904.392	4436
904.51	4455
904.627	4527
904.745	4592
904.863	4668
904.981	4409
905.098	4322
905.216	4363
905.334	4447
905.451	4489
905.569	4455
905.686	4546
905.803	4626
905.921	4493
906.038	4558
906.155	4478
906.272	4405
906.389	4481
906.506	4432
906.623	4424
906.74	4474
906.857	4375
906.974	4394
907.091	4580
907.208	4702
907.324	4649
907.441	4535
907.557	4360
907.674	4341
907.79	4375
907.907	4424
908.023	4478
908.139	4558
908.256	4443
908.372	4523
908.488	4504
908.604	4363
908.72	4367
908.836	4417
908.952	4421
909.068	4443
909.184	4569
909.3	4508
909.415	4634
909.531	4554
909.647	4383
909.762	4394
909.878	4398
909.993	4459
910.108	4424
910.224	4424
910.339	4508
910.454	4440
910.57	4383
910.685	4371
910.8	4653
910.915	4656
911.03	4478
911.145	4337
911.259	4360
911.374	4352
911.489	4322
911.604	4322
911.718	4223
911.833	4238
911.947	4120
912.062	4029
912.176	4284
912.291	4299
912.405	4268
912.519	4447
912.633	4523
912.748	4409
912.862	4314
912.976	4276
913.09	4124
913.204	4238
913.318	4253
913.431	4413
913.545	4409
913.659	4478
913.772	4405
913.886	4295
914	4268
914.113	4432
914.226	4466
914.34	4398
914.453	4265
914.566	4470
914.68	4375
914.793	4325
914.906	4185
915.019	4158
915.132	4093
915.245	4249
915.358	4249
915.47	4192
915.583	4303
915.696	4329
915.809	4424
915.921	4478
916.034	4299
916.146	4287
916.259	4200
916.371	4394
916.483	4402
916.595	4249
916.708	4344
916.82	4329
916.932	4360
917.044	4390
917.156	4367
917.268	4249
917.38	4344
917.491	4322
917.603	4398
917.715	4432
917.826	4474
917.938	4314
918.049	4272
918.161	4394
918.272	4558
918.384	4561
918.495	4451
918.606	4337
918.717	4303
918.828	4371
918.939	4371
919.05	4306
919.161	4363
919.272	4105
919.383	4253
919.494	4470
919.604	4691
919.715	4451
919.826	4421
919.936	4421
920.047	4584
920.157	4527
920.267	4729
920.378	4588
920.488	4550
920.598	4717
920.708	4881
920.818	4782
920.928	4839
921.038	4949
921.148	4946
921.258	4634
921.368	4584
921.477	4485
921.587	4489
921.697	4436
921.806	4584
921.916	4459
922.025	4325
922.134	4303
922.244	4253
922.353	4428
922.462	4230
922.571	4158
922.68	4074
922.789	3998
922.898	4071
923.007	3968
923.116	4097
923.224	4074
923.333	4124
923.442	4002
923.55	4017
923.659	4067
923.767	4147
923.876	4021
923.984	4131
924.092	4010
924.201	4097
924.309	4097
924.417	4112
924.525	4078
924.633	4173
924.741	4930
924.849	3968
924.956	4154
925.064	4021
925.172	3934
925.279	4002
925.387	4086
925.494	4074
925.602	4249
925.709	4242
925.816	4082
925.924	4150
926.031	4215
926.138	4207
926.245	4230
926.352	4158
926.459	4306
926.566	4318
926.673	4246
926.779	4139
926.886	4105
926.993	3983
927.099	4002
927.206	3960
927.312	3975
927.419	4051
927.525	4071
927.631	4082
927.737	3968
927.843	3930
927.95	3857
928.056	3953
928.162	3998
928.267	4105
928.373	4736
928.479	4128
928.585	3911
928.69	4051
928.796	4078
928.901	3972
929.007	3892
929.112	4036
929.218	4017
929.323	3953
929.428	3987
929.533	4147
929.638	3937
929.743	4029
929.848	4055
929.953	4029
930.058	3949
930.163	3838
930.267	3857
930.372	3979
930.477	3827
930.581	4093
930.685	3956
930.79	3823
930.894	3926
930.998	3941
931.103	4063
931.207	3740
931.311	3709
931.415	3679
931.519	3542
931.623	3557
