Data from test_V78500241_1662.txt Node
Date: Fri Mar 25 17:00:33 CST 2022
User: usil
Spectrometer: V785-0024
Trigger mode: 0
Integration Time (sec): 4.000000E-1
Scans to average: 1
Nonlinearity correction enabled: false
Boxcar width: 0
Storing dark spectrum: false
XAxis mode: Wavelengths
Number of Pixels in Spectrum: 1024
>>>>>Begin Spectral Data<<<<<
801.071	8073
801.214	8031
801.356	7894
801.499	7906
801.641	7845
801.783	7860
801.926	7928
802.068	7947
802.211	7982
802.353	7986
802.496	7940
802.638	7845
802.78	7970
802.923	7925
803.065	7890
803.208	7898
803.35	7951
803.492	8103
803.635	8031
803.777	8008
803.919	8130
804.061	8434
804.204	8244
804.346	8031
804.488	7982
804.63	8084
804.773	8012
804.915	8115
805.057	8320
805.199	8183
805.341	8210
805.483	8248
805.626	8259
805.768	8149
805.91	8214
806.052	8210
806.194	8145
806.336	8324
806.478	8153
806.62	8100
806.762	8138
806.904	8290
807.046	8469
807.188	8389
807.33	8256
807.472	8355
807.614	8187
807.756	8180
807.898	8005
808.04	7875
808.182	7917
808.324	7841
808.465	7909
808.607	8035
808.749	8126
808.891	8214
809.033	8305
809.174	8214
809.316	8043
809.458	8073
809.6	7974
809.741	7967
809.883	8077
810.025	8123
810.166	8035
810.308	8016
810.45	7932
810.591	7879
810.733	7731
810.875	7624
811.016	7518
811.158	7460
811.299	7590
811.441	7674
811.582	7636
811.724	7518
811.865	7609
812.007	7616
812.148	7628
812.29	7628
812.431	7772
812.573	7928
812.714	7974
812.855	8153
812.997	8256
813.138	8313
813.279	8214
813.421	8020
813.562	7932
813.703	7849
813.845	7685
813.986	7438
814.127	7232
814.268	7251
814.41	7251
814.551	7156
814.692	7259
814.833	7084
814.974	7095
815.115	7095
815.256	7019
815.397	6985
815.539	6905
815.68	6818
815.821	6776
815.962	6871
816.103	6783
816.244	6703
816.385	6578
816.526	6662
816.666	6490
816.807	6285
816.948	6369
817.089	6475
817.23	6426
817.371	6380
817.512	6334
817.653	6369
817.793	6327
817.934	6452
818.075	6460
818.216	6376
818.356	6372
818.497	6270
818.638	6114
818.778	6159
818.919	6106
819.06	6201
819.2	6319
819.341	6323
819.481	6372
819.622	6570
819.762	6753
819.903	6677
820.043	6570
820.184	6578
820.324	6654
820.465	6673
820.605	6707
820.746	6658
820.886	6506
821.026	6627
821.167	6662
821.307	6795
821.447	6768
821.588	6715
821.728	6601
821.868	6471
822.008	6331
822.149	6353
822.289	6308
822.429	6159
822.569	6072
822.709	6110
822.849	5996
822.99	5893
823.13	5920
823.27	5935
823.41	5691
823.55	5790
823.69	5798
823.83	5752
823.97	5642
824.11	5505
824.25	5452
824.389	5505
824.529	5623
824.669	5486
824.809	5596
824.949	5649
825.089	5604
825.228	5535
825.368	5368
825.508	5345
825.648	5269
825.787	5368
825.927	5410
826.067	5307
826.206	5315
826.346	5398
826.485	5417
826.625	5406
826.765	5520
826.904	5482
827.044	5273
827.183	5151
827.323	5143
827.462	5265
827.601	5170
827.741	5208
827.88	5212
828.02	5143
828.159	5216
828.298	5288
828.437	5322
828.577	5227
828.716	5505
828.855	5273
828.994	5162
829.134	5132
829.273	5170
829.412	5094
829.551	5159
829.69	5147
829.829	5265
829.968	5368
830.107	5231
830.246	5254
830.385	5143
830.524	5143
830.663	5041
830.802	5003
830.941	4866
831.08	4911
831.219	4961
831.357	4987
831.496	5170
831.635	4908
831.774	4892
831.913	4797
832.051	4698
832.19	4679
832.329	4835
832.467	4721
832.606	4641
832.744	4721
832.883	4740
833.022	4733
833.16	4805
833.299	4831
833.437	4767
833.576	4809
833.714	4850
833.852	4885
833.991	4900
834.129	4980
834.267	4919
834.406	4866
834.544	5010
834.682	4991
834.821	4987
834.959	5151
835.097	4980
835.235	5143
835.373	5113
835.511	5090
835.65	4999
835.788	5048
835.926	4938
836.064	4873
836.202	4908
836.34	5170
836.478	5216
836.615	5079
836.753	5212
836.891	5307
837.029	5318
837.167	5212
837.305	5143
837.443	5140
837.58	5075
837.718	5296
837.856	5193
837.993	5121
838.131	5242
838.269	5220
838.406	5159
838.544	5220
838.681	5086
838.819	4999
838.956	4908
839.094	4911
839.231	4919
839.369	5071
839.506	5417
839.643	5277
839.781	5140
839.918	5025
840.055	5064
840.193	5083
840.33	5094
840.467	5155
840.604	5155
840.742	5474
840.879	5132
841.016	5094
841.153	5147
841.29	5364
841.427	5296
841.564	5311
841.701	5383
841.838	5254
841.975	5231
842.112	5288
842.249	5143
842.385	5121
842.522	5284
842.659	5193
842.796	5128
842.933	5204
843.069	5147
843.206	5185
843.343	5315
843.479	5216
843.616	5299
843.752	5010
843.889	4961
844.025	5204
844.162	4999
844.298	5231
844.435	5124
844.571	5048
844.708	5197
844.844	5307
844.98	5345
845.117	5265
845.253	5147
845.389	5102
845.525	5147
845.661	5121
845.798	5083
845.934	5090
846.07	5094
846.206	5147
846.342	5296
846.478	5208
846.614	5003
846.75	4965
846.886	4908
847.022	5212
847.158	5014
847.294	5117
847.429	5060
847.565	5022
847.701	5315
847.837	4843
847.972	4816
848.108	4984
848.244	4942
848.379	4774
848.515	4733
848.65	4698
848.786	4759
848.921	4744
849.057	4854
849.192	4877
849.328	4835
849.463	4831
849.598	4797
849.734	4774
849.869	4687
850.004	4622
850.14	4664
850.275	4584
850.41	4497
850.545	4558
850.68	4668
850.815	4634
850.95	4615
851.085	4824
851.22	4702
851.355	4634
851.49	4668
851.625	4603
851.76	4592
851.895	4577
852.03	4516
852.165	4626
852.299	4660
852.434	4744
852.569	4748
852.703	4774
852.838	4812
852.973	4900
853.107	4896
853.242	4748
853.376	4683
853.511	4538
853.645	4656
853.78	4755
853.914	4702
854.048	4634
854.183	4622
854.317	4679
854.451	4805
854.585	4645
854.72	4573
854.854	4755
854.988	4580
855.122	4580
855.256	4493
855.39	4664
855.524	4714
855.658	4733
855.792	4706
855.926	4706
856.06	4759
856.194	4790
856.327	4702
856.461	4626
856.595	4592
856.729	4599
856.862	4759
856.996	4687
857.13	4721
857.263	4774
857.397	4801
857.53	4653
857.664	4672
857.797	4793
857.931	4763
858.064	4679
858.197	4736
858.331	4630
858.464	4592
858.597	4531
858.731	4603
858.864	4611
858.997	4596
859.13	4694
859.263	4683
859.396	4687
859.529	4569
859.662	4561
859.795	4561
859.928	4596
860.061	4771
860.194	4755
860.327	4626
860.46	4531
860.592	4736
860.725	4664
860.858	4672
860.99	4592
861.123	4512
861.256	4538
861.388	4592
861.521	5315
861.653	4497
861.786	4451
861.918	4440
862.05	4531
862.183	4550
862.315	4599
862.447	4645
862.58	4531
862.712	4405
862.844	4291
862.976	4474
863.108	4466
863.24	4763
863.372	4314
863.504	4432
863.636	4417
863.768	4428
863.9	4440
864.032	4360
864.164	4424
864.296	4504
864.428	4542
864.559	4527
864.691	4565
864.823	4504
864.954	4459
865.086	4519
865.217	4428
865.349	4409
865.48	4459
865.612	4489
865.743	4622
865.875	4440
866.006	4436
866.137	4493
866.269	4493
866.4	4436
866.531	4405
866.662	4413
866.793	4386
866.924	4383
867.055	4523
867.186	4443
867.317	4383
867.448	4318
867.579	4390
867.71	4383
867.841	4375
867.972	4485
868.103	4497
868.233	4474
868.364	4462
868.495	4516
868.625	4634
868.756	4759
868.886	4565
869.017	4607
869.147	4694
869.278	4782
869.408	4611
869.539	4649
869.669	4733
869.799	4607
869.929	4755
870.06	4710
870.19	4976
870.32	4896
870.45	4957
870.58	5014
870.71	5075
870.84	5109
870.97	4896
871.1	4847
871.23	5147
871.36	5136
871.489	5003
871.619	5048
871.749	5090
871.879	5121
872.008	5136
872.138	5018
872.267	4980
872.397	4835
872.526	4786
872.656	4691
872.785	4843
872.915	4915
873.044	5060
873.173	4961
873.303	4938
873.432	4927
873.561	4908
873.69	4896
873.819	4828
873.948	4885
874.077	4809
874.206	4805
874.335	4812
874.464	4885
874.593	5064
874.722	4972
874.851	5121
874.979	5052
875.108	5018
875.237	4911
875.365	4824
875.494	4870
875.623	4976
875.751	4828
875.88	4885
876.008	4980
876.136	5052
876.265	5208
876.393	5334
876.521	5265
876.65	5201
876.778	5132
876.906	5113
877.034	4999
877.162	4923
877.29	4972
877.418	5079
877.546	5033
877.674	4961
877.802	4957
877.93	4984
878.058	4923
878.185	4866
878.313	4965
878.441	5010
878.568	4862
878.696	4873
878.824	4949
878.951	5022
879.079	5143
879.206	5296
879.333	5098
879.461	4961
879.588	5006
879.715	5121
879.842	5227
879.97	4965
880.097	4725
880.224	4786
880.351	4843
880.478	4854
880.605	4759
880.732	4809
880.859	5075
880.986	4930
881.112	4892
881.239	4797
881.366	4691
881.493	4599
881.619	4569
881.746	4660
881.872	4645
881.999	4672
882.125	4675
882.252	4790
882.378	4774
882.505	4873
882.631	4805
882.757	4694
882.883	4752
883.01	4759
883.136	4706
883.262	4656
883.388	4630
883.514	4805
883.64	4870
883.766	4729
883.892	4687
884.018	4706
884.143	4896
884.269	5018
884.395	4622
884.52	4668
884.646	4641
884.772	4542
884.897	4580
885.023	4687
885.148	4786
885.274	4892
885.399	4759
885.524	4748
885.65	4698
885.775	4698
885.9	4744
886.025	4870
886.15	4771
886.275	4710
886.4	4679
886.525	4725
886.65	4664
886.775	4698
886.9	4923
887.025	5018
887.149	4835
887.274	4706
887.399	4592
887.523	4580
887.648	4523
887.773	4603
887.897	4725
888.021	4786
888.146	4660
888.27	4866
888.395	4892
888.519	4801
888.643	4809
888.767	4805
888.891	4611
889.015	4626
889.139	4634
889.263	4626
889.387	4809
889.511	4831
889.635	4786
889.759	4679
889.883	4626
890.006	4736
890.13	4843
890.254	4626
890.377	4656
890.501	4508
890.624	4531
890.748	4580
890.871	4508
890.995	4470
891.118	4352
891.241	4493
891.364	4542
891.488	4588
891.611	4485
891.734	4504
891.857	4580
891.98	4531
892.103	4615
892.226	4577
892.349	4516
892.471	4398
892.594	4538
892.717	4561
892.839	4554
892.962	4558
893.085	4679
893.207	4596
893.33	4493
893.452	4497
893.575	4630
893.697	4569
893.819	4790
893.941	4797
894.064	4778
894.186	4561
894.308	4588
894.43	4706
894.552	4805
894.674	4672
894.796	4592
894.918	4573
895.04	4580
895.161	4687
895.283	4710
895.405	4588
895.526	4634
895.648	4672
895.769	4649
895.891	4687
896.012	4740
896.134	4702
896.255	4687
896.376	4607
896.498	4596
896.619	4668
896.74	4607
896.861	4615
896.982	4908
897.103	5056
897.224	4790
897.345	4733
897.466	4649
897.587	4763
897.708	4809
897.828	4774
897.949	4691
898.07	4531
898.19	4649
898.311	4835
898.431	4668
898.552	4736
898.672	4767
898.792	4805
898.913	4717
899.033	4603
899.153	4481
899.273	4421
899.393	4485
899.513	4512
899.633	4577
899.753	4508
899.873	4497
899.993	4584
900.113	4523
900.232	4584
900.352	4542
900.472	4462
900.591	4440
900.711	4512
900.83	4424
900.95	4596
901.069	4683
901.189	4531
901.308	4337
901.427	4314
901.546	4352
901.665	4462
901.784	4535
901.904	4367
902.023	4337
902.141	4234
902.26	4173
902.379	4310
902.498	4246
902.617	4234
902.735	4367
902.854	4405
902.973	4360
903.091	4207
903.21	4200
903.328	4333
903.446	4268
903.565	4238
903.683	4363
903.801	4280
903.919	4462
904.038	4451
904.156	4257
904.274	4455
904.392	4405
904.51	4405
904.627	4459
904.745	4577
904.863	4615
904.981	4413
905.098	4314
905.216	4341
905.334	4432
905.451	4440
905.569	4436
905.686	4538
905.803	4577
905.921	4405
906.038	4516
906.155	4474
906.272	4379
906.389	4428
906.506	4314
906.623	4333
906.74	4379
906.857	4314
906.974	4394
907.091	4573
907.208	4675
907.324	4531
907.441	4474
907.557	4371
907.674	4363
907.79	4329
907.907	4375
908.023	4489
908.139	4451
908.256	4455
908.372	4432
908.488	4394
908.604	4337
908.72	4325
908.836	4367
908.952	4383
909.068	4424
909.184	4558
909.3	4455
909.415	4554
909.531	4565
909.647	4329
909.762	4390
909.878	4341
909.993	4371
910.108	4466
910.224	4436
910.339	4478
910.454	4386
910.57	4383
910.685	4322
910.8	4653
910.915	4577
911.03	4470
911.145	4291
911.259	4363
911.374	4363
911.489	4299
911.604	4276
911.718	4185
911.833	4215
911.947	4090
912.062	4040
912.176	4177
912.291	4249
912.405	4257
912.519	4504
912.633	4493
912.748	4390
912.862	4310
912.976	4196
913.09	4112
913.204	4185
913.318	4272
913.431	4367
913.545	4386
913.659	4447
913.772	4394
913.886	4265
914	4227
914.113	4341
914.226	4447
914.34	4367
914.453	4223
914.566	4428
914.68	4306
914.793	4325
914.906	4154
915.019	4055
915.132	4082
915.245	4154
915.358	4181
915.47	4227
915.583	4238
915.696	4310
915.809	4421
915.921	4405
916.034	4249
916.146	4215
916.259	4215
916.371	4363
916.483	4333
916.595	4196
916.708	4325
916.82	4272
916.932	4318
917.044	4291
917.156	4337
917.268	4196
917.38	4246
917.491	4276
917.603	4360
917.715	4417
917.826	4421
917.938	4344
918.049	4200
918.161	4371
918.272	4531
918.384	4508
918.495	4424
918.606	4325
918.717	4223
918.828	4386
918.939	4341
919.05	4268
919.161	4360
919.272	4162
919.383	4230
919.494	4462
919.604	4618
919.715	4424
919.826	4303
919.936	4356
920.047	4558
920.157	4462
920.267	4668
920.378	4504
920.488	4470
920.598	4710
920.708	4885
920.818	4736
920.928	4717
921.038	4972
921.148	4904
921.258	4630
921.368	4569
921.477	4497
921.587	4451
921.697	4390
921.806	4531
921.916	4428
922.025	4272
922.134	4265
922.244	4242
922.353	4356
922.462	4158
922.571	4090
922.68	3983
922.789	3941
922.898	4029
923.007	3968
923.116	4143
923.224	4093
923.333	4032
923.442	3994
923.55	3998
923.659	4025
923.767	4063
923.876	3968
923.984	4112
924.092	3994
924.201	4059
924.309	4082
924.417	4158
924.525	4051
924.633	4109
924.741	4877
924.849	3899
924.956	4135
925.064	3975
925.172	3907
925.279	3926
925.387	4063
925.494	4044
925.602	4215
925.709	4166
925.816	4071
925.924	4158
926.031	4272
926.138	4131
926.245	4192
926.352	4071
926.459	4280
926.566	4303
926.673	4147
926.779	4109
926.886	4086
926.993	3968
927.099	3987
927.206	3922
927.312	3934
927.419	4044
927.525	4063
927.631	4105
927.737	3903
927.843	3949
927.95	3846
928.056	3949
928.162	3975
928.267	4067
928.373	4558
928.479	4086
928.585	3865
928.69	3994
928.796	4048
928.901	3991
929.007	3846
929.112	3953
929.218	3994
929.323	3941
929.428	3899
929.533	4082
929.638	3899
929.743	3979
929.848	4006
929.953	3964
930.058	3968
930.163	3770
930.267	3831
930.372	3991
930.477	3800
930.581	4051
930.685	3930
930.79	3804
930.894	3850
930.998	3861
931.103	4029
931.207	3720
931.311	3690
931.415	3698
931.519	3534
931.623	3549
