Data from test_V78500241_923.txt Node
Date: Fri Mar 25 16:55:25 CST 2022
User: usil
Spectrometer: V785-0024
Trigger mode: 0
Integration Time (sec): 4.000000E-1
Scans to average: 1
Nonlinearity correction enabled: false
Boxcar width: 0
Storing dark spectrum: false
XAxis mode: Wavelengths
Number of Pixels in Spectrum: 1024
>>>>>Begin Spectral Data<<<<<
801.071	8005
801.214	8020
801.356	7833
801.499	7852
801.641	7814
801.783	7788
801.926	7921
802.068	7864
802.211	7887
802.353	7887
802.496	7849
802.638	7818
802.78	7803
802.923	7906
803.065	7928
803.208	7898
803.35	8001
803.492	8073
803.635	8161
803.777	8043
803.919	8100
804.061	8412
804.204	8157
804.346	7970
804.488	7928
804.63	8096
804.773	7989
804.915	8077
805.057	8301
805.199	8149
805.341	8218
805.483	8256
805.626	8225
805.768	8058
805.91	8180
806.052	8176
806.194	8065
806.336	8195
806.478	8035
806.62	8081
806.762	8107
806.904	8279
807.046	8408
807.188	8313
807.33	8237
807.472	8309
807.614	8119
807.756	8065
807.898	7982
808.04	7902
808.182	7841
808.324	7879
808.465	7890
808.607	8062
808.749	8077
808.891	8145
809.033	8320
809.174	8229
809.316	8088
809.458	8058
809.6	8005
809.741	7989
809.883	8050
810.025	8100
810.166	8123
810.308	7993
810.45	8027
810.591	7852
810.733	7757
810.875	7670
811.016	7518
811.158	7453
811.299	7586
811.441	7772
811.582	7647
811.724	7624
811.865	7518
812.007	7578
812.148	7590
812.29	7655
812.431	7772
812.573	7883
812.714	8005
812.855	8172
812.997	8240
813.138	8332
813.279	8271
813.421	8142
813.562	8065
813.703	7986
813.845	7837
813.986	7476
814.127	7354
814.268	7259
814.41	7293
814.551	7209
814.692	7217
814.833	7076
814.974	7175
815.115	7137
815.256	7038
815.397	6932
815.539	6958
815.68	6890
815.821	6840
815.962	6818
816.103	6833
816.244	6730
816.385	6601
816.526	6650
816.666	6483
816.807	6281
816.948	6509
817.089	6509
817.23	6513
817.371	6445
817.512	6410
817.653	6494
817.793	6376
817.934	6445
818.075	6467
818.216	6448
818.356	6441
818.497	6235
818.638	6197
818.778	6148
818.919	6178
819.06	6148
819.2	6300
819.341	6308
819.481	6418
819.622	6517
819.762	6707
819.903	6722
820.043	6608
820.184	6589
820.324	6601
820.465	6711
820.605	6692
820.746	6608
820.886	6486
821.026	6703
821.167	6810
821.307	6837
821.447	6795
821.588	6730
821.728	6623
821.868	6540
822.008	6338
822.149	6422
822.289	6410
822.429	6178
822.569	6106
822.709	6129
822.849	5908
822.99	5897
823.13	5897
823.27	5931
823.41	5813
823.55	5779
823.69	5832
823.83	5790
823.97	5680
824.11	5596
824.25	5528
824.389	5547
824.529	5577
824.669	5516
824.809	5638
824.949	5703
825.089	5646
825.228	5524
825.368	5376
825.508	5357
825.648	5307
825.787	5383
825.927	5395
826.067	5307
826.206	5318
826.346	5395
826.485	5417
826.625	5436
826.765	5539
826.904	5524
827.044	5261
827.183	5208
827.323	5147
827.462	5280
827.601	5197
827.741	5208
827.88	5216
828.02	5136
828.159	5277
828.298	5307
828.437	5414
828.577	5307
828.716	5478
828.855	5349
828.994	5181
829.134	5185
829.273	5239
829.412	5121
829.551	5132
829.69	5140
829.829	5231
829.968	5372
830.107	5303
830.246	5292
830.385	5193
830.524	5102
830.663	5083
830.802	5022
830.941	4927
831.08	4923
831.219	4972
831.357	5041
831.496	5140
831.635	4934
831.774	4854
831.913	4824
832.051	4778
832.19	4736
832.329	4896
832.467	4714
832.606	4626
832.744	4717
832.883	4694
833.022	4744
833.16	4790
833.299	4839
833.437	4812
833.576	4847
833.714	4881
833.852	4889
833.991	4927
834.129	5006
834.267	4984
834.406	4904
834.544	4980
834.682	4976
834.821	5029
834.959	5140
835.097	5010
835.235	5193
835.373	5109
835.511	5128
835.65	5029
835.788	4995
835.926	4896
836.064	4854
836.202	4892
836.34	5136
836.478	5223
836.615	5159
836.753	5250
836.891	5277
837.029	5223
837.167	5201
837.305	5166
837.443	5151
837.58	5079
837.718	5303
837.856	5201
837.993	5143
838.131	5284
838.269	5216
838.406	5204
838.544	5174
838.681	5090
838.819	5006
838.956	4896
839.094	4896
839.231	5029
839.369	5140
839.506	5417
839.643	5299
839.781	5132
839.918	5003
840.055	5094
840.193	5113
840.33	5132
840.467	5140
840.604	5220
840.742	5440
840.879	5132
841.016	5105
841.153	5159
841.29	5402
841.427	5383
841.564	5292
841.701	5372
841.838	5277
841.975	5246
842.112	5288
842.249	5117
842.385	5105
842.522	5337
842.659	5204
842.796	5166
842.933	5178
843.069	5170
843.206	5151
843.343	5322
843.479	5261
843.616	5277
843.752	5022
843.889	5022
844.025	5235
844.162	5056
844.298	5220
844.435	5079
844.571	5037
844.708	5189
844.844	5292
844.98	5364
845.117	5284
845.253	5140
845.389	5151
845.525	5265
845.661	5155
845.798	5048
845.934	5124
846.07	5071
846.206	5235
846.342	5265
846.478	5197
846.614	5045
846.75	4953
846.886	4942
847.022	5143
847.158	5025
847.294	5075
847.429	5094
847.565	5064
847.701	5357
847.837	4885
847.972	4862
848.108	5014
848.244	4953
848.379	4828
848.515	4736
848.65	4729
848.786	4824
848.921	4778
849.057	4896
849.192	4957
849.328	4809
849.463	4900
849.598	4858
849.734	4790
849.869	4706
850.004	4664
850.14	4641
850.275	4637
850.41	4538
850.545	4538
850.68	4656
850.815	4622
850.95	4622
851.085	4862
851.22	4774
851.355	4660
851.49	4611
851.625	4626
851.76	4580
851.895	4599
852.03	4561
852.165	4607
852.299	4763
852.434	4759
852.569	4714
852.703	4786
852.838	4873
852.973	4911
853.107	4976
853.242	4824
853.376	4668
853.511	4527
853.645	4626
853.78	4858
853.914	4774
854.048	4710
854.183	4683
854.317	4683
854.451	4858
854.585	4675
854.72	4607
854.854	4790
854.988	4561
855.122	4668
855.256	4523
855.39	4649
855.524	4778
855.658	4691
855.792	4653
855.926	4736
856.06	4809
856.194	4778
856.327	4694
856.461	4637
856.595	4641
856.729	4596
856.862	4763
856.996	4706
857.13	4694
857.263	4767
857.397	4812
857.53	4656
857.664	4710
857.797	4790
857.931	4752
858.064	4679
858.197	4763
858.331	4630
858.464	4634
858.597	4512
858.731	4637
858.864	4634
858.997	4626
859.13	4691
859.263	4664
859.396	4694
859.529	4607
859.662	4607
859.795	4531
859.928	4630
860.061	4740
860.194	4778
860.327	4615
860.46	4599
860.592	4740
860.725	4763
860.858	4710
860.99	4584
861.123	4504
861.256	4573
861.388	4653
861.521	5178
861.653	4523
861.786	4451
861.918	4470
862.05	4538
862.183	4554
862.315	4603
862.447	4656
862.58	4596
862.712	4367
862.844	4337
862.976	4519
863.108	4466
863.24	4782
863.372	4299
863.504	4455
863.636	4440
863.768	4459
863.9	4459
864.032	4394
864.164	4413
864.296	4436
864.428	4542
864.559	4542
864.691	4512
864.823	4481
864.954	4519
865.086	4493
865.217	4455
865.349	4409
865.48	4500
865.612	4542
865.743	4580
865.875	4478
866.006	4413
866.137	4478
866.269	4470
866.4	4478
866.531	4383
866.662	4402
866.793	4371
866.924	4405
867.055	4500
867.186	4432
867.317	4405
867.448	4344
867.579	4440
867.71	4409
867.841	4386
867.972	4462
868.103	4428
868.233	4485
868.364	4466
868.495	4455
868.625	4668
868.756	4729
868.886	4611
869.017	4618
869.147	4733
869.278	4748
869.408	4656
869.539	4611
869.669	4710
869.799	4702
869.929	4771
870.06	4733
870.19	4923
870.32	4923
870.45	4858
870.58	5018
870.71	5037
870.84	5048
870.97	4919
871.1	4900
871.23	5151
871.36	5140
871.489	5014
871.619	5090
871.749	5052
871.879	5136
872.008	5166
872.138	5079
872.267	5003
872.397	4839
872.526	4847
872.656	4714
872.785	4843
872.915	4942
873.044	5041
873.173	4957
873.303	4957
873.432	4896
873.561	4961
873.69	4866
873.819	4866
873.948	4923
874.077	4805
874.206	4778
874.335	4763
874.464	4854
874.593	5033
874.722	4957
874.851	5052
874.979	5075
875.108	5041
875.237	4942
875.365	4908
875.494	4839
875.623	4980
875.751	4816
875.88	4908
876.008	4968
876.136	5014
876.265	5201
876.393	5364
876.521	5231
876.65	5235
876.778	5201
876.906	5022
877.034	5029
877.162	5048
877.29	4930
877.418	5060
877.546	5037
877.674	5090
877.802	4987
877.93	5045
878.058	4957
878.185	4885
878.313	5006
878.441	4987
878.568	4824
878.696	4896
878.824	4942
878.951	5056
879.079	5140
879.206	5349
879.333	5102
879.461	5003
879.588	5083
879.715	5159
879.842	5280
879.97	5003
880.097	4828
880.224	4831
880.351	4797
880.478	4854
880.605	4831
880.732	4854
880.859	5105
880.986	4923
881.112	4915
881.239	4801
881.366	4729
881.493	4717
881.619	4607
881.746	4672
881.872	4649
881.999	4687
882.125	4706
882.252	4824
882.378	4839
882.505	4987
882.631	4854
882.757	4717
882.883	4740
883.01	4729
883.136	4702
883.262	4599
883.388	4660
883.514	4885
883.64	4889
883.766	4782
883.892	4687
884.018	4733
884.143	4980
884.269	5041
884.395	4698
884.52	4675
884.646	4717
884.772	4630
884.897	4637
885.023	4725
885.148	4862
885.274	4923
885.399	4824
885.524	4759
885.65	4714
885.775	4771
885.9	4736
886.025	4881
886.15	4797
886.275	4759
886.4	4733
886.525	4752
886.65	4694
886.775	4740
886.9	4942
887.025	5113
887.149	4850
887.274	4664
887.399	4615
887.523	4649
887.648	4596
887.773	4607
887.897	4816
888.021	4831
888.146	4725
888.27	4835
888.395	4938
888.519	4843
888.643	4892
888.767	4862
888.891	4725
889.015	4615
889.139	4679
889.263	4637
889.387	4763
889.511	4889
889.635	4839
889.759	4592
889.883	4729
890.006	4740
890.13	4835
890.254	4691
890.377	4710
890.501	4596
890.624	4519
890.748	4618
890.871	4584
890.995	4470
891.118	4455
891.241	4497
891.364	4588
891.488	4691
891.611	4535
891.734	4565
891.857	4611
891.98	4519
892.103	4717
892.226	4607
892.349	4561
892.471	4455
892.594	4580
892.717	4626
892.839	4618
892.962	4618
893.085	4683
893.207	4634
893.33	4474
893.452	4493
893.575	4687
893.697	4641
893.819	4831
893.941	4862
894.064	4828
894.186	4645
894.308	4584
894.43	4782
894.552	4820
894.674	4763
894.796	4577
894.918	4641
895.04	4618
895.161	4725
895.283	4683
895.405	4611
895.526	4660
895.648	4706
895.769	4706
895.891	4729
896.012	4740
896.134	4725
896.255	4729
896.376	4679
896.498	4679
896.619	4698
896.74	4607
896.861	4706
896.982	4961
897.103	5117
897.224	4835
897.345	4820
897.466	4740
897.587	4763
897.708	4885
897.828	4847
897.949	4679
898.07	4573
898.19	4645
898.311	4892
898.431	4729
898.552	4755
898.672	4866
898.792	4824
898.913	4797
899.033	4626
899.153	4519
899.273	4455
899.393	4504
899.513	4558
899.633	4523
899.753	4577
899.873	4504
899.993	4546
900.113	4527
900.232	4599
900.352	4645
900.472	4481
900.591	4443
900.711	4500
900.83	4436
900.95	4672
901.069	4691
901.189	4611
901.308	4398
901.427	4318
901.546	4386
901.665	4508
901.784	4580
901.904	4436
902.023	4318
902.141	4246
902.26	4196
902.379	4383
902.498	4272
902.617	4249
902.735	4398
902.854	4386
902.973	4383
903.091	4246
903.21	4253
903.328	4341
903.446	4318
903.565	4287
903.683	4375
903.801	4249
903.919	4436
904.038	4432
904.156	4314
904.274	4500
904.392	4432
904.51	4443
904.627	4500
904.745	4580
904.863	4645
904.981	4386
905.098	4322
905.216	4379
905.334	4443
905.451	4432
905.569	4451
905.686	4577
905.803	4596
905.921	4459
906.038	4550
906.155	4489
906.272	4432
906.389	4440
906.506	4360
906.623	4421
906.74	4421
906.857	4310
906.974	4421
907.091	4641
907.208	4634
907.324	4573
907.441	4481
907.557	4379
907.674	4386
907.79	4348
907.907	4409
908.023	4531
908.139	4516
908.256	4413
908.372	4485
908.488	4489
908.604	4360
908.72	4318
908.836	4421
908.952	4394
909.068	4455
909.184	4607
909.3	4489
909.415	4645
909.531	4565
909.647	4356
909.762	4424
909.878	4379
909.993	4447
910.108	4405
910.224	4485
910.339	4493
910.454	4409
910.57	4394
910.685	4375
910.8	4675
910.915	4668
911.03	4538
911.145	4356
911.259	4402
911.374	4398
911.489	4390
911.604	4306
911.718	4207
911.833	4207
911.947	4131
912.062	4055
912.176	4249
912.291	4253
912.405	4291
912.519	4481
912.633	4478
912.748	4379
912.862	4318
912.976	4219
913.09	4158
913.204	4204
913.318	4261
913.431	4402
913.545	4348
913.659	4485
913.772	4398
913.886	4261
914	4268
914.113	4371
914.226	4504
914.34	4459
914.453	4261
914.566	4459
914.68	4360
914.793	4356
914.906	4181
915.019	4135
915.132	4074
915.245	4249
915.358	4257
915.47	4261
915.583	4303
915.696	4325
915.809	4421
915.921	4443
916.034	4265
916.146	4268
916.259	4268
916.371	4447
916.483	4424
916.595	4284
916.708	4314
916.82	4322
916.932	4348
917.044	4329
917.156	4390
917.268	4276
917.38	4284
917.491	4249
917.603	4402
917.715	4440
917.826	4443
917.938	4390
918.049	4238
918.161	4424
918.272	4554
918.384	4558
918.495	4478
918.606	4322
918.717	4287
918.828	4371
918.939	4386
919.05	4272
919.161	4333
919.272	4150
919.383	4249
919.494	4485
919.604	4630
919.715	4436
919.826	4405
919.936	4398
920.047	4577
920.157	4508
920.267	4733
920.378	4580
920.488	4500
920.598	4740
920.708	4900
920.818	4725
920.928	4793
921.038	4934
921.148	4915
921.258	4626
921.368	4561
921.477	4489
921.587	4455
921.697	4371
921.806	4569
921.916	4485
922.025	4306
922.134	4215
922.244	4272
922.353	4371
922.462	4192
922.571	4147
922.68	4048
922.789	3953
922.898	4078
923.007	3956
923.116	4109
923.224	4128
923.333	4078
923.442	3994
923.55	4006
923.659	4040
923.767	4135
923.876	4044
923.984	4131
924.092	3964
924.201	4071
924.309	4082
924.417	4101
924.525	4067
924.633	4097
924.741	4957
924.849	3899
924.956	4135
925.064	4025
925.172	3941
925.279	3949
925.387	4078
925.494	4074
925.602	4246
925.709	4207
925.816	4032
925.924	4158
926.031	4234
926.138	4169
926.245	4265
926.352	4063
926.459	4322
926.566	4265
926.673	4154
926.779	4082
926.886	4135
926.993	4040
927.099	3956
927.206	3896
927.312	3964
927.419	4074
927.525	3975
927.631	4067
927.737	3991
927.843	3964
927.95	3854
928.056	4013
928.162	4013
928.267	4074
928.373	4558
928.479	4162
928.585	3903
928.69	4013
928.796	4074
928.901	3979
929.007	3869
929.112	4013
929.218	4006
929.323	3960
929.428	3934
929.533	4120
929.638	3918
929.743	3960
929.848	4051
929.953	4029
930.058	3930
930.163	3793
930.267	3861
930.372	4013
930.477	3823
930.581	4112
930.685	3968
930.79	3819
930.894	3865
930.998	3903
931.103	4021
931.207	3751
931.311	3694
931.415	3660
931.519	3549
931.623	3580
