Data from test_V78500241_129.txt Node
Date: Fri Mar 25 16:49:53 CST 2022
User: usil
Spectrometer: V785-0024
Trigger mode: 0
Integration Time (sec): 4.000000E-1
Scans to average: 1
Nonlinearity correction enabled: false
Boxcar width: 0
Storing dark spectrum: false
XAxis mode: Wavelengths
Number of Pixels in Spectrum: 1024
>>>>>Begin Spectral Data<<<<<
801.071	8024
801.214	8054
801.356	7803
801.499	7852
801.641	7849
801.783	7902
801.926	8035
802.068	8008
802.211	7982
802.353	7864
802.496	7951
802.638	7986
802.78	8012
802.923	8012
803.065	7932
803.208	7849
803.35	7986
803.492	8103
803.635	8183
803.777	7989
803.919	8126
804.061	8396
804.204	8039
804.346	8001
804.488	7887
804.63	8054
804.773	7989
804.915	8065
805.057	8256
805.199	8172
805.341	8153
805.483	8294
805.626	8237
805.768	8100
805.91	8195
806.052	8240
806.194	8046
806.336	8313
806.478	8107
806.62	8130
806.762	8206
806.904	8343
807.046	8526
807.188	8328
807.33	8294
807.472	8324
807.614	8138
807.756	8195
807.898	8001
808.04	7894
808.182	7906
808.324	7902
808.465	7917
808.607	8035
808.749	8100
808.891	8301
809.033	8355
809.174	8218
809.316	8050
809.458	8050
809.6	8012
809.741	8016
809.883	8111
810.025	8149
810.166	8020
810.308	8039
810.45	8050
810.591	7906
810.733	7776
810.875	7723
811.016	7567
811.158	7594
811.299	7616
811.441	7845
811.582	7776
811.724	7632
811.865	7636
812.007	7715
812.148	7601
812.29	7693
812.431	7807
812.573	7978
812.714	8058
812.855	8206
812.997	8301
813.138	8442
813.279	8305
813.421	8183
813.562	8050
813.703	7951
813.845	7788
813.986	7514
814.127	7331
814.268	7316
814.41	7335
814.551	7274
814.692	7183
814.833	7160
814.974	7198
815.115	7209
815.256	6958
815.397	6954
815.539	7023
815.68	6882
815.821	6806
815.962	6814
816.103	6848
816.244	6726
816.385	6654
816.526	6650
816.666	6597
816.807	6384
816.948	6490
817.089	6483
817.23	6490
817.371	6441
817.512	6464
817.653	6464
817.793	6395
817.934	6433
818.075	6528
818.216	6498
818.356	6467
818.497	6289
818.638	6159
818.778	6190
818.919	6148
819.06	6155
819.2	6315
819.341	6353
819.481	6429
819.622	6608
819.762	6825
819.903	6757
820.043	6631
820.184	6715
820.324	6612
820.465	6749
820.605	6669
820.746	6673
820.886	6551
821.026	6665
821.167	6730
821.307	6764
821.447	6776
821.588	6741
821.728	6631
821.868	6547
822.008	6388
822.149	6426
822.289	6388
822.429	6175
822.569	6106
822.709	6125
822.849	5916
822.99	5916
823.13	6003
823.27	5889
823.41	5840
823.55	5821
823.69	5771
823.83	5798
823.97	5764
824.11	5539
824.25	5608
824.389	5623
824.529	5630
824.669	5509
824.809	5646
824.949	5722
825.089	5672
825.228	5596
825.368	5440
825.508	5391
825.648	5395
825.787	5410
825.927	5410
826.067	5395
826.206	5322
826.346	5387
826.485	5452
826.625	5459
826.765	5581
826.904	5577
827.044	5288
827.183	5201
827.323	5147
827.462	5280
827.601	5170
827.741	5193
827.88	5250
828.02	5159
828.159	5322
828.298	5353
828.437	5440
828.577	5280
828.716	5501
828.855	5433
828.994	5189
829.134	5166
829.273	5170
829.412	5170
829.551	5204
829.69	5170
829.829	5231
829.968	5398
830.107	5334
830.246	5261
830.385	5147
830.524	5201
830.663	5109
830.802	4927
830.941	4919
831.08	4911
831.219	4999
831.357	5025
831.496	5212
831.635	4930
831.774	4835
831.913	4839
832.051	4778
832.19	4805
832.329	4843
832.467	4714
832.606	4683
832.744	4740
832.883	4752
833.022	4725
833.16	4824
833.299	4873
833.437	4816
833.576	4858
833.714	4873
833.852	4911
833.991	4961
834.129	5037
834.267	4999
834.406	4980
834.544	5037
834.682	5003
834.821	5018
834.959	5181
835.097	4999
835.235	5197
835.373	5132
835.511	5151
835.65	5029
835.788	5037
835.926	4965
836.064	4923
836.202	4942
836.34	5178
836.478	5193
836.615	5185
836.753	5220
836.891	5353
837.029	5239
837.167	5261
837.305	5178
837.443	5212
837.58	5136
837.718	5288
837.856	5235
837.993	5162
838.131	5235
838.269	5254
838.406	5239
838.544	5162
838.681	4995
838.819	5056
838.956	4927
839.094	4927
839.231	5022
839.369	5064
839.506	5421
839.643	5318
839.781	5124
839.918	5033
840.055	5128
840.193	5109
840.33	5147
840.467	5140
840.604	5265
840.742	5425
840.879	5041
841.016	5140
841.153	5159
841.29	5406
841.427	5349
841.564	5345
841.701	5440
841.838	5299
841.975	5326
842.112	5265
842.249	5143
842.385	5143
842.522	5379
842.659	5185
842.796	5166
842.933	5258
843.069	5216
843.206	5151
843.343	5273
843.479	5326
843.616	5201
843.752	5064
843.889	5006
844.025	5201
844.162	5094
844.298	5261
844.435	5143
844.571	5071
844.708	5193
844.844	5353
844.98	5364
845.117	5307
845.253	5090
845.389	5064
845.525	5147
845.661	5166
845.798	5094
845.934	5143
846.07	5090
846.206	5242
846.342	5330
846.478	5250
846.614	5022
846.75	4991
846.886	4968
847.022	5155
847.158	5079
847.294	5098
847.429	5117
847.565	5086
847.701	5345
847.837	4850
847.972	4824
848.108	4999
848.244	4968
848.379	4847
848.515	4767
848.65	4733
848.786	4793
848.921	4740
849.057	4862
849.192	4885
849.328	4812
849.463	4877
849.598	4824
849.734	4801
849.869	4698
850.004	4664
850.14	4645
850.275	4626
850.41	4554
850.545	4596
850.68	4634
850.815	4630
850.95	4588
851.085	4824
851.22	4812
851.355	4706
851.49	4653
851.625	4660
851.76	4668
851.895	4569
852.03	4535
852.165	4675
852.299	4744
852.434	4828
852.569	4752
852.703	4812
852.838	4858
852.973	4923
853.107	4923
853.242	4755
853.376	4698
853.511	4599
853.645	4660
853.78	4828
853.914	4675
854.048	4664
854.183	4660
854.317	4744
854.451	4858
854.585	4736
854.72	4683
854.854	4771
854.988	4626
855.122	4607
855.256	4554
855.39	4679
855.524	4820
855.658	4717
855.792	4710
855.926	4733
856.06	4786
856.194	4797
856.327	4717
856.461	4637
856.595	4679
856.729	4672
856.862	4714
856.996	4714
857.13	4729
857.263	4797
857.397	4812
857.53	4675
857.664	4778
857.797	4759
857.931	4763
858.064	4725
858.197	4748
858.331	4664
858.464	4656
858.597	4527
858.731	4664
858.864	4615
858.997	4596
859.13	4675
859.263	4736
859.396	4736
859.529	4592
859.662	4622
859.795	4512
859.928	4672
860.061	4790
860.194	4759
860.327	4641
860.46	4588
860.592	4710
860.725	4706
860.858	4729
860.99	4596
861.123	4519
861.256	4531
861.388	4637
861.521	5368
861.653	4512
861.786	4512
861.918	4466
862.05	4523
862.183	4611
862.315	4603
862.447	4702
862.58	4592
862.712	4451
862.844	4421
862.976	4519
863.108	4451
863.24	4892
863.372	4329
863.504	4428
863.636	4409
863.768	4474
863.9	4466
864.032	4405
864.164	4443
864.296	4493
864.428	4561
864.559	4535
864.691	4531
864.823	4516
864.954	4535
865.086	4504
865.217	4485
865.349	4413
865.48	4516
865.612	4546
865.743	4710
865.875	4512
866.006	4466
866.137	4535
866.269	4459
866.4	4462
866.531	4459
866.662	4383
866.793	4440
866.924	4428
867.055	4481
867.186	4462
867.317	4402
867.448	4413
867.579	4421
867.71	4383
867.841	4306
867.972	4538
868.103	4462
868.233	4466
868.364	4478
868.495	4531
868.625	4660
868.756	4771
868.886	4580
869.017	4615
869.147	4820
869.278	4733
869.408	4679
869.539	4691
869.669	4763
869.799	4664
869.929	4744
870.06	4763
870.19	4980
870.32	4949
870.45	5018
870.58	5056
870.71	5109
870.84	5140
870.97	4923
871.1	4927
871.23	5140
871.36	5121
871.489	5037
871.619	5048
871.749	5117
871.879	5155
872.008	5193
872.138	5067
872.267	4968
872.397	4877
872.526	4839
872.656	4755
872.785	4820
872.915	4927
873.044	5037
873.173	4972
873.303	5006
873.432	4984
873.561	4995
873.69	4831
873.819	4866
873.948	4908
874.077	4812
874.206	4786
874.335	4820
874.464	4953
874.593	5113
874.722	4987
874.851	5178
874.979	5083
875.108	5067
875.237	4915
875.365	4896
875.494	4930
875.623	4995
875.751	4854
875.88	4908
876.008	4949
876.136	5079
876.265	5216
876.393	5341
876.521	5311
876.65	5227
876.778	5159
876.906	5136
877.034	5014
877.162	5079
877.29	4999
877.418	5060
877.546	5022
877.674	5090
877.802	5018
877.93	5006
878.058	5003
878.185	4919
878.313	5018
878.441	4995
878.568	4824
878.696	4908
878.824	4976
878.951	4980
879.079	5113
879.206	5265
879.333	5159
879.461	4957
879.588	4995
879.715	5117
879.842	5250
879.97	5079
880.097	4824
880.224	4767
880.351	4850
880.478	4862
880.605	4831
880.732	4812
880.859	5079
880.986	4946
881.112	4961
881.239	4782
881.366	4675
881.493	4618
881.619	4599
881.746	4679
881.872	4687
881.999	4622
882.125	4687
882.252	4805
882.378	4809
882.505	4991
882.631	4858
882.757	4694
882.883	4717
883.01	4736
883.136	4733
883.262	4634
883.388	4626
883.514	4858
883.64	4854
883.766	4816
883.892	4672
884.018	4759
884.143	4900
884.269	4980
884.395	4714
884.52	4634
884.646	4687
884.772	4584
884.897	4580
885.023	4729
885.148	4805
885.274	4877
885.399	4831
885.524	4717
885.65	4755
885.775	4782
885.9	4771
886.025	4915
886.15	4854
886.275	4774
886.4	4725
886.525	4797
886.65	4755
886.775	4675
886.9	4923
887.025	5056
887.149	4824
887.274	4630
887.399	4580
887.523	4630
887.648	4569
887.773	4626
887.897	4752
888.021	4809
888.146	4683
888.27	4809
888.395	4866
888.519	4820
888.643	4866
888.767	4843
888.891	4679
889.015	4611
889.139	4687
889.263	4599
889.387	4752
889.511	4885
889.635	4805
889.759	4660
889.883	4645
890.006	4771
890.13	4873
890.254	4656
890.377	4698
890.501	4542
890.624	4577
890.748	4649
890.871	4508
890.995	4481
891.118	4413
891.241	4535
891.364	4588
891.488	4645
891.611	4485
891.734	4542
891.857	4641
891.98	4569
892.103	4694
892.226	4565
892.349	4500
892.471	4470
892.594	4512
892.717	4618
892.839	4584
892.962	4603
893.085	4683
893.207	4649
893.33	4459
893.452	4519
893.575	4649
893.697	4561
893.819	4847
893.941	4831
894.064	4782
894.186	4622
894.308	4558
894.43	4752
894.552	4862
894.674	4790
894.796	4542
894.918	4622
895.04	4565
895.161	4733
895.283	4611
895.405	4592
895.526	4694
895.648	4717
895.769	4740
895.891	4736
896.012	4710
896.134	4706
896.255	4687
896.376	4664
896.498	4607
896.619	4763
896.74	4634
896.861	4683
896.982	4965
897.103	5090
897.224	4896
897.345	4748
897.466	4702
897.587	4744
897.708	4892
897.828	4809
897.949	4668
898.07	4584
898.19	4649
898.311	4839
898.431	4759
898.552	4748
898.672	4858
898.792	4793
898.913	4752
899.033	4626
899.153	4512
899.273	4424
899.393	4519
899.513	4565
899.633	4527
899.753	4561
899.873	4573
899.993	4603
900.113	4550
900.232	4622
900.352	4508
900.472	4478
900.591	4436
900.711	4504
900.83	4459
900.95	4641
901.069	4729
901.189	4527
901.308	4371
901.427	4341
901.546	4356
901.665	4489
901.784	4535
901.904	4424
902.023	4299
902.141	4196
902.26	4181
902.379	4303
902.498	4268
902.617	4223
902.735	4383
902.854	4428
902.973	4417
903.091	4200
903.21	4219
903.328	4284
903.446	4268
903.565	4318
903.683	4402
903.801	4280
903.919	4386
904.038	4474
904.156	4341
904.274	4459
904.392	4409
904.51	4424
904.627	4474
904.745	4558
904.863	4634
904.981	4402
905.098	4314
905.216	4379
905.334	4474
905.451	4466
905.569	4436
905.686	4569
905.803	4546
905.921	4470
906.038	4584
906.155	4474
906.272	4436
906.389	4493
906.506	4386
906.623	4363
906.74	4402
906.857	4310
906.974	4402
907.091	4599
907.208	4672
907.324	4645
907.441	4550
907.557	4363
907.674	4344
907.79	4333
907.907	4432
908.023	4535
908.139	4546
908.256	4455
908.372	4474
908.488	4470
908.604	4398
908.72	4356
908.836	4402
908.952	4375
909.068	4489
909.184	4573
909.3	4485
909.415	4538
909.531	4603
909.647	4390
909.762	4383
909.878	4333
909.993	4493
910.108	4436
910.224	4451
910.339	4451
910.454	4424
910.57	4383
910.685	4314
910.8	4691
910.915	4637
911.03	4531
911.145	4390
911.259	4356
911.374	4367
911.489	4310
911.604	4272
911.718	4188
911.833	4207
911.947	4097
912.062	4051
912.176	4234
912.291	4280
912.405	4280
912.519	4493
912.633	4550
912.748	4379
912.862	4341
912.976	4246
913.09	4128
913.204	4162
913.318	4246
913.431	4413
913.545	4383
913.659	4462
913.772	4352
913.886	4287
914	4219
914.113	4379
914.226	4455
914.34	4371
914.453	4238
914.566	4432
914.68	4356
914.793	4329
914.906	4162
915.019	4158
915.132	4135
915.245	4196
915.358	4238
915.47	4287
915.583	4306
915.696	4363
915.809	4383
915.921	4451
916.034	4299
916.146	4253
916.259	4268
916.371	4379
916.483	4417
916.595	4284
916.708	4344
916.82	4356
916.932	4379
917.044	4341
917.156	4333
917.268	4242
917.38	4306
917.491	4310
917.603	4341
917.715	4470
917.826	4436
917.938	4371
918.049	4249
918.161	4402
918.272	4561
918.384	4535
918.495	4474
918.606	4329
918.717	4238
918.828	4363
918.939	4383
919.05	4246
919.161	4360
919.272	4147
919.383	4280
919.494	4497
919.604	4626
919.715	4451
919.826	4398
919.936	4402
920.047	4554
920.157	4504
920.267	4694
920.378	4573
920.488	4497
920.598	4740
920.708	4908
920.818	4778
920.928	4816
921.038	4911
921.148	4923
921.258	4622
921.368	4542
921.477	4558
921.587	4489
921.697	4386
921.806	4538
921.916	4443
922.025	4303
922.134	4276
922.244	4234
922.353	4337
922.462	4188
922.571	4162
922.68	4029
922.789	4021
922.898	4010
923.007	4017
923.116	4150
923.224	4109
923.333	4071
923.442	4021
923.55	4025
923.659	4074
923.767	4131
923.876	4059
923.984	4139
924.092	4021
924.201	4109
924.309	4128
924.417	4093
924.525	4074
924.633	4105
924.741	4949
924.849	3937
924.956	4177
925.064	3983
925.172	3941
925.279	3979
925.387	4048
925.494	4063
925.602	4276
925.709	4200
925.816	4063
925.924	4112
926.031	4257
926.138	4166
926.245	4188
926.352	4147
926.459	4276
926.566	4299
926.673	4188
926.779	4101
926.886	4109
926.993	4013
927.099	3930
927.206	4010
927.312	4040
927.419	4105
927.525	4051
927.631	4086
927.737	3945
927.843	3945
927.95	3869
928.056	4006
928.162	4002
928.267	4063
928.373	4645
928.479	4135
928.585	3941
928.69	3991
928.796	4078
928.901	4017
929.007	3869
929.112	4021
929.218	3968
929.323	3994
929.428	3945
929.533	4173
929.638	3934
929.743	4032
929.848	4071
929.953	4017
930.058	3926
930.163	3819
930.267	3857
930.372	3987
930.477	3831
930.581	4044
930.685	3987
930.79	3827
930.894	3899
930.998	3850
931.103	4059
931.207	3747
931.311	3717
931.415	3724
931.519	3549
931.623	3584
