Data from test_V78500241_65.txt Node
Date: Fri Mar 25 16:49:27 CST 2022
User: usil
Spectrometer: V785-0024
Trigger mode: 0
Integration Time (sec): 4.000000E-1
Scans to average: 1
Nonlinearity correction enabled: false
Boxcar width: 0
Storing dark spectrum: false
XAxis mode: Wavelengths
Number of Pixels in Spectrum: 1024
>>>>>Begin Spectral Data<<<<<
801.071	8065
801.214	8096
801.356	7917
801.499	7970
801.641	7879
801.783	7982
801.926	8058
802.068	7989
802.211	8054
802.353	8050
802.496	7959
802.638	7925
802.78	8016
802.923	8016
803.065	7894
803.208	7871
803.35	8031
803.492	8161
803.635	8191
803.777	7970
803.919	8157
804.061	8419
804.204	8176
804.346	8142
804.488	7982
804.63	8153
804.773	8062
804.915	8088
805.057	8309
805.199	8126
805.341	8187
805.483	8347
805.626	8271
805.768	8168
805.91	8229
806.052	8206
806.194	8149
806.336	8347
806.478	8202
806.62	8145
806.762	8244
806.904	8301
807.046	8480
807.188	8442
807.33	8309
807.472	8419
807.614	8145
807.756	8195
807.898	8115
808.04	7963
808.182	7959
808.324	7959
808.465	7959
808.607	8081
808.749	8134
808.891	8301
809.033	8282
809.174	8172
809.316	8107
809.458	8046
809.6	7986
809.741	8043
809.883	8077
810.025	8218
810.166	8115
810.308	8092
810.45	8084
810.591	7902
810.733	7792
810.875	7696
811.016	7605
811.158	7563
811.299	7666
811.441	7822
811.582	7731
811.724	7594
811.865	7666
812.007	7696
812.148	7719
812.29	7685
812.431	7807
812.573	7982
812.714	8050
812.855	8244
812.997	8301
813.138	8320
813.279	8244
813.421	8168
813.562	8081
813.703	7913
813.845	7788
813.986	7453
814.127	7251
814.268	7244
814.41	7274
814.551	7221
814.692	7236
814.833	7129
814.974	7213
815.115	7156
815.256	7004
815.397	6954
815.539	6989
815.68	6856
815.821	6863
815.962	6901
816.103	6901
816.244	6741
816.385	6715
816.526	6703
816.666	6551
816.807	6407
816.948	6566
817.089	6525
817.23	6395
817.371	6445
817.512	6388
817.653	6426
817.793	6460
817.934	6441
818.075	6540
818.216	6502
818.356	6563
818.497	6304
818.638	6186
818.778	6216
818.919	6190
819.06	6178
819.2	6365
819.341	6365
819.481	6410
819.622	6585
819.762	6878
819.903	6730
820.043	6688
820.184	6673
820.324	6604
820.465	6722
820.605	6703
820.746	6711
820.886	6578
821.026	6760
821.167	6738
821.307	6913
821.447	6776
821.588	6673
821.728	6650
821.868	6509
822.008	6426
822.149	6426
822.289	6391
822.429	6201
822.569	6114
822.709	6178
822.849	5939
822.99	5927
823.13	6041
823.27	5916
823.41	5828
823.55	5866
823.69	5847
823.83	5836
823.97	5748
824.11	5566
824.25	5592
824.389	5615
824.529	5615
824.669	5577
824.809	5638
824.949	5748
825.089	5665
825.228	5611
825.368	5459
825.508	5368
825.648	5387
825.787	5383
825.927	5440
826.067	5345
826.206	5341
826.346	5417
826.485	5478
826.625	5486
826.765	5581
826.904	5539
827.044	5353
827.183	5208
827.323	5201
827.462	5273
827.601	5181
827.741	5261
827.88	5273
828.02	5166
828.159	5265
828.298	5368
828.437	5436
828.577	5341
828.716	5532
828.855	5326
828.994	5208
829.134	5189
829.273	5178
829.412	5193
829.551	5140
829.69	5216
829.829	5250
829.968	5353
830.107	5341
830.246	5379
830.385	5216
830.524	5193
830.663	5105
830.802	5010
830.941	4930
831.08	4896
831.219	5037
831.357	5029
831.496	5185
831.635	4976
831.774	4908
831.913	4831
832.051	4793
832.19	4816
832.329	4858
832.467	4736
832.606	4653
832.744	4752
832.883	4740
833.022	4759
833.16	4820
833.299	4892
833.437	4896
833.576	4873
833.714	4870
833.852	4953
833.991	4919
834.129	4968
834.267	5022
834.406	4946
834.544	5048
834.682	5014
834.821	5025
834.959	5208
835.097	5018
835.235	5178
835.373	5159
835.511	5151
835.65	5064
835.788	5067
835.926	4961
836.064	4915
836.202	4965
836.34	5212
836.478	5242
836.615	5147
836.753	5246
836.891	5326
837.029	5273
837.167	5239
837.305	5280
837.443	5193
837.58	5113
837.718	5250
837.856	5227
837.993	5159
838.131	5273
838.269	5220
838.406	5254
838.544	5239
838.681	5067
838.819	5056
838.956	4972
839.094	4911
839.231	5041
839.369	5132
839.506	5452
839.643	5296
839.781	5079
839.918	5071
840.055	5052
840.193	5128
840.33	5151
840.467	5201
840.604	5197
840.742	5478
840.879	5094
841.016	5128
841.153	5216
841.29	5391
841.427	5376
841.564	5383
841.701	5398
841.838	5307
841.975	5330
842.112	5277
842.249	5197
842.385	5178
842.522	5379
842.659	5231
842.796	5265
842.933	5220
843.069	5201
843.206	5189
843.343	5318
843.479	5269
843.616	5315
843.752	5086
843.889	5075
844.025	5265
844.162	5079
844.298	5265
844.435	5193
844.571	5022
844.708	5288
844.844	5322
844.98	5364
845.117	5330
845.253	5121
845.389	5162
845.525	5227
845.661	5170
845.798	5075
845.934	5109
846.07	5105
846.206	5216
846.342	5303
846.478	5254
846.614	5067
846.75	5052
846.886	4972
847.022	5185
847.158	4995
847.294	5086
847.429	5124
847.565	5102
847.701	5326
847.837	4881
847.972	4843
848.108	5010
848.244	4999
848.379	4812
848.515	4782
848.65	4729
848.786	4790
848.921	4850
849.057	4858
849.192	4934
849.328	4873
849.463	4896
849.598	4786
849.734	4797
849.869	4733
850.004	4694
850.14	4679
850.275	4668
850.41	4592
850.545	4584
850.68	4637
850.815	4668
850.95	4672
851.085	4877
851.22	4809
851.355	4725
851.49	4675
851.625	4687
851.76	4702
851.895	4573
852.03	4603
852.165	4694
852.299	4771
852.434	4786
852.569	4752
852.703	4790
852.838	4870
852.973	5003
853.107	4968
853.242	4786
853.376	4717
853.511	4634
853.645	4615
853.78	4835
853.914	4664
854.048	4729
854.183	4691
854.317	4797
854.451	4889
854.585	4717
854.72	4717
854.854	4820
854.988	4645
855.122	4668
855.256	4542
855.39	4725
855.524	4835
855.658	4744
855.792	4740
855.926	4771
856.06	4793
856.194	4896
856.327	4744
856.461	4679
856.595	4622
856.729	4675
856.862	4801
856.996	4778
857.13	4736
857.263	4786
857.397	4877
857.53	4687
857.664	4782
857.797	4812
857.931	4843
858.064	4759
858.197	4771
858.331	4717
858.464	4679
858.597	4523
858.731	4679
858.864	4714
858.997	4641
859.13	4675
859.263	4710
859.396	4698
859.529	4599
859.662	4611
859.795	4634
859.928	4645
860.061	4805
860.194	4809
860.327	4626
860.46	4622
860.592	4721
860.725	4752
860.858	4782
860.99	4565
861.123	4622
861.256	4485
861.388	4687
861.521	5318
861.653	4550
861.786	4481
861.918	4519
862.05	4538
862.183	4637
862.315	4618
862.447	4675
862.58	4588
862.712	4440
862.844	4348
862.976	4523
863.108	4478
863.24	4938
863.372	4383
863.504	4500
863.636	4428
863.768	4497
863.9	4478
864.032	4413
864.164	4474
864.296	4523
864.428	4599
864.559	4577
864.691	4577
864.823	4531
864.954	4554
865.086	4531
865.217	4493
865.349	4428
865.48	4527
865.612	4497
865.743	4675
865.875	4519
866.006	4462
866.137	4489
866.269	4432
866.4	4474
866.531	4455
866.662	4440
866.793	4432
866.924	4447
867.055	4493
867.186	4497
867.317	4447
867.448	4398
867.579	4432
867.71	4394
867.841	4367
867.972	4459
868.103	4504
868.233	4459
868.364	4451
868.495	4512
868.625	4702
868.756	4793
868.886	4618
869.017	4637
869.147	4748
869.278	4801
869.408	4736
869.539	4706
869.669	4812
869.799	4660
869.929	4801
870.06	4790
870.19	4961
870.32	5045
870.45	4953
870.58	5041
870.71	5102
870.84	5109
870.97	4968
871.1	4930
871.23	5197
871.36	5178
871.489	5094
871.619	5117
871.749	5071
871.879	5151
872.008	5242
872.138	5109
872.267	4984
872.397	4919
872.526	4797
872.656	4820
872.785	4866
872.915	5003
873.044	5102
873.173	4968
873.303	4961
873.432	5041
873.561	4995
873.69	4896
873.819	4915
873.948	4927
874.077	4866
874.206	4759
874.335	4850
874.464	4965
874.593	5094
874.722	5010
874.851	5128
874.979	5102
875.108	5041
875.237	4934
875.365	4980
875.494	4930
875.623	4995
875.751	4858
875.88	4889
876.008	5018
876.136	5079
876.265	5269
876.393	5395
876.521	5269
876.65	5246
876.778	5151
876.906	5083
877.034	5071
877.162	5052
877.29	5003
877.418	5075
877.546	5083
877.674	5121
877.802	5033
877.93	5018
878.058	4968
878.185	4881
878.313	5041
878.441	4938
878.568	4850
878.696	4885
878.824	4965
878.951	5014
879.079	5231
879.206	5364
879.333	5155
879.461	5037
879.588	5022
879.715	5140
879.842	5239
879.97	5052
880.097	4797
880.224	4767
880.351	4873
880.478	4843
880.605	4831
880.732	4839
880.859	5132
880.986	4915
881.112	4976
881.239	4797
881.366	4752
881.493	4615
881.619	4596
881.746	4706
881.872	4626
881.999	4702
882.125	4767
882.252	4790
882.378	4908
882.505	4957
882.631	4889
882.757	4694
882.883	4767
883.01	4755
883.136	4729
883.262	4611
883.388	4634
883.514	4866
883.64	4847
883.766	4839
883.892	4725
884.018	4763
884.143	4908
884.269	5071
884.395	4725
884.52	4675
884.646	4653
884.772	4607
884.897	4577
885.023	4683
885.148	4839
885.274	4904
885.399	4843
885.524	4740
885.65	4759
885.775	4790
885.9	4763
886.025	4866
886.15	4824
886.275	4786
886.4	4710
886.525	4820
886.65	4721
886.775	4694
886.9	4930
887.025	5094
887.149	4862
887.274	4656
887.399	4618
887.523	4626
887.648	4622
887.773	4611
887.897	4805
888.021	4774
888.146	4721
888.27	4847
888.395	4923
888.519	4877
888.643	4870
888.767	4896
888.891	4710
889.015	4645
889.139	4702
889.263	4626
889.387	4820
889.511	4889
889.635	4835
889.759	4683
889.883	4702
890.006	4771
890.13	4873
890.254	4592
890.377	4710
890.501	4611
890.624	4599
890.748	4710
890.871	4542
890.995	4443
891.118	4459
891.241	4550
891.364	4516
891.488	4683
891.611	4565
891.734	4550
891.857	4702
891.98	4596
892.103	4630
892.226	4592
892.349	4535
892.471	4462
892.594	4622
892.717	4622
892.839	4603
892.962	4653
893.085	4691
893.207	4637
893.33	4504
893.452	4535
893.575	4725
893.697	4588
893.819	4873
893.941	4877
894.064	4763
894.186	4588
894.308	4634
894.43	4790
894.552	4786
894.674	4729
894.796	4565
894.918	4626
895.04	4607
895.161	4733
895.283	4687
895.405	4637
895.526	4664
895.648	4714
895.769	4736
895.891	4759
896.012	4733
896.134	4702
896.255	4748
896.376	4668
896.498	4664
896.619	4714
896.74	4668
896.861	4691
896.982	4980
897.103	5140
897.224	4877
897.345	4816
897.466	4683
897.587	4672
897.708	4885
897.828	4816
897.949	4740
898.07	4565
898.19	4694
898.311	4873
898.431	4763
898.552	4767
898.672	4839
898.792	4854
898.913	4786
899.033	4660
899.153	4512
899.273	4440
899.393	4531
899.513	4558
899.633	4577
899.753	4596
899.873	4565
899.993	4599
900.113	4641
900.232	4634
900.352	4535
900.472	4519
900.591	4421
900.711	4550
900.83	4512
900.95	4603
901.069	4733
901.189	4607
901.308	4409
901.427	4344
901.546	4386
901.665	4500
901.784	4512
901.904	4386
902.023	4394
902.141	4200
902.26	4211
902.379	4318
902.498	4280
902.617	4295
902.735	4367
902.854	4436
902.973	4402
903.091	4238
903.21	4276
903.328	4280
903.446	4299
903.565	4310
903.683	4379
903.801	4337
903.919	4443
904.038	4516
904.156	4363
904.274	4497
904.392	4481
904.51	4466
904.627	4531
904.745	4565
904.863	4679
904.981	4470
905.098	4314
905.216	4413
905.334	4462
905.451	4451
905.569	4424
905.686	4580
905.803	4561
905.921	4421
906.038	4588
906.155	4527
906.272	4413
906.389	4500
906.506	4363
906.623	4417
906.74	4466
906.857	4341
906.974	4379
907.091	4641
907.208	4748
907.324	4630
907.441	4565
907.557	4375
907.674	4371
907.79	4352
907.907	4451
908.023	4493
908.139	4573
908.256	4443
908.372	4485
908.488	4554
908.604	4386
908.72	4348
908.836	4390
908.952	4383
909.068	4462
909.184	4664
909.3	4523
909.415	4641
909.531	4592
909.647	4432
909.762	4409
909.878	4367
909.993	4459
910.108	4424
910.224	4443
910.339	4550
910.454	4466
910.57	4432
910.685	4379
910.8	4649
910.915	4622
911.03	4542
911.145	4363
911.259	4360
911.374	4413
911.489	4325
911.604	4360
911.718	4238
911.833	4238
911.947	4120
912.062	4071
912.176	4242
912.291	4257
912.405	4265
912.519	4516
912.633	4569
912.748	4367
912.862	4352
912.976	4268
913.09	4147
913.204	4219
913.318	4276
913.431	4459
913.545	4405
913.659	4466
913.772	4341
913.886	4314
914	4238
914.113	4405
914.226	4474
914.34	4424
914.453	4276
914.566	4451
914.68	4284
914.793	4386
914.906	4211
915.019	4188
915.132	4093
915.245	4223
915.358	4310
915.47	4299
915.583	4268
915.696	4329
915.809	4459
915.921	4478
916.034	4287
916.146	4318
916.259	4257
916.371	4424
916.483	4402
916.595	4253
916.708	4337
916.82	4398
916.932	4333
917.044	4329
917.156	4333
917.268	4246
917.38	4291
917.491	4291
917.603	4413
917.715	4462
917.826	4440
917.938	4417
918.049	4272
918.161	4459
918.272	4607
918.384	4580
918.495	4470
918.606	4318
918.717	4242
918.828	4398
918.939	4375
919.05	4295
919.161	4341
919.272	4173
919.383	4253
919.494	4519
919.604	4622
919.715	4462
919.826	4386
919.936	4417
920.047	4512
920.157	4538
920.267	4721
920.378	4573
920.488	4535
920.598	4721
920.708	4911
920.818	4847
920.928	4793
921.038	4987
921.148	4980
921.258	4706
921.368	4573
921.477	4512
921.587	4497
921.697	4413
921.806	4645
921.916	4447
922.025	4253
922.134	4329
922.244	4227
922.353	4409
922.462	4166
922.571	4116
922.68	4006
922.789	4029
922.898	4059
923.007	4044
923.116	4124
923.224	4124
923.333	4128
923.442	4032
923.55	4002
923.659	4055
923.767	4147
923.876	4048
923.984	4147
924.092	4021
924.201	4162
924.309	4120
924.417	4173
924.525	4067
924.633	4112
924.741	4900
924.849	3949
924.956	4162
925.064	3975
925.172	3979
925.279	4036
925.387	4074
925.494	4036
925.602	4211
925.709	4207
925.816	4048
925.924	4185
926.031	4242
926.138	4188
926.245	4238
926.352	4101
926.459	4238
926.566	4314
926.673	4158
926.779	4116
926.886	4116
926.993	4017
927.099	3960
927.206	3968
927.312	3960
927.419	4109
927.525	4059
927.631	4101
927.737	4013
927.843	3968
927.95	3899
928.056	3937
928.162	4013
928.267	4074
928.373	4679
928.479	4173
928.585	3911
928.69	4048
928.796	4090
928.901	4017
929.007	3899
929.112	4006
929.218	3975
929.323	3991
929.428	3987
929.533	4154
929.638	3972
929.743	3975
929.848	4067
929.953	4021
930.058	3975
930.163	3793
930.267	3846
930.372	4032
930.477	3861
930.581	4078
930.685	3968
930.79	3835
930.894	3899
930.998	3846
931.103	4090
931.207	3743
931.311	3724
931.415	3709
931.519	3534
931.623	3538
