Data from test_V78500241_769.txt Node
Date: Fri Mar 25 16:54:21 CST 2022
User: usil
Spectrometer: V785-0024
Trigger mode: 0
Integration Time (sec): 4.000000E-1
Scans to average: 1
Nonlinearity correction enabled: false
Boxcar width: 0
Storing dark spectrum: false
XAxis mode: Wavelengths
Number of Pixels in Spectrum: 1024
>>>>>Begin Spectral Data<<<<<
801.071	8088
801.214	8005
801.356	7959
801.499	7879
801.641	7811
801.783	7879
801.926	7947
802.068	7947
802.211	7970
802.353	8035
802.496	7890
802.638	7906
802.78	7906
802.923	7902
803.065	7875
803.208	7909
803.35	7978
803.492	8111
803.635	8138
803.777	8024
803.919	8088
804.061	8438
804.204	8130
804.346	8001
804.488	7921
804.63	8130
804.773	8077
804.915	8092
805.057	8309
805.199	8202
805.341	8183
805.483	8252
805.626	8206
805.768	8153
805.91	8252
806.052	8206
806.194	8149
806.336	8286
806.478	8046
806.62	8123
806.762	8157
806.904	8240
807.046	8442
807.188	8351
807.33	8305
807.472	8358
807.614	8153
807.756	8168
807.898	8016
808.04	7955
808.182	7898
808.324	7967
808.465	7955
808.607	8103
808.749	8145
808.891	8199
809.033	8309
809.174	8259
809.316	8058
809.458	8046
809.6	8035
809.741	8027
809.883	8081
810.025	8050
810.166	8119
810.308	8046
810.45	8005
810.591	7940
810.733	7753
810.875	7715
811.016	7552
811.158	7529
811.299	7643
811.441	7727
811.582	7681
811.724	7529
811.865	7529
812.007	7605
812.148	7537
812.29	7662
812.431	7685
812.573	7845
812.714	7944
812.855	8172
812.997	8180
813.138	8279
813.279	8168
813.421	8119
813.562	8058
813.703	7830
813.845	7753
813.986	7472
814.127	7297
814.268	7263
814.41	7202
814.551	7103
814.692	7141
814.833	7095
814.974	7118
815.115	7126
815.256	6996
815.397	6966
815.539	6951
815.68	6878
815.821	6764
815.962	6829
816.103	6863
816.244	6730
816.385	6662
816.526	6639
816.666	6540
816.807	6323
816.948	6403
817.089	6452
817.23	6490
817.371	6350
817.512	6422
817.653	6414
817.793	6361
817.934	6456
818.075	6502
818.216	6452
818.356	6433
818.497	6209
818.638	6098
818.778	6201
818.919	6133
819.06	6106
819.2	6285
819.341	6357
819.481	6376
819.622	6540
819.762	6734
819.903	6722
820.043	6639
820.184	6574
820.324	6544
820.465	6707
820.605	6658
820.746	6684
820.886	6506
821.026	6658
821.167	6658
821.307	6837
821.447	6791
821.588	6662
821.728	6620
821.868	6506
822.008	6346
822.149	6403
822.289	6334
822.429	6213
822.569	6110
822.709	6045
822.849	5923
822.99	5923
823.13	5904
823.27	5977
823.41	5745
823.55	5764
823.69	5722
823.83	5760
823.97	5642
824.11	5566
824.25	5516
824.389	5528
824.529	5596
824.669	5547
824.809	5623
824.949	5638
825.089	5680
825.228	5551
825.368	5376
825.508	5383
825.648	5368
825.787	5360
825.927	5406
826.067	5296
826.206	5280
826.346	5410
826.485	5398
826.625	5406
826.765	5608
826.904	5455
827.044	5269
827.183	5208
827.323	5143
827.462	5201
827.601	5132
827.741	5159
827.88	5254
828.02	5121
828.159	5265
828.298	5311
828.437	5349
828.577	5269
828.716	5512
828.855	5353
828.994	5181
829.134	5143
829.273	5174
829.412	5151
829.551	5151
829.69	5166
829.829	5265
829.968	5376
830.107	5269
830.246	5318
830.385	5220
830.524	5143
830.663	5037
830.802	4946
830.941	4881
831.08	4919
831.219	4995
831.357	4957
831.496	5178
831.635	4953
831.774	4896
831.913	4866
832.051	4755
832.19	4744
832.329	4820
832.467	4729
832.606	4630
832.744	4752
832.883	4729
833.022	4710
833.16	4771
833.299	4816
833.437	4828
833.576	4812
833.714	4873
833.852	4873
833.991	4870
834.129	4949
834.267	4949
834.406	4900
834.544	4980
834.682	4957
834.821	4984
834.959	5162
835.097	5022
835.235	5151
835.373	5071
835.511	5064
835.65	5098
835.788	5010
835.926	4911
836.064	4881
836.202	4919
836.34	5197
836.478	5193
836.615	5117
836.753	5227
836.891	5296
837.029	5220
837.167	5231
837.305	5189
837.443	5105
837.58	5071
837.718	5258
837.856	5178
837.993	5185
838.131	5197
838.269	5250
838.406	5239
838.544	5162
838.681	5041
838.819	5018
838.956	4889
839.094	4957
839.231	4980
839.369	5056
839.506	5421
839.643	5250
839.781	5094
839.918	5003
840.055	5052
840.193	5079
840.33	5170
840.467	5086
840.604	5239
840.742	5417
840.879	5064
841.016	5140
841.153	5174
841.29	5364
841.427	5337
841.564	5353
841.701	5353
841.838	5318
841.975	5220
842.112	5273
842.249	5128
842.385	5128
842.522	5395
842.659	5166
842.796	5201
842.933	5166
843.069	5147
843.206	5197
843.343	5250
843.479	5227
843.616	5239
843.752	5060
843.889	5006
844.025	5216
844.162	5048
844.298	5204
844.435	5102
844.571	5052
844.708	5216
844.844	5345
844.98	5349
845.117	5288
845.253	5132
845.389	5067
845.525	5185
845.661	5094
845.798	5071
845.934	5117
846.07	5052
846.206	5204
846.342	5296
846.478	5189
846.614	5064
846.75	5048
846.886	4938
847.022	5162
847.158	5006
847.294	5098
847.429	5060
847.565	5079
847.701	5307
847.837	4862
847.972	4820
848.108	4949
848.244	4957
848.379	4828
848.515	4736
848.65	4702
848.786	4744
848.921	4786
849.057	4866
849.192	4908
849.328	4835
849.463	4919
849.598	4809
849.734	4736
849.869	4714
850.004	4683
850.14	4649
850.275	4603
850.41	4580
850.545	4569
850.68	4641
850.815	4641
850.95	4660
851.085	4866
851.22	4828
851.355	4691
851.49	4672
851.625	4656
851.76	4683
851.895	4527
852.03	4535
852.165	4637
852.299	4771
852.434	4828
852.569	4793
852.703	4786
852.838	4866
852.973	4957
853.107	4984
853.242	4721
853.376	4698
853.511	4550
853.645	4656
853.78	4812
853.914	4691
854.048	4687
854.183	4653
854.317	4702
854.451	4877
854.585	4729
854.72	4679
854.854	4774
854.988	4630
855.122	4653
855.256	4558
855.39	4729
855.524	4831
855.658	4771
855.792	4752
855.926	4809
856.06	4812
856.194	4839
856.327	4755
856.461	4622
856.595	4622
856.729	4664
856.862	4820
856.996	4725
857.13	4706
857.263	4828
857.397	4873
857.53	4717
857.664	4755
857.797	4850
857.931	4809
858.064	4721
858.197	4816
858.331	4717
858.464	4603
858.597	4546
858.731	4649
858.864	4660
858.997	4630
859.13	4675
859.263	4653
859.396	4710
859.529	4634
859.662	4569
859.795	4584
859.928	4675
860.061	4820
860.194	4771
860.327	4615
860.46	4637
860.592	4717
860.725	4736
860.858	4748
860.99	4618
861.123	4558
861.256	4554
861.388	4554
861.521	5395
861.653	4504
861.786	4466
861.918	4512
862.05	4592
862.183	4603
862.315	4618
862.447	4702
862.58	4618
862.712	4428
862.844	4352
862.976	4474
863.108	4489
863.24	4866
863.372	4375
863.504	4398
863.636	4440
863.768	4497
863.9	4443
864.032	4386
864.164	4402
864.296	4527
864.428	4599
864.559	4588
864.691	4516
864.823	4550
864.954	4481
865.086	4523
865.217	4462
865.349	4493
865.48	4500
865.612	4493
865.743	4645
865.875	4432
866.006	4443
866.137	4516
866.269	4470
866.4	4424
866.531	4455
866.662	4424
866.793	4375
866.924	4443
867.055	4485
867.186	4470
867.317	4440
867.448	4390
867.579	4390
867.71	4394
867.841	4432
867.972	4481
868.103	4493
868.233	4485
868.364	4497
868.495	4512
868.625	4691
868.756	4828
868.886	4561
869.017	4615
869.147	4793
869.278	4778
869.408	4615
869.539	4706
869.669	4740
869.799	4675
869.929	4755
870.06	4782
870.19	4972
870.32	4942
870.45	4961
870.58	5010
870.71	5124
870.84	5181
870.97	4965
871.1	4915
871.23	5216
871.36	5208
871.489	5075
871.619	5086
871.749	5140
871.879	5174
872.008	5193
872.138	5083
872.267	5041
872.397	4904
872.526	4828
872.656	4786
872.785	4850
872.915	4942
873.044	4999
873.173	4946
873.303	4961
873.432	4976
873.561	5018
873.69	4934
873.819	4957
873.948	4877
874.077	4862
874.206	4790
874.335	4877
874.464	4980
874.593	5079
874.722	4949
874.851	5162
874.979	5098
875.108	5067
875.237	4934
875.365	4908
875.494	4957
875.623	4957
875.751	4850
875.88	4908
876.008	5029
876.136	5052
876.265	5178
876.393	5402
876.521	5277
876.65	5223
876.778	5159
876.906	5113
877.034	5067
877.162	5071
877.29	5025
877.418	5090
877.546	5124
877.674	5079
877.802	5006
877.93	5075
878.058	4995
878.185	4915
878.313	4987
878.441	4972
878.568	4809
878.696	4877
878.824	4946
878.951	4991
879.079	5128
879.206	5307
879.333	5128
879.461	5041
879.588	5018
879.715	5132
879.842	5303
879.97	4991
880.097	4820
880.224	4771
880.351	4877
880.478	4847
880.605	4793
880.732	4839
880.859	5098
880.986	4949
881.112	4911
881.239	4797
881.366	4721
881.493	4672
881.619	4637
881.746	4649
881.872	4694
881.999	4653
882.125	4694
882.252	4752
882.378	4843
882.505	4980
882.631	4763
882.757	4725
882.883	4767
883.01	4801
883.136	4714
883.262	4634
883.388	4672
883.514	4782
883.64	4866
883.766	4809
883.892	4694
884.018	4694
884.143	4828
884.269	5010
884.395	4679
884.52	4656
884.646	4683
884.772	4592
884.897	4615
885.023	4675
885.148	4812
885.274	4847
885.399	4831
885.524	4763
885.65	4710
885.775	4729
885.9	4725
886.025	4911
886.15	4771
886.275	4748
886.4	4649
886.525	4763
886.65	4687
886.775	4755
886.9	4911
887.025	5048
887.149	4843
887.274	4664
887.399	4577
887.523	4618
887.648	4577
887.773	4573
887.897	4778
888.021	4812
888.146	4687
888.27	4877
888.395	4957
888.519	4843
888.643	4862
888.767	4854
888.891	4706
889.015	4626
889.139	4653
889.263	4611
889.387	4778
889.511	4835
889.635	4835
889.759	4615
889.883	4668
890.006	4736
890.13	4828
890.254	4592
890.377	4687
890.501	4630
890.624	4535
890.748	4656
890.871	4558
890.995	4447
891.118	4428
891.241	4527
891.364	4531
891.488	4687
891.611	4531
891.734	4592
891.857	4649
891.98	4554
892.103	4626
892.226	4637
892.349	4538
892.471	4481
892.594	4573
892.717	4596
892.839	4603
892.962	4618
893.085	4698
893.207	4626
893.33	4474
893.452	4531
893.575	4691
893.697	4630
893.819	4847
893.941	4839
894.064	4771
894.186	4569
894.308	4550
894.43	4763
894.552	4828
894.674	4843
894.796	4596
894.918	4649
895.04	4577
895.161	4767
895.283	4698
895.405	4599
895.526	4679
895.648	4675
895.769	4721
895.891	4687
896.012	4767
896.134	4710
896.255	4706
896.376	4634
896.498	4656
896.619	4668
896.74	4622
896.861	4656
896.982	4919
897.103	5056
897.224	4831
897.345	4752
897.466	4694
897.587	4725
897.708	4889
897.828	4790
897.949	4679
898.07	4611
898.19	4710
898.311	4831
898.431	4721
898.552	4752
898.672	4839
898.792	4778
898.913	4774
899.033	4668
899.153	4519
899.273	4462
899.393	4531
899.513	4508
899.633	4538
899.753	4527
899.873	4565
899.993	4641
900.113	4523
900.232	4607
900.352	4588
900.472	4489
900.591	4417
900.711	4481
900.83	4451
900.95	4630
901.069	4664
901.189	4580
901.308	4363
901.427	4303
901.546	4383
901.665	4478
901.784	4561
901.904	4443
902.023	4348
902.141	4242
902.26	4181
902.379	4299
902.498	4261
902.617	4261
902.735	4383
902.854	4394
902.973	4341
903.091	4204
903.21	4268
903.328	4265
903.446	4318
903.565	4246
903.683	4363
903.801	4306
903.919	4424
904.038	4474
904.156	4356
904.274	4470
904.392	4440
904.51	4451
904.627	4523
904.745	4550
904.863	4645
904.981	4421
905.098	4333
905.216	4405
905.334	4443
905.451	4451
905.569	4409
905.686	4584
905.803	4569
905.921	4462
906.038	4558
906.155	4497
906.272	4375
906.389	4481
906.506	4421
906.623	4348
906.74	4386
906.857	4310
906.974	4413
907.091	4588
907.208	4729
907.324	4584
907.441	4558
907.557	4360
907.674	4360
907.79	4371
907.907	4447
908.023	4500
908.139	4535
908.256	4440
908.372	4409
908.488	4443
908.604	4356
908.72	4318
908.836	4367
908.952	4409
909.068	4459
909.184	4599
909.3	4497
909.415	4577
909.531	4546
909.647	4325
909.762	4402
909.878	4360
909.993	4436
910.108	4398
910.224	4383
910.339	4523
910.454	4424
910.57	4379
910.685	4344
910.8	4672
910.915	4653
911.03	4485
911.145	4287
911.259	4322
911.374	4394
911.489	4325
911.604	4322
911.718	4169
911.833	4181
911.947	4086
912.062	4051
912.176	4234
912.291	4265
912.405	4238
912.519	4516
912.633	4523
912.748	4348
912.862	4360
912.976	4196
913.09	4131
913.204	4196
913.318	4249
913.431	4402
913.545	4356
913.659	4443
913.772	4379
913.886	4219
914	4223
914.113	4398
914.226	4440
914.34	4386
914.453	4246
914.566	4497
914.68	4363
914.793	4306
914.906	4177
915.019	4173
915.132	4135
915.245	4223
915.358	4234
915.47	4287
915.583	4238
915.696	4265
915.809	4478
915.921	4394
916.034	4253
916.146	4242
916.259	4238
916.371	4417
916.483	4322
916.595	4295
916.708	4318
916.82	4367
916.932	4310
917.044	4363
917.156	4329
917.268	4215
917.38	4287
917.491	4306
917.603	4318
917.715	4428
917.826	4413
917.938	4348
918.049	4215
918.161	4383
918.272	4607
918.384	4542
918.495	4413
918.606	4272
918.717	4223
918.828	4318
918.939	4390
919.05	4253
919.161	4329
919.272	4185
919.383	4242
919.494	4451
919.604	4622
919.715	4436
919.826	4383
919.936	4405
920.047	4523
920.157	4497
920.267	4725
920.378	4550
920.488	4504
920.598	4702
920.708	4892
920.818	4759
920.928	4820
921.038	4980
921.148	4953
921.258	4622
921.368	4550
921.477	4554
921.587	4459
921.697	4371
921.806	4584
921.916	4470
922.025	4234
922.134	4295
922.244	4230
922.353	4360
922.462	4215
922.571	4139
922.68	4010
922.789	4002
922.898	4044
923.007	4013
923.116	4128
923.224	4063
923.333	4059
923.442	3994
923.55	3979
923.659	4074
923.767	4120
923.876	3998
923.984	4169
924.092	3991
924.201	4071
924.309	4090
924.417	4147
924.525	4036
924.633	4139
924.741	4934
924.849	3926
924.956	4101
925.064	3922
925.172	3941
925.279	3991
925.387	4082
925.494	4048
925.602	4234
925.709	4181
925.816	4048
925.924	4112
926.031	4219
926.138	4177
926.245	4188
926.352	4131
926.459	4268
926.566	4325
926.673	4131
926.779	4074
926.886	4112
926.993	3994
927.099	3979
927.206	3937
927.312	3941
927.419	4059
927.525	4044
927.631	4101
927.737	3968
927.843	3911
927.95	3846
928.056	3934
928.162	3968
928.267	4055
928.373	4626
928.479	4135
928.585	3857
928.69	4025
928.796	4067
928.901	3998
929.007	3804
929.112	3987
929.218	3953
929.323	3941
929.428	3934
929.533	4109
929.638	3876
929.743	3956
929.848	4074
929.953	4017
930.058	3922
930.163	3766
930.267	3800
930.372	3994
930.477	3770
930.581	4082
930.685	3945
930.79	3812
930.894	3884
930.998	3896
931.103	4067
931.207	3701
931.311	3682
931.415	3671
931.519	3526
931.623	3587
