Data from test_V78500241_850.txt Node
Date: Fri Mar 25 16:54:54 CST 2022
User: usil
Spectrometer: V785-0024
Trigger mode: 0
Integration Time (sec): 4.000000E-1
Scans to average: 1
Nonlinearity correction enabled: false
Boxcar width: 0
Storing dark spectrum: false
XAxis mode: Wavelengths
Number of Pixels in Spectrum: 1024
>>>>>Begin Spectral Data<<<<<
801.071	8001
801.214	8107
801.356	7811
801.499	7830
801.641	7776
801.783	7887
801.926	8001
802.068	7890
802.211	7940
802.353	7913
802.496	7852
802.638	7898
802.78	7830
802.923	7875
803.065	7894
803.208	7830
803.35	7955
803.492	8088
803.635	8206
803.777	8001
803.919	8096
804.061	8362
804.204	8115
804.346	8008
804.488	7955
804.63	8096
804.773	8001
804.915	8054
805.057	8267
805.199	8145
805.341	8126
805.483	8237
805.626	8134
805.768	8191
805.91	8130
806.052	8138
806.194	8126
806.336	8267
806.478	8077
806.62	8031
806.762	8142
806.904	8199
807.046	8427
807.188	8313
807.33	8240
807.472	8313
807.614	8134
807.756	8172
807.898	7902
808.04	7906
808.182	7788
808.324	7883
808.465	7921
808.607	7989
808.749	8100
808.891	8138
809.033	8279
809.174	8168
809.316	8073
809.458	8046
809.6	7986
809.741	8069
809.883	8069
810.025	8103
810.166	8096
810.308	7982
810.45	8054
810.591	7799
810.733	7636
810.875	7651
811.016	7540
811.158	7419
811.299	7597
811.441	7731
811.582	7655
811.724	7632
811.865	7521
812.007	7582
812.148	7578
812.29	7537
812.431	7651
812.573	7780
812.714	7963
812.855	8077
812.997	8153
813.138	8275
813.279	8164
813.421	8077
813.562	8039
813.703	7776
813.845	7784
813.986	7499
814.127	7255
814.268	7221
814.41	7187
814.551	7141
814.692	7084
814.833	7015
814.974	7042
815.115	7080
815.256	6939
815.397	6882
815.539	6954
815.68	6787
815.821	6791
815.962	6791
816.103	6825
816.244	6745
816.385	6642
816.526	6639
816.666	6483
816.807	6338
816.948	6346
817.089	6429
817.23	6403
817.371	6353
817.512	6395
817.653	6391
817.793	6361
817.934	6391
818.075	6483
818.216	6407
818.356	6346
818.497	6258
818.638	6038
818.778	6144
818.919	6167
819.06	6148
819.2	6262
819.341	6266
819.481	6346
819.622	6525
819.762	6760
819.903	6681
820.043	6593
820.184	6585
820.324	6544
820.465	6646
820.605	6642
820.746	6623
820.886	6509
821.026	6563
821.167	6658
821.307	6810
821.447	6818
821.588	6642
821.728	6589
821.868	6464
822.008	6323
822.149	6327
822.289	6376
822.429	6152
822.569	6076
822.709	6114
822.849	5836
822.99	5904
823.13	5923
823.27	5889
823.41	5767
823.55	5691
823.69	5748
823.83	5798
823.97	5649
824.11	5547
824.25	5482
824.389	5543
824.529	5558
824.669	5543
824.809	5688
824.949	5707
825.089	5596
825.228	5520
825.368	5402
825.508	5307
825.648	5326
825.787	5406
825.927	5376
826.067	5284
826.206	5288
826.346	5379
826.485	5387
826.625	5440
826.765	5505
826.904	5425
827.044	5288
827.183	5178
827.323	5102
827.462	5162
827.601	5216
827.741	5170
827.88	5193
828.02	5102
828.159	5208
828.298	5258
828.437	5337
828.577	5258
828.716	5448
828.855	5280
828.994	5136
829.134	5140
829.273	5223
829.412	5102
829.551	5094
829.69	5132
829.829	5250
829.968	5360
830.107	5265
830.246	5231
830.385	5151
830.524	5124
830.663	5052
830.802	4946
830.941	4858
831.08	4881
831.219	4965
831.357	4980
831.496	5143
831.635	4938
831.774	4824
831.913	4809
832.051	4706
832.19	4725
832.329	4828
832.467	4683
832.606	4649
832.744	4698
832.883	4698
833.022	4698
833.16	4744
833.299	4828
833.437	4786
833.576	4793
833.714	4843
833.852	4828
833.991	4881
834.129	4942
834.267	4949
834.406	4904
834.544	4930
834.682	4911
834.821	4946
834.959	5140
835.097	4942
835.235	5151
835.373	5098
835.511	5045
835.65	5014
835.788	4976
835.926	4908
836.064	4889
836.202	4904
836.34	5147
836.478	5216
836.615	5151
836.753	5178
836.891	5299
837.029	5246
837.167	5162
837.305	5143
837.443	5147
837.58	5067
837.718	5296
837.856	5235
837.993	5124
838.131	5201
838.269	5220
838.406	5197
838.544	5181
838.681	5003
838.819	4991
838.956	4854
839.094	4854
839.231	4946
839.369	5037
839.506	5379
839.643	5265
839.781	5067
839.918	5010
840.055	5086
840.193	5090
840.33	5025
840.467	5102
840.604	5151
840.742	5383
840.879	5041
841.016	5052
841.153	5140
841.29	5417
841.427	5315
841.564	5288
841.701	5349
841.838	5269
841.975	5223
842.112	5254
842.249	5162
842.385	5079
842.522	5349
842.659	5162
842.796	5151
842.933	5220
843.069	5140
843.206	5098
843.343	5296
843.479	5185
843.616	5204
843.752	5010
843.889	4930
844.025	5204
844.162	5010
844.298	5181
844.435	5041
844.571	5029
844.708	5235
844.844	5292
844.98	5364
845.117	5250
845.253	5166
845.389	5045
845.525	5132
845.661	5083
845.798	5010
845.934	5147
846.07	5048
846.206	5174
846.342	5208
846.478	5193
846.614	4976
846.75	4949
846.886	4968
847.022	5132
847.158	5014
847.294	5029
847.429	5090
847.565	5025
847.701	5341
847.837	4820
847.972	4812
848.108	4957
848.244	4968
848.379	4759
848.515	4748
848.65	4714
848.786	4710
848.921	4763
849.057	4824
849.192	4881
849.328	4820
849.463	4847
849.598	4744
849.734	4714
849.869	4653
850.004	4542
850.14	4607
850.275	4611
850.41	4519
850.545	4577
850.68	4577
850.815	4622
850.95	4653
851.085	4790
851.22	4733
851.355	4630
851.49	4611
851.625	4622
851.76	4611
851.895	4550
852.03	4527
852.165	4634
852.299	4694
852.434	4771
852.569	4717
852.703	4759
852.838	4778
852.973	4889
853.107	4866
853.242	4744
853.376	4660
853.511	4497
853.645	4577
853.78	4797
853.914	4675
854.048	4660
854.183	4611
854.317	4668
854.451	4805
854.585	4630
854.72	4603
854.854	4771
854.988	4516
855.122	4687
855.256	4516
855.39	4645
855.524	4767
855.658	4664
855.792	4664
855.926	4679
856.06	4759
856.194	4748
856.327	4653
856.461	4615
856.595	4603
856.729	4634
856.862	4721
856.996	4675
857.13	4767
857.263	4759
857.397	4786
857.53	4615
857.664	4733
857.797	4710
857.931	4786
858.064	4679
858.197	4729
858.331	4637
858.464	4615
858.597	4497
858.731	4611
858.864	4615
858.997	4599
859.13	4664
859.263	4687
859.396	4694
859.529	4542
859.662	4588
859.795	4580
859.928	4611
860.061	4752
860.194	4744
860.327	4550
860.46	4535
860.592	4702
860.725	4717
860.858	4698
860.99	4538
861.123	4523
861.256	4474
861.388	4603
861.521	5288
861.653	4497
861.786	4436
861.918	4443
862.05	4478
862.183	4569
862.315	4592
862.447	4645
862.58	4527
862.712	4363
862.844	4337
862.976	4451
863.108	4421
863.24	4729
863.372	4367
863.504	4390
863.636	4360
863.768	4451
863.9	4398
864.032	4371
864.164	4341
864.296	4493
864.428	4550
864.559	4580
864.691	4500
864.823	4523
864.954	4459
865.086	4535
865.217	4443
865.349	4421
865.48	4436
865.612	4481
865.743	4607
865.875	4508
866.006	4421
866.137	4417
866.269	4459
866.4	4379
866.531	4402
866.662	4363
866.793	4413
866.924	4424
867.055	4481
867.186	4451
867.317	4356
867.448	4390
867.579	4341
867.71	4413
867.841	4329
867.972	4451
868.103	4462
868.233	4443
868.364	4470
868.495	4485
868.625	4683
868.756	4721
868.886	4535
869.017	4615
869.147	4771
869.278	4744
869.408	4637
869.539	4584
869.669	4717
869.799	4584
869.929	4793
870.06	4714
870.19	4934
870.32	4930
870.45	4919
870.58	5010
870.71	5132
870.84	5094
870.97	4892
871.1	4896
871.23	5056
871.36	5132
871.489	5014
871.619	5064
871.749	5094
871.879	5083
872.008	5212
872.138	5014
872.267	4957
872.397	4812
872.526	4805
872.656	4721
872.785	4755
872.915	4923
873.044	4999
873.173	4843
873.303	4987
873.432	4953
873.561	4938
873.69	4892
873.819	4854
873.948	4843
874.077	4835
874.206	4733
874.335	4839
874.464	4854
874.593	5075
874.722	4934
874.851	5113
874.979	5060
875.108	5060
875.237	4915
875.365	4877
875.494	4870
875.623	4984
875.751	4805
875.88	4828
876.008	4919
876.136	4999
876.265	5181
876.393	5284
876.521	5223
876.65	5212
876.778	5113
876.906	5018
877.034	4984
877.162	5014
877.29	4957
877.418	5041
877.546	5048
877.674	5067
877.802	5006
877.93	5014
878.058	4889
878.185	4866
878.313	4961
878.441	4946
878.568	4805
878.696	4866
878.824	4927
878.951	4942
879.079	5102
879.206	5307
879.333	5067
879.461	4946
879.588	5018
879.715	5075
879.842	5227
879.97	4991
880.097	4763
880.224	4752
880.351	4748
880.478	4771
880.605	4778
880.732	4744
880.859	5067
880.986	4904
881.112	4896
881.239	4790
881.366	4664
881.493	4580
881.619	4599
881.746	4611
881.872	4622
881.999	4634
882.125	4706
882.252	4759
882.378	4820
882.505	4987
882.631	4839
882.757	4668
882.883	4744
883.01	4721
883.136	4710
883.262	4630
883.388	4637
883.514	4797
883.64	4866
883.766	4733
883.892	4641
884.018	4687
884.143	4896
884.269	5029
884.395	4683
884.52	4615
884.646	4630
884.772	4577
884.897	4596
885.023	4611
885.148	4736
885.274	4904
885.399	4816
885.524	4683
885.65	4710
885.775	4740
885.9	4645
886.025	4870
886.15	4816
886.275	4687
886.4	4637
886.525	4653
886.65	4672
886.775	4649
886.9	4881
887.025	5033
887.149	4793
887.274	4641
887.399	4565
887.523	4580
887.648	4538
887.773	4558
887.897	4721
888.021	4778
888.146	4664
888.27	4793
888.395	4881
888.519	4782
888.643	4771
888.767	4839
888.891	4641
889.015	4565
889.139	4588
889.263	4588
889.387	4694
889.511	4816
889.635	4744
889.759	4630
889.883	4672
890.006	4683
890.13	4812
890.254	4618
890.377	4691
890.501	4489
890.624	4516
890.748	4626
890.871	4516
890.995	4436
891.118	4386
891.241	4474
891.364	4470
891.488	4588
891.611	4512
891.734	4512
891.857	4577
891.98	4573
892.103	4592
892.226	4538
892.349	4527
892.471	4379
892.594	4523
892.717	4588
892.839	4527
892.962	4588
893.085	4637
893.207	4615
893.33	4459
893.452	4489
893.575	4641
893.697	4519
893.819	4778
893.941	4816
894.064	4790
894.186	4569
894.308	4538
894.43	4702
894.552	4774
894.674	4748
894.796	4519
894.918	4584
895.04	4535
895.161	4679
895.283	4649
895.405	4599
895.526	4607
895.648	4687
895.769	4679
895.891	4698
896.012	4729
896.134	4714
896.255	4683
896.376	4622
896.498	4577
896.619	4641
896.74	4626
896.861	4630
896.982	4889
897.103	5064
897.224	4831
897.345	4748
897.466	4656
897.587	4679
897.708	4847
897.828	4752
897.949	4599
898.07	4569
898.19	4626
898.311	4828
898.431	4626
898.552	4702
898.672	4820
898.792	4816
898.913	4725
899.033	4611
899.153	4466
899.273	4398
899.393	4470
899.513	4527
899.633	4474
899.753	4504
899.873	4504
899.993	4577
900.113	4550
900.232	4573
900.352	4516
900.472	4493
900.591	4318
900.711	4451
900.83	4436
900.95	4626
901.069	4615
901.189	4508
901.308	4352
901.427	4299
901.546	4356
901.665	4417
901.784	4516
901.904	4379
902.023	4329
902.141	4166
902.26	4131
902.379	4265
902.498	4242
902.617	4196
902.735	4329
902.854	4348
902.973	4306
903.091	4227
903.21	4192
903.328	4246
903.446	4257
903.565	4268
903.683	4360
903.801	4265
903.919	4367
904.038	4390
904.156	4280
904.274	4386
904.392	4379
904.51	4451
904.627	4436
904.745	4538
904.863	4611
904.981	4436
905.098	4280
905.216	4276
905.334	4428
905.451	4424
905.569	4421
905.686	4542
905.803	4554
905.921	4394
906.038	4512
906.155	4489
906.272	4383
906.389	4485
906.506	4386
906.623	4337
906.74	4356
906.857	4333
906.974	4360
907.091	4573
907.208	4649
907.324	4592
907.441	4489
907.557	4356
907.674	4371
907.79	4348
907.907	4352
908.023	4466
908.139	4459
908.256	4386
908.372	4428
908.488	4443
908.604	4375
908.72	4291
908.836	4375
908.952	4379
909.068	4466
909.184	4565
909.3	4451
909.415	4599
909.531	4611
909.647	4383
909.762	4398
909.878	4394
909.993	4459
910.108	4428
910.224	4459
910.339	4443
910.454	4413
910.57	4341
910.685	4348
910.8	4660
910.915	4656
911.03	4538
911.145	4337
911.259	4337
911.374	4417
911.489	4322
911.604	4295
911.718	4166
911.833	4219
911.947	4112
912.062	4109
912.176	4268
912.291	4261
912.405	4314
912.519	4489
912.633	4523
912.748	4405
912.862	4363
912.976	4268
913.09	4166
913.204	4158
913.318	4253
913.431	4455
913.545	4394
913.659	4523
913.772	4363
913.886	4280
914	4249
914.113	4424
914.226	4451
914.34	4428
914.453	4207
914.566	4455
914.68	4363
914.793	4325
914.906	4204
915.019	4188
915.132	4139
915.245	4200
915.358	4287
915.47	4284
915.583	4344
915.696	4268
915.809	4360
915.921	4409
916.034	4314
916.146	4287
916.259	4280
916.371	4417
916.483	4394
916.595	4310
916.708	4367
916.82	4375
916.932	4379
917.044	4367
917.156	4367
917.268	4295
917.38	4325
917.491	4261
917.603	4394
917.715	4451
917.826	4459
917.938	4440
918.049	4276
918.161	4417
918.272	4561
918.384	4588
918.495	4470
918.606	4344
918.717	4249
918.828	4352
918.939	4409
919.05	4257
919.161	4352
919.272	4166
919.383	4287
919.494	4447
919.604	4672
919.715	4436
919.826	4367
919.936	4398
920.047	4558
920.157	4519
920.267	4755
920.378	4538
920.488	4535
920.598	4725
920.708	4900
920.818	4824
920.928	4778
921.038	4938
921.148	4930
921.258	4645
921.368	4611
921.477	4527
921.587	4523
921.697	4329
921.806	4558
921.916	4421
922.025	4291
922.134	4280
922.244	4257
922.353	4352
922.462	4223
922.571	4173
922.68	4029
922.789	3998
922.898	4063
923.007	4017
923.116	4131
923.224	4078
923.333	4093
923.442	3975
923.55	4032
923.659	4017
923.767	4105
923.876	4021
923.984	4192
924.092	3998
924.201	4112
924.309	4112
924.417	4139
924.525	4071
924.633	4093
924.741	4927
924.849	3926
924.956	4181
925.064	3983
925.172	3915
925.279	3964
925.387	4063
925.494	4086
925.602	4234
925.709	4177
925.816	4063
925.924	4188
926.031	4242
926.138	4188
926.245	4215
926.352	4135
926.459	4280
926.566	4360
926.673	4169
926.779	4150
926.886	4139
926.993	4002
927.099	3964
927.206	3949
927.312	3941
927.419	4097
927.525	4105
927.631	4112
927.737	3991
927.843	3972
927.95	3850
928.056	3975
928.162	3975
928.267	4101
928.373	4599
928.479	4147
928.585	3903
928.69	4063
928.796	4124
928.901	3968
929.007	3869
929.112	3991
929.218	4002
929.323	3949
929.428	3983
929.533	4131
929.638	3941
929.743	3937
929.848	4074
929.953	4017
930.058	3991
930.163	3781
930.267	3899
930.372	4029
930.477	3835
930.581	4093
930.685	4010
930.79	3785
930.894	3918
930.998	3873
931.103	4090
931.207	3717
931.311	3720
931.415	3667
931.519	3530
931.623	3587
