Data from test_V78500241_1897.txt Node
Date: Fri Mar 25 17:02:11 CST 2022
User: usil
Spectrometer: V785-0024
Trigger mode: 0
Integration Time (sec): 4.000000E-1
Scans to average: 1
Nonlinearity correction enabled: false
Boxcar width: 0
Storing dark spectrum: false
XAxis mode: Wavelengths
Number of Pixels in Spectrum: 1024
>>>>>Begin Spectral Data<<<<<
801.071	7921
801.214	7982
801.356	7849
801.499	7818
801.641	7765
801.783	7826
801.926	7883
802.068	7890
802.211	8012
802.353	7967
802.496	7830
802.638	7841
802.78	7887
802.923	7875
803.065	7807
803.208	7845
803.35	7997
803.492	8012
803.635	8084
803.777	8046
803.919	8058
804.061	8377
804.204	8153
804.346	8050
804.488	7982
804.63	8069
804.773	8001
804.915	8062
805.057	8263
805.199	8092
805.341	8183
805.483	8202
805.626	8199
805.768	8130
805.91	8157
806.052	8218
806.194	8100
806.336	8271
806.478	8084
806.62	8081
806.762	8065
806.904	8267
807.046	8450
807.188	8366
807.33	8355
807.472	8324
807.614	8100
807.756	8157
807.898	8012
808.04	7871
808.182	7799
808.324	7845
808.465	7989
808.607	8005
808.749	8126
808.891	8218
809.033	8275
809.174	8259
809.316	8039
809.458	8100
809.6	7947
809.741	7970
809.883	7963
810.025	8103
810.166	8111
810.308	8016
810.45	7909
810.591	7864
810.733	7666
810.875	7647
811.016	7453
811.158	7426
811.299	7548
811.441	7643
811.582	7658
811.724	7601
811.865	7548
812.007	7601
812.148	7594
812.29	7559
812.431	7757
812.573	7906
812.714	7989
812.855	8107
812.997	8225
813.138	8221
813.279	8168
813.421	8054
813.562	7955
813.703	7792
813.845	7704
813.986	7445
814.127	7259
814.268	7069
814.41	7183
814.551	7080
814.692	7160
814.833	7137
814.974	7107
815.115	7103
815.256	6951
815.397	6920
815.539	6913
815.68	6726
815.821	6730
815.962	6810
816.103	6757
816.244	6703
816.385	6635
816.526	6544
816.666	6483
816.807	6304
816.948	6426
817.089	6464
817.23	6498
817.371	6319
817.512	6319
817.653	6384
817.793	6346
817.934	6426
818.075	6426
818.216	6448
818.356	6437
818.497	6220
818.638	6110
818.778	6159
818.919	6095
819.06	6148
819.2	6334
819.341	6323
819.481	6338
819.622	6536
819.762	6802
819.903	6658
820.043	6540
820.184	6513
820.324	6509
820.465	6681
820.605	6612
820.746	6612
820.886	6506
821.026	6677
821.167	6654
821.307	6787
821.447	6741
821.588	6623
821.728	6547
821.868	6448
822.008	6251
822.149	6372
822.289	6414
822.429	6144
822.569	6083
822.709	6125
822.849	5927
822.99	5889
823.13	5897
823.27	5874
823.41	5771
823.55	5767
823.69	5745
823.83	5729
823.97	5657
824.11	5524
824.25	5535
824.389	5573
824.529	5566
824.669	5444
824.809	5684
824.949	5695
825.089	5638
825.228	5570
825.368	5376
825.508	5372
825.648	5368
825.787	5406
825.927	5444
826.067	5353
826.206	5292
826.346	5391
826.485	5417
826.625	5391
826.765	5516
826.904	5516
827.044	5242
827.183	5227
827.323	5140
827.462	5307
827.601	5212
827.741	5178
827.88	5284
828.02	5162
828.159	5239
828.298	5307
828.437	5391
828.577	5299
828.716	5528
828.855	5364
828.994	5212
829.134	5151
829.273	5208
829.412	5124
829.551	5162
829.69	5185
829.829	5303
829.968	5330
830.107	5292
830.246	5277
830.385	5216
830.524	5170
830.663	5090
830.802	5010
830.941	4980
831.08	4919
831.219	5041
831.357	5022
831.496	5178
831.635	4904
831.774	4862
831.913	4881
832.051	4729
832.19	4786
832.329	4873
832.467	4763
832.606	4706
832.744	4759
832.883	4767
833.022	4752
833.16	4774
833.299	4850
833.437	4854
833.576	4881
833.714	4870
833.852	4911
833.991	4892
834.129	4972
834.267	4980
834.406	4957
834.544	5018
834.682	5010
834.821	4984
834.959	5162
835.097	4976
835.235	5147
835.373	5124
835.511	5128
835.65	5025
835.788	5022
835.926	4942
836.064	4854
836.202	4961
836.34	5155
836.478	5330
836.615	5143
836.753	5212
836.891	5311
837.029	5303
837.167	5273
837.305	5201
837.443	5113
837.58	5086
837.718	5242
837.856	5170
837.993	5201
838.131	5223
838.269	5269
838.406	5212
838.544	5208
838.681	5109
838.819	5003
838.956	4877
839.094	4972
839.231	5010
839.369	5109
839.506	5414
839.643	5280
839.781	5067
839.918	5014
840.055	5178
840.193	5109
840.33	5159
840.467	5189
840.604	5223
840.742	5417
840.879	5098
841.016	5128
841.153	5128
841.29	5395
841.427	5364
841.564	5433
841.701	5436
841.838	5315
841.975	5269
842.112	5261
842.249	5159
842.385	5136
842.522	5353
842.659	5162
842.796	5193
842.933	5204
843.069	5155
843.206	5155
843.343	5330
843.479	5265
843.616	5303
843.752	5037
843.889	5010
844.025	5246
844.162	5045
844.298	5231
844.435	5102
844.571	5102
844.708	5235
844.844	5383
844.98	5349
845.117	5311
845.253	5166
845.389	5124
845.525	5147
845.661	5132
845.798	5075
845.934	5102
846.07	5056
846.206	5197
846.342	5311
846.478	5143
846.614	5006
846.75	4968
846.886	5006
847.022	5159
847.158	5037
847.294	5083
847.429	5102
847.565	5071
847.701	5376
847.837	4896
847.972	4847
848.108	5014
848.244	4965
848.379	4824
848.515	4736
848.65	4748
848.786	4744
848.921	4767
849.057	4873
849.192	4965
849.328	4862
849.463	4839
849.598	4854
849.734	4797
849.869	4717
850.004	4645
850.14	4702
850.275	4649
850.41	4569
850.545	4630
850.68	4626
850.815	4615
850.95	4668
851.085	4881
851.22	4809
851.355	4698
851.49	4626
851.625	4664
851.76	4668
851.895	4584
852.03	4577
852.165	4691
852.299	4733
852.434	4809
852.569	4771
852.703	4786
852.838	4900
852.973	4957
853.107	4896
853.242	4805
853.376	4733
853.511	4565
853.645	4637
853.78	4847
853.914	4706
854.048	4698
854.183	4656
854.317	4729
854.451	4904
854.585	4702
854.72	4653
854.854	4790
854.988	4649
855.122	4668
855.256	4558
855.39	4729
855.524	4816
855.658	4710
855.792	4725
855.926	4748
856.06	4748
856.194	4809
856.327	4691
856.461	4618
856.595	4653
856.729	4649
856.862	4801
856.996	4706
857.13	4748
857.263	4782
857.397	4801
857.53	4675
857.664	4748
857.797	4793
857.931	4824
858.064	4714
858.197	4820
858.331	4694
858.464	4630
858.597	4538
858.731	4656
858.864	4637
858.997	4626
859.13	4668
859.263	4683
859.396	4725
859.529	4546
859.662	4550
859.795	4577
859.928	4660
860.061	4782
860.194	4759
860.327	4615
860.46	4626
860.592	4721
860.725	4752
860.858	4763
860.99	4645
861.123	4592
861.256	4542
861.388	4664
861.521	5398
861.653	4500
861.786	4424
861.918	4516
862.05	4592
862.183	4577
862.315	4615
862.447	4641
862.58	4531
862.712	4405
862.844	4356
862.976	4485
863.108	4470
863.24	4919
863.372	4341
863.504	4447
863.636	4417
863.768	4527
863.9	4474
864.032	4333
864.164	4417
864.296	4519
864.428	4584
864.559	4596
864.691	4519
864.823	4538
864.954	4531
865.086	4478
865.217	4474
865.349	4493
865.48	4489
865.612	4504
865.743	4687
865.875	4451
866.006	4481
866.137	4493
866.269	4489
866.4	4466
866.531	4440
866.662	4447
866.793	4383
866.924	4470
867.055	4504
867.186	4478
867.317	4428
867.448	4421
867.579	4375
867.71	4405
867.841	4432
867.972	4459
868.103	4478
868.233	4481
868.364	4489
868.495	4516
868.625	4702
868.756	4763
868.886	4565
869.017	4599
869.147	4778
869.278	4797
869.408	4679
869.539	4664
869.669	4687
869.799	4691
869.929	4763
870.06	4763
870.19	4949
870.32	4938
870.45	4938
870.58	5071
870.71	5102
870.84	5105
870.97	4930
871.1	4972
871.23	5143
871.36	5155
871.489	5033
871.619	5094
871.749	5098
871.879	5143
872.008	5193
872.138	5052
872.267	4999
872.397	4881
872.526	4854
872.656	4740
872.785	4850
872.915	4927
873.044	5045
873.173	4953
873.303	4995
873.432	4987
873.561	4934
873.69	4927
873.819	4923
873.948	4930
874.077	4828
874.206	4854
874.335	4790
874.464	4930
874.593	5041
874.722	4980
874.851	5204
874.979	5045
875.108	5045
875.237	4957
875.365	4873
875.494	4870
875.623	4965
875.751	4820
875.88	4862
876.008	5022
876.136	5045
876.265	5223
876.393	5330
876.521	5246
876.65	5193
876.778	5212
876.906	5090
877.034	5033
877.162	5029
877.29	4987
877.418	5102
877.546	5086
877.674	5075
877.802	5029
877.93	5060
878.058	4919
878.185	4877
878.313	5018
878.441	4961
878.568	4854
878.696	4866
878.824	4995
878.951	4987
879.079	5155
879.206	5334
879.333	5132
879.461	4980
879.588	4942
879.715	5140
879.842	5265
879.97	5071
880.097	4801
880.224	4759
880.351	4790
880.478	4839
880.605	4824
880.732	4809
880.859	5094
880.986	4850
881.112	4911
881.239	4790
881.366	4683
881.493	4618
881.619	4622
881.746	4687
881.872	4736
881.999	4729
882.125	4729
882.252	4786
882.378	4828
882.505	4980
882.631	4824
882.757	4675
882.883	4774
883.01	4721
883.136	4653
883.262	4634
883.388	4660
883.514	4793
883.64	4889
883.766	4812
883.892	4649
884.018	4714
884.143	4930
884.269	5048
884.395	4637
884.52	4645
884.646	4653
884.772	4607
884.897	4645
885.023	4668
885.148	4755
885.274	4930
885.399	4797
885.524	4752
885.65	4717
885.775	4812
885.9	4687
886.025	4805
886.15	4816
886.275	4683
886.4	4721
886.525	4752
886.65	4691
886.775	4702
886.9	4870
887.025	5075
887.149	4831
887.274	4691
887.399	4637
887.523	4599
887.648	4538
887.773	4569
887.897	4782
888.021	4835
888.146	4698
888.27	4771
888.395	4881
888.519	4828
888.643	4885
888.767	4854
888.891	4725
889.015	4592
889.139	4653
889.263	4584
889.387	4850
889.511	4854
889.635	4771
889.759	4679
889.883	4580
890.006	4752
890.13	4812
890.254	4611
890.377	4668
890.501	4577
890.624	4550
890.748	4622
890.871	4497
890.995	4440
891.118	4394
891.241	4516
891.364	4538
891.488	4637
891.611	4493
891.734	4523
891.857	4634
891.98	4565
892.103	4672
892.226	4554
892.349	4554
892.471	4455
892.594	4550
892.717	4599
892.839	4554
892.962	4554
893.085	4641
893.207	4596
893.33	4508
893.452	4500
893.575	4702
893.697	4596
893.819	4790
893.941	4816
894.064	4782
894.186	4603
894.308	4611
894.43	4763
894.552	4809
894.674	4710
894.796	4546
894.918	4607
895.04	4618
895.161	4740
895.283	4679
895.405	4584
895.526	4664
895.648	4653
895.769	4683
895.891	4706
896.012	4786
896.134	4725
896.255	4683
896.376	4626
896.498	4584
896.619	4702
896.74	4615
896.861	4675
896.982	4953
897.103	5124
897.224	4820
897.345	4767
897.466	4729
897.587	4698
897.708	4843
897.828	4805
897.949	4687
898.07	4542
898.19	4698
898.311	4858
898.431	4630
898.552	4740
898.672	4797
898.792	4797
898.913	4729
899.033	4634
899.153	4538
899.273	4428
899.393	4493
899.513	4512
899.633	4508
899.753	4538
899.873	4527
899.993	4584
900.113	4531
900.232	4592
900.352	4554
900.472	4478
900.591	4424
900.711	4508
900.83	4421
900.95	4596
901.069	4691
901.189	4531
901.308	4325
901.427	4318
901.546	4356
901.665	4478
901.784	4519
901.904	4386
902.023	4306
902.141	4196
902.26	4158
902.379	4291
902.498	4261
902.617	4246
902.735	4371
902.854	4390
902.973	4390
903.091	4272
903.21	4253
903.328	4314
903.446	4265
903.565	4253
903.683	4367
903.801	4287
903.919	4402
904.038	4436
904.156	4299
904.274	4447
904.392	4417
904.51	4462
904.627	4523
904.745	4630
904.863	4668
904.981	4413
905.098	4310
905.216	4424
905.334	4405
905.451	4489
905.569	4459
905.686	4630
905.803	4569
905.921	4455
906.038	4611
906.155	4508
906.272	4451
906.389	4497
906.506	4352
906.623	4409
906.74	4428
906.857	4379
906.974	4371
907.091	4634
907.208	4706
907.324	4645
907.441	4573
907.557	4402
907.674	4363
907.79	4363
907.907	4462
908.023	4493
908.139	4508
908.256	4489
908.372	4508
908.488	4474
908.604	4371
908.72	4379
908.836	4402
908.952	4447
909.068	4466
909.184	4599
909.3	4489
909.415	4603
909.531	4615
909.647	4386
909.762	4424
909.878	4413
909.993	4462
910.108	4478
910.224	4428
910.339	4531
910.454	4466
910.57	4443
910.685	4379
910.8	4729
910.915	4626
911.03	4580
911.145	4348
911.259	4348
911.374	4409
911.489	4360
911.604	4325
911.718	4219
911.833	4257
911.947	4109
912.062	4105
912.176	4329
912.291	4284
912.405	4303
912.519	4481
912.633	4561
912.748	4443
912.862	4318
912.976	4242
913.09	4128
913.204	4272
913.318	4257
913.431	4383
913.545	4413
913.659	4470
913.772	4424
913.886	4310
914	4238
914.113	4383
914.226	4466
914.34	4394
914.453	4306
914.566	4455
914.68	4325
914.793	4360
914.906	4219
915.019	4162
915.132	4120
915.245	4265
915.358	4230
915.47	4299
915.583	4314
915.696	4329
915.809	4489
915.921	4451
916.034	4318
916.146	4261
916.259	4276
916.371	4428
916.483	4333
916.595	4306
916.708	4363
916.82	4352
916.932	4337
917.044	4371
917.156	4348
917.268	4284
917.38	4280
917.491	4329
917.603	4398
917.715	4443
917.826	4489
917.938	4394
918.049	4299
918.161	4424
918.272	4554
918.384	4546
918.495	4542
918.606	4383
918.717	4246
918.828	4360
918.939	4405
919.05	4306
919.161	4363
919.272	4143
919.383	4268
919.494	4466
919.604	4653
919.715	4443
919.826	4375
919.936	4451
920.047	4550
920.157	4550
920.267	4767
920.378	4558
920.488	4535
920.598	4702
920.708	4919
920.818	4759
920.928	4835
921.038	5048
921.148	4968
921.258	4664
921.368	4596
921.477	4519
921.587	4489
921.697	4459
921.806	4603
921.916	4421
922.025	4268
922.134	4310
922.244	4318
922.353	4310
922.462	4223
922.571	4177
922.68	4074
922.789	4021
922.898	4071
923.007	3979
923.116	4078
923.224	4131
923.333	4109
923.442	4055
923.55	4017
923.659	4025
923.767	4135
923.876	4017
923.984	4139
924.092	3991
924.201	4093
924.309	4116
924.417	4143
924.525	4063
924.633	4109
924.741	5075
924.849	3934
924.956	4177
925.064	3994
925.172	3930
925.279	3983
925.387	4139
925.494	4051
925.602	4238
925.709	4223
925.816	4082
925.924	4166
926.031	4249
926.138	4200
926.245	4234
926.352	4109
926.459	4249
926.566	4329
926.673	4185
926.779	4112
926.886	4109
926.993	4013
927.099	4025
927.206	3983
927.312	3979
927.419	4109
927.525	4044
927.631	4063
927.737	3975
927.843	4013
927.95	3892
928.056	3983
928.162	4048
928.267	4101
928.373	4634
928.479	4158
928.585	3861
928.69	4044
928.796	4090
928.901	3983
929.007	3915
929.112	4040
929.218	3991
929.323	3949
929.428	3975
929.533	4147
929.638	3953
929.743	3998
929.848	4017
929.953	4044
930.058	3926
930.163	3789
930.267	3899
930.372	4032
930.477	3800
930.581	4135
930.685	3953
930.79	3850
930.894	3972
930.998	3888
931.103	4051
931.207	3774
931.311	3705
931.415	3694
931.519	3534
931.623	3568
