Data from test_V78500241_2549.txt Node
Date: Fri Mar 25 17:06:43 CST 2022
User: usil
Spectrometer: V785-0024
Trigger mode: 0
Integration Time (sec): 4.000000E-1
Scans to average: 1
Nonlinearity correction enabled: false
Boxcar width: 0
Storing dark spectrum: false
XAxis mode: Wavelengths
Number of Pixels in Spectrum: 1024
>>>>>Begin Spectral Data<<<<<
801.071	7993
801.214	8008
801.356	7909
801.499	7830
801.641	7811
801.783	7871
801.926	7951
802.068	7986
802.211	7974
802.353	7928
802.496	7887
802.638	7894
802.78	7940
802.923	7951
803.065	7921
803.208	7940
803.35	8035
803.492	8145
803.635	8145
803.777	7993
803.919	8199
804.061	8457
804.204	8191
804.346	8069
804.488	7993
804.63	8100
804.773	8031
804.915	8142
805.057	8339
805.199	8126
805.341	8161
805.483	8252
805.626	8290
805.768	8157
805.91	8149
806.052	8256
806.194	8138
806.336	8324
806.478	8008
806.62	8103
806.762	8111
806.904	8240
807.046	8396
807.188	8423
807.33	8298
807.472	8305
807.614	8191
807.756	8199
807.898	7993
808.04	7928
808.182	7917
808.324	7830
808.465	7917
808.607	8077
808.749	8134
808.891	8244
809.033	8290
809.174	8187
809.316	8058
809.458	8111
809.6	7902
809.741	8035
809.883	8096
810.025	8092
810.166	8054
810.308	8043
810.45	8016
810.591	7868
810.733	7742
810.875	7639
811.016	7559
811.158	7468
811.299	7506
811.441	7734
811.582	7693
811.724	7605
811.865	7499
812.007	7609
812.148	7601
812.29	7636
812.431	7662
812.573	7837
812.714	7967
812.855	8119
812.997	8259
813.138	8271
813.279	8138
813.421	8058
813.562	7963
813.703	7906
813.845	7700
813.986	7457
814.127	7232
814.268	7244
814.41	7175
814.551	7213
814.692	7244
814.833	7061
814.974	7099
815.115	7114
815.256	6977
815.397	6920
815.539	6947
815.68	6806
815.821	6768
815.962	6913
816.103	6871
816.244	6726
816.385	6623
816.526	6589
816.666	6513
816.807	6273
816.948	6410
817.089	6448
817.23	6410
817.371	6376
817.512	6380
817.653	6384
817.793	6323
817.934	6410
818.075	6452
818.216	6384
818.356	6369
818.497	6220
818.638	6125
818.778	6121
818.919	6144
819.06	6209
819.2	6327
819.341	6289
819.481	6361
819.622	6563
819.762	6662
819.903	6639
820.043	6642
820.184	6616
820.324	6608
820.465	6730
820.605	6688
820.746	6726
820.886	6532
821.026	6684
821.167	6764
821.307	6814
821.447	6726
821.588	6711
821.728	6608
821.868	6506
822.008	6414
822.149	6361
822.289	6323
822.429	6190
822.569	6201
822.709	6182
822.849	5958
822.99	5980
823.13	5939
823.27	5916
823.41	5866
823.55	5752
823.69	5802
823.83	5798
823.97	5707
824.11	5577
824.25	5581
824.389	5623
824.529	5600
824.669	5581
824.809	5642
824.949	5718
825.089	5627
825.228	5619
825.368	5448
825.508	5395
825.648	5391
825.787	5410
825.927	5452
826.067	5349
826.206	5341
826.346	5425
826.485	5486
826.625	5433
826.765	5604
826.904	5528
827.044	5334
827.183	5280
827.323	5181
827.462	5246
827.601	5246
827.741	5231
827.88	5261
828.02	5174
828.159	5284
828.298	5379
828.437	5421
828.577	5345
828.716	5520
828.855	5429
828.994	5220
829.134	5201
829.273	5242
829.412	5143
829.551	5197
829.69	5208
829.829	5265
829.968	5417
830.107	5357
830.246	5322
830.385	5185
830.524	5178
830.663	5105
830.802	5006
830.941	4919
831.08	4923
831.219	5022
831.357	5018
831.496	5185
831.635	4980
831.774	4877
831.913	4881
832.051	4763
832.19	4809
832.329	4847
832.467	4752
832.606	4683
832.744	4744
832.883	4801
833.022	4809
833.16	4793
833.299	4847
833.437	4847
833.576	4870
833.714	4915
833.852	4915
833.991	4957
834.129	4968
834.267	4987
834.406	4961
834.544	5048
834.682	5010
834.821	4961
834.959	5239
835.097	5014
835.235	5178
835.373	5128
835.511	5140
835.65	5083
835.788	5064
835.926	4953
836.064	4908
836.202	4938
836.34	5220
836.478	5280
836.615	5162
836.753	5231
836.891	5337
837.029	5277
837.167	5227
837.305	5166
837.443	5170
837.58	5102
837.718	5273
837.856	5246
837.993	5178
838.131	5269
838.269	5223
838.406	5254
838.544	5265
838.681	5067
838.819	5086
838.956	4923
839.094	4987
839.231	5003
839.369	5151
839.506	5467
839.643	5303
839.781	5140
839.918	5071
840.055	5166
840.193	5105
840.33	5098
840.467	5193
840.604	5223
840.742	5455
840.879	5128
841.016	5132
841.153	5216
841.29	5463
841.427	5368
841.564	5307
841.701	5376
841.838	5330
841.975	5299
842.112	5299
842.249	5193
842.385	5128
842.522	5315
842.659	5216
842.796	5197
842.933	5235
843.069	5140
843.206	5181
843.343	5337
843.479	5296
843.616	5284
843.752	5071
843.889	4999
844.025	5261
844.162	5056
844.298	5223
844.435	5128
844.571	5083
844.708	5208
844.844	5353
844.98	5379
845.117	5299
845.253	5193
845.389	5143
845.525	5174
845.661	5201
845.798	5090
845.934	5132
846.07	5083
846.206	5254
846.342	5337
846.478	5189
846.614	5056
846.75	4984
846.886	5003
847.022	5166
847.158	5102
847.294	5113
847.429	5181
847.565	5056
847.701	5372
847.837	4911
847.972	4854
848.108	4980
848.244	4927
848.379	4847
848.515	4778
848.65	4736
848.786	4767
848.921	4801
849.057	4892
849.192	4930
849.328	4835
849.463	4873
849.598	4820
849.734	4778
849.869	4733
850.004	4698
850.14	4683
850.275	4615
850.41	4500
850.545	4542
850.68	4675
850.815	4641
850.95	4641
851.085	4839
851.22	4801
851.355	4702
851.49	4634
851.625	4656
851.76	4691
851.895	4607
852.03	4569
852.165	4702
852.299	4748
852.434	4831
852.569	4748
852.703	4790
852.838	4828
852.973	4934
853.107	4938
853.242	4782
853.376	4675
853.511	4580
853.645	4569
853.78	4835
853.914	4710
854.048	4706
854.183	4675
854.317	4748
854.451	4839
854.585	4687
854.72	4656
854.854	4767
854.988	4618
855.122	4653
855.256	4546
855.39	4664
855.524	4816
855.658	4729
855.792	4717
855.926	4725
856.06	4740
856.194	4828
856.327	4710
856.461	4630
856.595	4634
856.729	4649
856.862	4801
856.996	4717
857.13	4786
857.263	4793
857.397	4843
857.53	4679
857.664	4733
857.797	4793
857.931	4805
858.064	4725
858.197	4778
858.331	4660
858.464	4664
858.597	4550
858.731	4675
858.864	4664
858.997	4615
859.13	4714
859.263	4706
859.396	4702
859.529	4672
859.662	4542
859.795	4558
859.928	4599
860.061	4805
860.194	4805
860.327	4641
860.46	4611
860.592	4771
860.725	4729
860.858	4744
860.99	4641
861.123	4569
861.256	4546
861.388	4569
861.521	5117
861.653	4470
861.786	4466
861.918	4493
862.05	4618
862.183	4565
862.315	4626
862.447	4622
862.58	4554
862.712	4428
862.844	4333
862.976	4493
863.108	4470
863.24	4771
863.372	4379
863.504	4451
863.636	4405
863.768	4512
863.9	4417
864.032	4352
864.164	4440
864.296	4542
864.428	4599
864.559	4592
864.691	4542
864.823	4535
864.954	4497
865.086	4558
865.217	4462
865.349	4466
865.48	4508
865.612	4519
865.743	4626
865.875	4512
866.006	4421
866.137	4527
866.269	4478
866.4	4478
866.531	4443
866.662	4394
866.793	4390
866.924	4451
867.055	4531
867.186	4462
867.317	4443
867.448	4375
867.579	4413
867.71	4432
867.841	4375
867.972	4500
868.103	4474
868.233	4459
868.364	4455
868.495	4489
868.625	4691
868.756	4721
868.886	4607
869.017	4634
869.147	4771
869.278	4767
869.408	4653
869.539	4630
869.669	4767
869.799	4622
869.929	4793
870.06	4748
870.19	5029
870.32	4908
870.45	4927
870.58	5041
870.71	5109
870.84	5140
870.97	4965
871.1	4915
871.23	5155
871.36	5128
871.489	5045
871.619	5121
871.749	5086
871.879	5143
872.008	5204
872.138	5109
872.267	4984
872.397	4900
872.526	4767
872.656	4752
872.785	4797
872.915	4946
873.044	5022
873.173	4961
873.303	5064
873.432	4942
873.561	4961
873.69	4923
873.819	4889
873.948	4927
874.077	4812
874.206	4767
874.335	4816
874.464	4965
874.593	5121
874.722	4957
874.851	5098
874.979	5105
875.108	5018
875.237	4923
875.365	4908
875.494	4881
875.623	4991
875.751	4870
875.88	4873
876.008	4919
876.136	5052
876.265	5216
876.393	5349
876.521	5239
876.65	5265
876.778	5189
876.906	5105
877.034	5056
877.162	5045
877.29	4980
877.418	5071
877.546	5033
877.674	5086
877.802	5052
877.93	5041
878.058	4923
878.185	4870
878.313	5025
878.441	4961
878.568	4812
878.696	4968
878.824	4968
878.951	5033
879.079	5162
879.206	5315
879.333	5117
879.461	4999
879.588	5025
879.715	5132
879.842	5231
879.97	5006
880.097	4809
880.224	4782
880.351	4790
880.478	4839
880.605	4797
880.732	4824
880.859	5075
880.986	4938
881.112	4908
881.239	4805
881.366	4672
881.493	4641
881.619	4607
881.746	4687
881.872	4615
881.999	4714
882.125	4733
882.252	4771
882.378	4847
882.505	4976
882.631	4828
882.757	4702
882.883	4710
883.01	4752
883.136	4694
883.262	4645
883.388	4596
883.514	4824
883.64	4885
883.766	4820
883.892	4725
884.018	4725
884.143	4877
884.269	5029
884.395	4679
884.52	4592
884.646	4675
884.772	4607
884.897	4561
885.023	4675
885.148	4771
885.274	4862
885.399	4847
885.524	4752
885.65	4752
885.775	4778
885.9	4706
886.025	4892
886.15	4820
886.275	4714
886.4	4653
886.525	4797
886.65	4714
886.775	4653
886.9	4904
887.025	5060
887.149	4801
887.274	4702
887.399	4565
887.523	4626
887.648	4565
887.773	4607
887.897	4778
888.021	4725
888.146	4714
888.27	4847
888.395	4976
888.519	4771
888.643	4816
888.767	4870
888.891	4675
889.015	4626
889.139	4668
889.263	4618
889.387	4801
889.511	4873
889.635	4824
889.759	4615
889.883	4656
890.006	4759
890.13	4809
890.254	4607
890.377	4687
890.501	4565
890.624	4535
890.748	4656
890.871	4508
890.995	4493
891.118	4341
891.241	4531
891.364	4527
891.488	4634
891.611	4466
891.734	4561
891.857	4584
891.98	4577
892.103	4694
892.226	4656
892.349	4558
892.471	4413
892.594	4584
892.717	4580
892.839	4580
892.962	4634
893.085	4675
893.207	4637
893.33	4504
893.452	4550
893.575	4679
893.697	4531
893.819	4774
893.941	4831
894.064	4820
894.186	4577
894.308	4634
894.43	4736
894.552	4877
894.674	4763
894.796	4565
894.918	4618
895.04	4580
895.161	4752
895.283	4687
895.405	4615
895.526	4664
895.648	4721
895.769	4706
895.891	4740
896.012	4729
896.134	4706
896.255	4687
896.376	4626
896.498	4653
896.619	4672
896.74	4615
896.861	4706
896.982	4915
897.103	5083
897.224	4847
897.345	4816
897.466	4725
897.587	4740
897.708	4889
897.828	4778
897.949	4694
898.07	4519
898.19	4672
898.311	4862
898.431	4691
898.552	4733
898.672	4843
898.792	4820
898.913	4782
899.033	4542
899.153	4535
899.273	4440
899.393	4523
899.513	4497
899.633	4481
899.753	4538
899.873	4478
899.993	4592
900.113	4569
900.232	4618
900.352	4542
900.472	4504
900.591	4402
900.711	4485
900.83	4451
900.95	4596
901.069	4653
901.189	4554
901.308	4383
901.427	4352
901.546	4405
901.665	4443
901.784	4519
901.904	4390
902.023	4367
902.141	4211
902.26	4158
902.379	4329
902.498	4261
902.617	4227
902.735	4322
902.854	4447
902.973	4371
903.091	4234
903.21	4272
903.328	4318
903.446	4287
903.565	4284
903.683	4337
903.801	4306
903.919	4413
904.038	4405
904.156	4367
904.274	4432
904.392	4390
904.51	4451
904.627	4455
904.745	4603
904.863	4630
904.981	4402
905.098	4341
905.216	4363
905.334	4390
905.451	4459
905.569	4481
905.686	4546
905.803	4542
905.921	4383
906.038	4569
906.155	4504
906.272	4371
906.389	4478
906.506	4386
906.623	4398
906.74	4402
906.857	4318
906.974	4356
907.091	4561
907.208	4694
907.324	4584
907.441	4459
907.557	4348
907.674	4337
907.79	4318
907.907	4383
908.023	4424
908.139	4519
908.256	4474
908.372	4459
908.488	4462
908.604	4329
908.72	4318
908.836	4386
908.952	4371
909.068	4390
909.184	4592
909.3	4493
909.415	4592
909.531	4592
909.647	4402
909.762	4398
909.878	4375
909.993	4478
910.108	4424
910.224	4462
910.339	4504
910.454	4371
910.57	4383
910.685	4322
910.8	4683
910.915	4641
911.03	4523
911.145	4306
911.259	4386
911.374	4440
911.489	4284
911.604	4249
911.718	4177
911.833	4230
911.947	4109
912.062	4021
912.176	4211
912.291	4223
912.405	4234
912.519	4474
912.633	4493
912.748	4341
912.862	4314
912.976	4265
913.09	4139
913.204	4234
913.318	4227
913.431	4333
913.545	4394
913.659	4478
913.772	4306
913.886	4268
914	4242
914.113	4379
914.226	4421
914.34	4405
914.453	4261
914.566	4440
914.68	4284
914.793	4375
914.906	4162
915.019	4116
915.132	4055
915.245	4196
915.358	4257
915.47	4246
915.583	4265
915.696	4303
915.809	4394
915.921	4413
916.034	4295
916.146	4291
916.259	4173
916.371	4383
916.483	4325
916.595	4276
916.708	4314
916.82	4329
916.932	4325
917.044	4310
917.156	4348
917.268	4207
917.38	4303
917.491	4314
917.603	4386
917.715	4386
917.826	4428
917.938	4337
918.049	4280
918.161	4417
918.272	4531
918.384	4508
918.495	4451
918.606	4299
918.717	4299
918.828	4333
918.939	4383
919.05	4230
919.161	4310
919.272	4147
919.383	4211
919.494	4394
919.604	4637
919.715	4455
919.826	4344
919.936	4402
920.047	4535
920.157	4500
920.267	4721
920.378	4508
920.488	4516
920.598	4740
920.708	4908
920.818	4763
920.928	4816
921.038	4957
921.148	4930
921.258	4615
921.368	4535
921.477	4485
921.587	4409
921.697	4394
921.806	4561
921.916	4402
922.025	4268
922.134	4303
922.244	4200
922.353	4333
922.462	4169
922.571	4109
922.68	3983
922.789	3934
922.898	4036
923.007	4029
923.116	4101
923.224	4055
923.333	4147
923.442	3998
923.55	3979
923.659	4048
923.767	4097
923.876	4021
923.984	4162
924.092	4013
924.201	4109
924.309	4128
924.417	4109
924.525	4074
924.633	4116
924.741	5090
924.849	3888
924.956	4128
925.064	4002
925.172	3918
925.279	3979
925.387	4059
925.494	4055
925.602	4238
925.709	4200
925.816	4063
925.924	4128
926.031	4268
926.138	4166
926.245	4207
926.352	4086
926.459	4253
926.566	4303
926.673	4188
926.779	4128
926.886	4063
926.993	3953
927.099	3953
927.206	3937
927.312	3934
927.419	4040
927.525	4029
927.631	4124
927.737	3983
927.843	3941
927.95	3884
928.056	3918
928.162	4002
928.267	4051
928.373	4626
928.479	4078
928.585	3869
928.69	4074
928.796	4055
928.901	3960
929.007	3842
929.112	4040
929.218	3956
929.323	3915
929.428	3945
929.533	4124
929.638	3937
929.743	3934
929.848	4078
929.953	3983
930.058	3880
930.163	3762
930.267	3816
930.372	3972
930.477	3793
930.581	4082
930.685	3949
930.79	3819
930.894	3869
930.998	3816
931.103	4059
931.207	3755
931.311	3705
931.415	3637
931.519	3519
931.623	3553
