Data from test_V78500241_1962.txt Node
Date: Fri Mar 25 17:02:38 CST 2022
User: usil
Spectrometer: V785-0024
Trigger mode: 0
Integration Time (sec): 4.000000E-1
Scans to average: 1
Nonlinearity correction enabled: false
Boxcar width: 0
Storing dark spectrum: false
XAxis mode: Wavelengths
Number of Pixels in Spectrum: 1024
>>>>>Begin Spectral Data<<<<<
801.071	8031
801.214	7955
801.356	7902
801.499	7845
801.641	7746
801.783	7856
801.926	7944
802.068	7928
802.211	7970
802.353	7997
802.496	7845
802.638	7814
802.78	7871
802.923	7883
803.065	7921
803.208	7826
803.35	7932
803.492	8088
803.635	8088
803.777	8012
803.919	8081
804.061	8434
804.204	8149
804.346	8024
804.488	7963
804.63	8081
804.773	8058
804.915	8145
805.057	8256
805.199	8191
805.341	8142
805.483	8214
805.626	8210
805.768	8092
805.91	8202
806.052	8168
806.194	8149
806.336	8324
806.478	8088
806.62	8096
806.762	8142
806.904	8244
807.046	8442
807.188	8370
807.33	8336
807.472	8347
807.614	8092
807.756	8134
807.898	7989
808.04	7807
808.182	7928
808.324	7822
808.465	7811
808.607	8081
808.749	8172
808.891	8168
809.033	8271
809.174	8202
809.316	8092
809.458	8043
809.6	7978
809.741	8039
809.883	7959
810.025	8103
810.166	8039
810.308	7997
810.45	7982
810.591	7818
810.733	7723
810.875	7590
811.016	7506
811.158	7449
811.299	7590
811.441	7708
811.582	7616
811.724	7590
811.865	7464
812.007	7525
812.148	7594
812.29	7575
812.431	7765
812.573	7879
812.714	7974
812.855	8130
812.997	8229
813.138	8309
813.279	8214
813.421	8024
813.562	7978
813.703	7792
813.845	7731
813.986	7358
814.127	7198
814.268	7190
814.41	7183
814.551	7232
814.692	7183
814.833	7122
814.974	7057
815.115	7095
815.256	7000
815.397	6932
815.539	6901
815.68	6787
815.821	6692
815.962	6795
816.103	6787
816.244	6688
816.385	6608
816.526	6623
816.666	6486
816.807	6213
816.948	6418
817.089	6456
817.23	6471
817.371	6380
817.512	6403
817.653	6403
817.793	6327
817.934	6384
818.075	6483
818.216	6399
818.356	6433
818.497	6220
818.638	6068
818.778	6144
818.919	6129
819.06	6155
819.2	6281
819.341	6319
819.481	6361
819.622	6574
819.762	6703
819.903	6665
820.043	6547
820.184	6574
820.324	6570
820.465	6684
820.605	6665
820.746	6559
820.886	6525
821.026	6623
821.167	6642
821.307	6783
821.447	6753
821.588	6665
821.728	6536
821.868	6422
822.008	6277
822.149	6399
822.289	6350
822.429	6117
822.569	6091
822.709	6155
822.849	5889
822.99	5897
823.13	5908
823.27	5851
823.41	5786
823.55	5767
823.69	5767
823.83	5775
823.97	5699
824.11	5543
824.25	5493
824.389	5596
824.529	5615
824.669	5524
824.809	5627
824.949	5665
825.089	5638
825.228	5535
825.368	5349
825.508	5326
825.648	5376
825.787	5448
825.927	5429
826.067	5315
826.206	5242
826.346	5379
826.485	5406
826.625	5417
826.765	5551
826.904	5471
827.044	5246
827.183	5208
827.323	5151
827.462	5220
827.601	5227
827.741	5174
827.88	5273
828.02	5151
828.159	5246
828.298	5315
828.437	5406
828.577	5307
828.716	5512
828.855	5387
828.994	5189
829.134	5204
829.273	5235
829.412	5201
829.551	5201
829.69	5239
829.829	5315
829.968	5334
830.107	5292
830.246	5334
830.385	5242
830.524	5162
830.663	5094
830.802	5041
830.941	4942
831.08	4946
831.219	5052
831.357	5025
831.496	5216
831.635	5022
831.774	4911
831.913	4839
832.051	4797
832.19	4801
832.329	4805
832.467	4714
832.606	4736
832.744	4767
832.883	4774
833.022	4759
833.16	4752
833.299	4831
833.437	4850
833.576	4850
833.714	4885
833.852	4889
833.991	4911
834.129	5006
834.267	5025
834.406	4987
834.544	5029
834.682	4999
834.821	5010
834.959	5216
835.097	5041
835.235	5166
835.373	5132
835.511	5159
835.65	5079
835.788	5056
835.926	4946
836.064	4915
836.202	4980
836.34	5181
836.478	5242
836.615	5147
836.753	5216
836.891	5296
837.029	5216
837.167	5181
837.305	5204
837.443	5197
837.58	5128
837.718	5258
837.856	5201
837.993	5212
838.131	5311
838.269	5197
838.406	5227
838.544	5239
838.681	5098
838.819	5037
838.956	4923
839.094	4930
839.231	5006
839.369	5083
839.506	5433
839.643	5330
839.781	5083
839.918	5060
840.055	5052
840.193	5143
840.33	5162
840.467	5212
840.604	5140
840.742	5444
840.879	5128
841.016	5109
841.153	5216
841.29	5387
841.427	5398
841.564	5349
841.701	5417
841.838	5360
841.975	5250
842.112	5269
842.249	5147
842.385	5117
842.522	5292
842.659	5147
842.796	5170
842.933	5197
843.069	5223
843.206	5189
843.343	5349
843.479	5242
843.616	5311
843.752	5064
843.889	5052
844.025	5216
844.162	5067
844.298	5258
844.435	5155
844.571	5136
844.708	5235
844.844	5318
844.98	5364
845.117	5357
845.253	5193
845.389	5117
845.525	5185
845.661	5170
845.798	5075
845.934	5159
846.07	5033
846.206	5220
846.342	5315
846.478	5185
846.614	5060
846.75	4999
846.886	4957
847.022	5121
847.158	5086
847.294	5041
847.429	5105
847.565	5045
847.701	5349
847.837	4915
847.972	4839
848.108	4968
848.244	4995
848.379	4839
848.515	4786
848.65	4759
848.786	4767
848.921	4809
849.057	4930
849.192	4980
849.328	4896
849.463	4885
849.598	4831
849.734	4809
849.869	4714
850.004	4649
850.14	4714
850.275	4630
850.41	4565
850.545	4558
850.68	4653
850.815	4645
850.95	4675
851.085	4831
851.22	4782
851.355	4710
851.49	4641
851.625	4615
851.76	4710
851.895	4615
852.03	4569
852.165	4710
852.299	4755
852.434	4809
852.569	4774
852.703	4771
852.838	4873
852.973	4934
853.107	5003
853.242	4767
853.376	4664
853.511	4573
853.645	4687
853.78	4835
853.914	4740
854.048	4710
854.183	4702
854.317	4721
854.451	4870
854.585	4717
854.72	4664
854.854	4774
854.988	4630
855.122	4687
855.256	4596
855.39	4683
855.524	4839
855.658	4706
855.792	4706
855.926	4740
856.06	4767
856.194	4847
856.327	4691
856.461	4618
856.595	4634
856.729	4668
856.862	4801
856.996	4748
857.13	4771
857.263	4812
857.397	4812
857.53	4664
857.664	4767
857.797	4786
857.931	4740
858.064	4706
858.197	4736
858.331	4653
858.464	4607
858.597	4550
858.731	4683
858.864	4660
858.997	4611
859.13	4649
859.263	4672
859.396	4733
859.529	4603
859.662	4584
859.795	4569
859.928	4679
860.061	4782
860.194	4774
860.327	4660
860.46	4584
860.592	4759
860.725	4774
860.858	4740
860.99	4607
861.123	4550
861.256	4561
861.388	4641
861.521	5372
861.653	4512
861.786	4455
861.918	4462
862.05	4531
862.183	4588
862.315	4618
862.447	4634
862.58	4558
862.712	4455
862.844	4386
862.976	4527
863.108	4455
863.24	4778
863.372	4360
863.504	4436
863.636	4455
863.768	4512
863.9	4455
864.032	4390
864.164	4447
864.296	4542
864.428	4542
864.559	4569
864.691	4531
864.823	4554
864.954	4508
865.086	4504
865.217	4466
865.349	4402
865.48	4481
865.612	4538
865.743	4653
865.875	4508
866.006	4443
866.137	4500
866.269	4443
866.4	4443
866.531	4466
866.662	4413
866.793	4440
866.924	4481
867.055	4481
867.186	4451
867.317	4413
867.448	4402
867.579	4432
867.71	4470
867.841	4379
867.972	4459
868.103	4565
868.233	4481
868.364	4455
868.495	4504
868.625	4649
868.756	4805
868.886	4580
869.017	4653
869.147	4805
869.278	4812
869.408	4683
869.539	4660
869.669	4752
869.799	4668
869.929	4767
870.06	4748
870.19	4957
870.32	4968
870.45	4923
870.58	5071
870.71	5090
870.84	5083
870.97	4957
871.1	4911
871.23	5162
871.36	5151
871.489	5022
871.619	5079
871.749	5113
871.879	5159
872.008	5155
872.138	5090
872.267	4938
872.397	4850
872.526	4828
872.656	4736
872.785	4835
872.915	4995
873.044	5064
873.173	4919
873.303	4980
873.432	4972
873.561	4957
873.69	4896
873.819	4923
873.948	4900
874.077	4824
874.206	4809
874.335	4847
874.464	4934
874.593	5064
874.722	4965
874.851	5166
874.979	5060
875.108	5052
875.237	4923
875.365	4896
875.494	4885
875.623	5010
875.751	4816
875.88	4896
876.008	4980
876.136	5090
876.265	5239
876.393	5379
876.521	5265
876.65	5246
876.778	5174
876.906	5113
877.034	5045
877.162	5102
877.29	5003
877.418	5090
877.546	5067
877.674	5037
877.802	5064
877.93	5033
878.058	4965
878.185	4896
878.313	5010
878.441	4972
878.568	4805
878.696	4862
878.824	5006
878.951	5033
879.079	5132
879.206	5296
879.333	5079
879.461	5003
879.588	5006
879.715	5147
879.842	5223
879.97	5018
880.097	4801
880.224	4755
880.351	4812
880.478	4809
880.605	4839
880.732	4759
880.859	5151
880.986	4946
881.112	4915
881.239	4763
881.366	4679
881.493	4675
881.619	4603
881.746	4653
881.872	4675
881.999	4717
882.125	4691
882.252	4805
882.378	4839
882.505	5056
882.631	4839
882.757	4774
882.883	4740
883.01	4744
883.136	4736
883.262	4569
883.388	4618
883.514	4820
883.64	4908
883.766	4820
883.892	4672
884.018	4717
884.143	4847
884.269	5025
884.395	4717
884.52	4596
884.646	4668
884.772	4626
884.897	4561
885.023	4706
885.148	4790
885.274	4862
885.399	4847
885.524	4706
885.65	4729
885.775	4786
885.9	4752
886.025	4873
886.15	4805
886.275	4786
886.4	4683
886.525	4736
886.65	4694
886.775	4679
886.9	4953
887.025	5018
887.149	4858
887.274	4653
887.399	4588
887.523	4577
887.648	4599
887.773	4603
887.897	4767
888.021	4790
888.146	4634
888.27	4854
888.395	4877
888.519	4835
888.643	4862
888.767	4858
888.891	4714
889.015	4599
889.139	4717
889.263	4603
889.387	4755
889.511	4896
889.635	4793
889.759	4656
889.883	4660
890.006	4752
890.13	4858
890.254	4656
890.377	4717
890.501	4565
890.624	4538
890.748	4637
890.871	4584
890.995	4474
891.118	4432
891.241	4546
891.364	4588
891.488	4615
891.611	4516
891.734	4592
891.857	4637
891.98	4538
892.103	4645
892.226	4569
892.349	4538
892.471	4428
892.594	4565
892.717	4584
892.839	4584
892.962	4603
893.085	4668
893.207	4599
893.33	4519
893.452	4569
893.575	4668
893.697	4592
893.819	4793
893.941	4847
894.064	4771
894.186	4599
894.308	4584
894.43	4759
894.552	4820
894.674	4748
894.796	4588
894.918	4573
895.04	4569
895.161	4653
895.283	4656
895.405	4565
895.526	4603
895.648	4691
895.769	4679
895.891	4679
896.012	4733
896.134	4740
896.255	4664
896.376	4656
896.498	4615
896.619	4694
896.74	4622
896.861	4649
896.982	4942
897.103	5075
897.224	4820
897.345	4706
897.466	4675
897.587	4759
897.708	4850
897.828	4831
897.949	4706
898.07	4569
898.19	4706
898.311	4862
898.431	4656
898.552	4729
898.672	4820
898.792	4790
898.913	4767
899.033	4615
899.153	4535
899.273	4432
899.393	4481
899.513	4538
899.633	4493
899.753	4535
899.873	4527
899.993	4607
900.113	4519
900.232	4626
900.352	4508
900.472	4481
900.591	4402
900.711	4474
900.83	4421
900.95	4611
901.069	4733
901.189	4596
901.308	4375
901.427	4375
901.546	4402
901.665	4459
901.784	4481
901.904	4421
902.023	4337
902.141	4181
902.26	4169
902.379	4325
902.498	4211
902.617	4230
902.735	4371
902.854	4409
902.973	4363
903.091	4215
903.21	4234
903.328	4284
903.446	4291
903.565	4257
903.683	4322
903.801	4276
903.919	4394
904.038	4417
904.156	4341
904.274	4428
904.392	4413
904.51	4462
904.627	4478
904.745	4565
904.863	4596
904.981	4390
905.098	4325
905.216	4402
905.334	4432
905.451	4474
905.569	4443
905.686	4558
905.803	4588
905.921	4356
906.038	4596
906.155	4512
906.272	4402
906.389	4459
906.506	4344
906.623	4352
906.74	4398
906.857	4291
906.974	4386
907.091	4561
907.208	4664
907.324	4558
907.441	4504
907.557	4375
907.674	4325
907.79	4337
907.907	4352
908.023	4493
908.139	4485
908.256	4447
908.372	4447
908.488	4386
908.604	4402
908.72	4341
908.836	4352
908.952	4363
909.068	4447
909.184	4592
909.3	4478
909.415	4542
909.531	4577
909.647	4424
909.762	4394
909.878	4371
909.993	4428
910.108	4417
910.224	4379
910.339	4542
910.454	4405
910.57	4375
910.685	4348
910.8	4668
910.915	4607
911.03	4485
911.145	4341
911.259	4363
911.374	4394
911.489	4310
911.604	4329
911.718	4158
911.833	4246
911.947	4063
912.062	4044
912.176	4234
912.291	4253
912.405	4234
912.519	4462
912.633	4493
912.748	4386
912.862	4318
912.976	4234
913.09	4074
913.204	4200
913.318	4257
913.431	4356
913.545	4402
913.659	4455
913.772	4352
913.886	4257
914	4223
914.113	4367
914.226	4432
914.34	4363
914.453	4257
914.566	4466
914.68	4325
914.793	4318
914.906	4158
915.019	4090
915.132	4074
915.245	4188
915.358	4196
915.47	4238
915.583	4265
915.696	4314
915.809	4443
915.921	4417
916.034	4257
916.146	4253
916.259	4227
916.371	4352
916.483	4322
916.595	4242
916.708	4367
916.82	4333
916.932	4280
917.044	4303
917.156	4291
917.268	4276
917.38	4314
917.491	4295
917.603	4371
917.715	4440
917.826	4462
917.938	4348
918.049	4257
918.161	4379
918.272	4554
918.384	4554
918.495	4516
918.606	4318
918.717	4246
918.828	4363
918.939	4402
919.05	4230
919.161	4276
919.272	4143
919.383	4249
919.494	4497
919.604	4630
919.715	4402
919.826	4344
919.936	4440
920.047	4538
920.157	4504
920.267	4679
920.378	4516
920.488	4504
920.598	4752
920.708	4835
920.818	4790
920.928	4744
921.038	4946
921.148	4889
921.258	4660
921.368	4603
921.477	4504
921.587	4447
921.697	4398
921.806	4577
921.916	4481
922.025	4230
922.134	4284
922.244	4192
922.353	4337
922.462	4177
922.571	4131
922.68	3975
922.789	3941
922.898	4063
923.007	3975
923.116	4048
923.224	4063
923.333	4074
923.442	3968
923.55	3975
923.659	4032
923.767	4112
923.876	4032
923.984	4139
924.092	3960
924.201	4055
924.309	4078
924.417	4162
924.525	4013
924.633	4082
924.741	5029
924.849	3907
924.956	4139
925.064	3930
925.172	3903
925.279	3949
925.387	4010
925.494	4059
925.602	4177
925.709	4154
925.816	4078
925.924	4124
926.031	4257
926.138	4166
926.245	4185
926.352	4101
926.459	4253
926.566	4337
926.673	4131
926.779	4097
926.886	4090
926.993	3915
927.099	3930
927.206	3930
927.312	3915
927.419	4067
927.525	4048
927.631	4124
927.737	3949
927.843	3964
927.95	3842
928.056	3960
928.162	3972
928.267	4021
928.373	4546
928.479	4139
928.585	3838
928.69	4029
928.796	4048
928.901	4006
929.007	3819
929.112	3991
929.218	3991
929.323	3956
929.428	3945
929.533	4082
929.638	3907
929.743	3941
929.848	4013
929.953	3975
930.058	3907
930.163	3778
930.267	3808
930.372	3903
930.477	3857
930.581	4071
930.685	3918
930.79	3781
930.894	3915
930.998	3846
931.103	4029
931.207	3686
931.311	3679
931.415	3701
931.519	3526
931.623	3523
