Data from test_V78500241_1018.txt Node
Date: Fri Mar 25 16:56:04 CST 2022
User: usil
Spectrometer: V785-0024
Trigger mode: 0
Integration Time (sec): 4.000000E-1
Scans to average: 1
Nonlinearity correction enabled: false
Boxcar width: 0
Storing dark spectrum: false
XAxis mode: Wavelengths
Number of Pixels in Spectrum: 1024
>>>>>Begin Spectral Data<<<<<
801.071	7974
801.214	8039
801.356	7917
801.499	7761
801.641	7792
801.783	7856
801.926	7959
802.068	7951
802.211	8001
802.353	7932
802.496	7837
802.638	7879
802.78	7921
802.923	8008
803.065	7898
803.208	7894
803.35	7986
803.492	8130
803.635	8168
803.777	8058
803.919	8164
804.061	8377
804.204	8153
804.346	8065
804.488	8027
804.63	8107
804.773	8054
804.915	8092
805.057	8305
805.199	8180
805.341	8199
805.483	8305
805.626	8229
805.768	8153
805.91	8244
806.052	8191
806.194	8031
806.336	8332
806.478	8138
806.62	8058
806.762	8111
806.904	8263
807.046	8522
807.188	8328
807.33	8309
807.472	8370
807.614	8126
807.756	8168
807.898	8039
808.04	7887
808.182	7894
808.324	7879
808.465	7902
808.607	8027
808.749	8142
808.891	8142
809.033	8256
809.174	8210
809.316	8035
809.458	8005
809.6	7955
809.741	8024
809.883	8058
810.025	8149
810.166	8077
810.308	7970
810.45	7970
810.591	7868
810.733	7712
810.875	7712
811.016	7518
811.158	7415
811.299	7613
811.441	7647
811.582	7655
811.724	7506
811.865	7563
812.007	7529
812.148	7628
812.29	7582
812.431	7776
812.573	7913
812.714	7928
812.855	8081
812.997	8157
813.138	8301
813.279	8153
813.421	8031
813.562	8043
813.703	7868
813.845	7776
813.986	7487
814.127	7194
814.268	7221
814.41	7175
814.551	7069
814.692	7107
814.833	7103
814.974	7080
815.115	7088
815.256	7027
815.397	6916
815.539	6905
815.68	6760
815.821	6764
815.962	6848
816.103	6772
816.244	6722
816.385	6692
816.526	6608
816.666	6525
816.807	6216
816.948	6456
817.089	6471
817.23	6460
817.371	6399
817.512	6365
817.653	6391
817.793	6403
817.934	6369
818.075	6418
818.216	6388
818.356	6376
818.497	6201
818.638	6098
818.778	6178
818.919	6159
819.06	6171
819.2	6300
819.341	6426
819.481	6388
819.622	6460
819.762	6684
819.903	6726
820.043	6604
820.184	6536
820.324	6525
820.465	6722
820.605	6639
820.746	6631
820.886	6544
821.026	6639
821.167	6692
821.307	6776
821.447	6719
821.588	6642
821.728	6551
821.868	6460
822.008	6277
822.149	6422
822.289	6304
822.429	6129
822.569	6110
822.709	6121
822.849	5961
822.99	5950
823.13	5939
823.27	5889
823.41	5722
823.55	5767
823.69	5817
823.83	5760
823.97	5684
824.11	5551
824.25	5539
824.389	5554
824.529	5516
824.669	5520
824.809	5634
824.949	5646
825.089	5604
825.228	5547
825.368	5368
825.508	5345
825.648	5326
825.787	5357
825.927	5398
826.067	5269
826.206	5250
826.346	5402
826.485	5376
826.625	5353
826.765	5497
826.904	5482
827.044	5265
827.183	5208
827.323	5098
827.462	5216
827.601	5193
827.741	5166
827.88	5174
828.02	5109
828.159	5242
828.298	5299
828.437	5311
828.577	5292
828.716	5512
828.855	5280
828.994	5162
829.134	5117
829.273	5178
829.412	5102
829.551	5105
829.69	5143
829.829	5239
829.968	5330
830.107	5242
830.246	5273
830.385	5162
830.524	5113
830.663	5041
830.802	4957
830.941	4843
831.08	4877
831.219	4972
831.357	4923
831.496	5124
831.635	4934
831.774	4847
831.913	4847
832.051	4729
832.19	4748
832.329	4847
832.467	4660
832.606	4649
832.744	4714
832.883	4710
833.022	4698
833.16	4782
833.299	4809
833.437	4862
833.576	4847
833.714	4923
833.852	4866
833.991	4866
834.129	4995
834.267	4927
834.406	4911
834.544	4972
834.682	4984
834.821	4949
834.959	5159
835.097	5041
835.235	5109
835.373	5117
835.511	5102
835.65	5037
835.788	4980
835.926	4915
836.064	4850
836.202	4923
836.34	5151
836.478	5242
836.615	5094
836.753	5227
836.891	5292
837.029	5242
837.167	5185
837.305	5155
837.443	5143
837.58	5109
837.718	5204
837.856	5151
837.993	5143
838.131	5216
838.269	5174
838.406	5235
838.544	5162
838.681	4965
838.819	4972
838.956	4930
839.094	4911
839.231	4972
839.369	5094
839.506	5417
839.643	5220
839.781	5060
839.918	5033
840.055	5086
840.193	5064
840.33	5105
840.467	5155
840.604	5174
840.742	5383
840.879	5086
841.016	5048
841.153	5170
841.29	5357
841.427	5318
841.564	5307
841.701	5326
841.838	5273
841.975	5223
842.112	5254
842.249	5109
842.385	5094
842.522	5284
842.659	5151
842.796	5151
842.933	5250
843.069	5094
843.206	5185
843.343	5330
843.479	5204
843.616	5284
843.752	5075
843.889	5003
844.025	5201
844.162	4991
844.298	5208
844.435	5033
844.571	5041
844.708	5166
844.844	5280
844.98	5307
845.117	5311
845.253	5166
845.389	5102
845.525	5193
845.661	5143
845.798	5075
845.934	5124
846.07	5045
846.206	5220
846.342	5220
846.478	5170
846.614	4972
846.75	4987
846.886	4908
847.022	5083
847.158	5018
847.294	5048
847.429	5128
847.565	5041
847.701	5326
847.837	4831
847.972	4816
848.108	4942
848.244	4972
848.379	4778
848.515	4717
848.65	4675
848.786	4733
848.921	4725
849.057	4843
849.192	4870
849.328	4843
849.463	4767
849.598	4778
849.734	4759
849.869	4622
850.004	4622
850.14	4668
850.275	4611
850.41	4512
850.545	4577
850.68	4630
850.815	4599
850.95	4618
851.085	4858
851.22	4698
851.355	4622
851.49	4592
851.625	4660
851.76	4637
851.895	4508
852.03	4519
852.165	4626
852.299	4706
852.434	4786
852.569	4752
852.703	4793
852.838	4866
852.973	4942
853.107	4919
853.242	4778
853.376	4653
853.511	4580
853.645	4611
853.78	4740
853.914	4710
854.048	4653
854.183	4588
854.317	4675
854.451	4793
854.585	4660
854.72	4592
854.854	4744
854.988	4618
855.122	4599
855.256	4542
855.39	4630
855.524	4793
855.658	4694
855.792	4672
855.926	4725
856.06	4725
856.194	4801
856.327	4653
856.461	4622
856.595	4615
856.729	4637
856.862	4744
856.996	4706
857.13	4714
857.263	4763
857.397	4801
857.53	4611
857.664	4710
857.797	4733
857.931	4752
858.064	4660
858.197	4729
858.331	4634
858.464	4622
858.597	4542
858.731	4622
858.864	4603
858.997	4588
859.13	4679
859.263	4649
859.396	4649
859.529	4558
859.662	4611
859.795	4531
859.928	4599
860.061	4752
860.194	4740
860.327	4596
860.46	4542
860.592	4694
860.725	4694
860.858	4710
860.99	4561
861.123	4516
861.256	4550
861.388	4580
861.521	5322
861.653	4451
861.786	4394
861.918	4432
862.05	4493
862.183	4527
862.315	4592
862.447	4599
862.58	4596
862.712	4394
862.844	4276
862.976	4474
863.108	4470
863.24	4885
863.372	4344
863.504	4398
863.636	4405
863.768	4504
863.9	4421
864.032	4424
864.164	4344
864.296	4481
864.428	4542
864.559	4531
864.691	4508
864.823	4527
864.954	4497
865.086	4504
865.217	4432
865.349	4367
865.48	4447
865.612	4447
865.743	4603
865.875	4516
866.006	4421
866.137	4443
866.269	4432
866.4	4432
866.531	4443
866.662	4386
866.793	4409
866.924	4413
867.055	4481
867.186	4421
867.317	4409
867.448	4375
867.579	4383
867.71	4379
867.841	4356
867.972	4455
868.103	4462
868.233	4440
868.364	4440
868.495	4504
868.625	4618
868.756	4755
868.886	4527
869.017	4588
869.147	4691
869.278	4767
869.408	4626
869.539	4622
869.669	4645
869.799	4649
869.929	4736
870.06	4679
870.19	4911
870.32	4908
870.45	4930
870.58	4972
870.71	5086
870.84	5060
870.97	4923
871.1	4843
871.23	5124
871.36	5124
871.489	4995
871.619	5094
871.749	5102
871.879	5083
872.008	5178
872.138	5041
872.267	4968
872.397	4805
872.526	4809
872.656	4767
872.785	4801
872.915	4972
873.044	5052
873.173	4980
873.303	4904
873.432	4953
873.561	4953
873.69	4881
873.819	4885
873.948	4900
874.077	4809
874.206	4771
874.335	4805
874.464	4908
874.593	5018
874.722	4968
874.851	5086
874.979	5048
875.108	5010
875.237	4919
875.365	4866
875.494	4927
875.623	4968
875.751	4790
875.88	4805
876.008	4987
876.136	5022
876.265	5212
876.393	5330
876.521	5246
876.65	5280
876.778	5136
876.906	5071
877.034	4987
877.162	5029
877.29	4972
877.418	5041
877.546	4999
877.674	4976
877.802	4972
877.93	4991
878.058	4923
878.185	4839
878.313	4930
878.441	4923
878.568	4816
878.696	4889
878.824	4949
878.951	4972
879.079	5105
879.206	5277
879.333	5132
879.461	4934
879.588	5010
879.715	5090
879.842	5223
879.97	4961
880.097	4778
880.224	4717
880.351	4790
880.478	4854
880.605	4767
880.732	4790
880.859	5075
880.986	4896
881.112	4923
881.239	4816
881.366	4668
881.493	4588
881.619	4580
881.746	4603
881.872	4626
881.999	4626
882.125	4634
882.252	4786
882.378	4801
882.505	4961
882.631	4786
882.757	4664
882.883	4725
883.01	4755
883.136	4706
883.262	4603
883.388	4546
883.514	4809
883.64	4866
883.766	4847
883.892	4649
884.018	4717
884.143	4870
884.269	4987
884.395	4645
884.52	4626
884.646	4649
884.772	4523
884.897	4561
885.023	4683
885.148	4774
885.274	4828
885.399	4828
885.524	4656
885.65	4721
885.775	4706
885.9	4687
886.025	4854
886.15	4797
886.275	4736
886.4	4637
886.525	4721
886.65	4637
886.775	4649
886.9	4919
887.025	5003
887.149	4801
887.274	4649
887.399	4599
887.523	4596
887.648	4592
887.773	4588
887.897	4752
888.021	4752
888.146	4664
888.27	4805
888.395	4896
888.519	4805
888.643	4801
888.767	4805
888.891	4706
889.015	4618
889.139	4687
889.263	4607
889.387	4721
889.511	4797
889.635	4816
889.759	4615
889.883	4660
890.006	4721
890.13	4805
890.254	4630
890.377	4698
890.501	4516
890.624	4584
890.748	4599
890.871	4459
890.995	4424
891.118	4413
891.241	4481
891.364	4489
891.488	4611
891.611	4542
891.734	4500
891.857	4577
891.98	4531
892.103	4668
892.226	4584
892.349	4485
892.471	4436
892.594	4527
892.717	4592
892.839	4603
892.962	4489
893.085	4592
893.207	4596
893.33	4451
893.452	4535
893.575	4660
893.697	4596
893.819	4771
893.941	4831
894.064	4771
894.186	4523
894.308	4527
894.43	4763
894.552	4816
894.674	4748
894.796	4504
894.918	4550
895.04	4542
895.161	4649
895.283	4649
895.405	4565
895.526	4588
895.648	4683
895.769	4675
895.891	4725
896.012	4694
896.134	4725
896.255	4634
896.376	4634
896.498	4603
896.619	4618
896.74	4573
896.861	4653
896.982	4858
897.103	5006
897.224	4824
897.345	4748
897.466	4668
897.587	4702
897.708	4854
897.828	4759
897.949	4672
898.07	4527
898.19	4615
898.311	4797
898.431	4626
898.552	4710
898.672	4786
898.792	4797
898.913	4714
899.033	4573
899.153	4508
899.273	4398
899.393	4481
899.513	4512
899.633	4508
899.753	4561
899.873	4508
899.993	4569
900.113	4542
900.232	4561
900.352	4493
900.472	4470
900.591	4360
900.711	4474
900.83	4405
900.95	4645
901.069	4656
901.189	4519
901.308	4405
901.427	4284
901.546	4363
901.665	4466
901.784	4535
901.904	4341
902.023	4348
902.141	4188
902.26	4135
902.379	4268
902.498	4257
902.617	4192
902.735	4363
902.854	4352
902.973	4360
903.091	4227
903.21	4166
903.328	4314
903.446	4246
903.565	4268
903.683	4344
903.801	4276
903.919	4386
904.038	4417
904.156	4280
904.274	4440
904.392	4421
904.51	4443
904.627	4459
904.745	4546
904.863	4573
904.981	4379
905.098	4276
905.216	4360
905.334	4424
905.451	4413
905.569	4417
905.686	4527
905.803	4580
905.921	4440
906.038	4500
906.155	4474
906.272	4367
906.389	4451
906.506	4325
906.623	4390
906.74	4363
906.857	4333
906.974	4375
907.091	4554
907.208	4672
907.324	4580
907.441	4493
907.557	4295
907.674	4299
907.79	4310
907.907	4367
908.023	4428
908.139	4462
908.256	4447
908.372	4417
908.488	4489
908.604	4390
908.72	4280
908.836	4402
908.952	4341
909.068	4413
909.184	4558
909.3	4481
909.415	4554
909.531	4535
909.647	4344
909.762	4409
909.878	4337
909.993	4451
910.108	4371
910.224	4390
910.339	4519
910.454	4432
910.57	4360
910.685	4303
910.8	4599
910.915	4569
911.03	4508
911.145	4333
911.259	4306
911.374	4390
911.489	4234
911.604	4257
911.718	4181
911.833	4192
911.947	4078
912.062	4040
912.176	4211
912.291	4185
912.405	4230
912.519	4489
912.633	4500
912.748	4405
912.862	4356
912.976	4215
913.09	4105
913.204	4150
913.318	4219
913.431	4341
913.545	4386
913.659	4466
913.772	4383
913.886	4253
914	4223
914.113	4341
914.226	4440
914.34	4360
914.453	4219
914.566	4432
914.68	4314
914.793	4306
914.906	4211
915.019	4131
915.132	4059
915.245	4162
915.358	4223
915.47	4230
915.583	4238
915.696	4284
915.809	4398
915.921	4443
916.034	4276
916.146	4200
916.259	4234
916.371	4402
916.483	4318
916.595	4268
916.708	4325
916.82	4306
916.932	4318
917.044	4333
917.156	4314
917.268	4234
917.38	4284
917.491	4287
917.603	4337
917.715	4443
917.826	4440
917.938	4352
918.049	4265
918.161	4371
918.272	4527
918.384	4569
918.495	4386
918.606	4280
918.717	4238
918.828	4322
918.939	4383
919.05	4295
919.161	4318
919.272	4143
919.383	4257
919.494	4421
919.604	4637
919.715	4424
919.826	4360
919.936	4405
920.047	4561
920.157	4462
920.267	4702
920.378	4481
920.488	4535
920.598	4706
920.708	4915
920.818	4786
920.928	4755
921.038	4942
921.148	4896
921.258	4554
921.368	4554
921.477	4470
921.587	4451
921.697	4348
921.806	4516
921.916	4402
922.025	4287
922.134	4272
922.244	4238
922.353	4356
922.462	4166
922.571	4162
922.68	4017
922.789	3937
922.898	4029
923.007	4021
923.116	4055
923.224	4048
923.333	4048
923.442	3949
923.55	3991
923.659	4002
923.767	4105
923.876	3998
923.984	4147
924.092	3991
924.201	4055
924.309	4124
924.417	4150
924.525	4063
924.633	4124
924.741	5003
924.849	3949
924.956	4109
925.064	3915
925.172	3899
925.279	3911
925.387	4013
925.494	4063
925.602	4200
925.709	4188
925.816	3968
925.924	4162
926.031	4196
926.138	4128
926.245	4188
926.352	4101
926.459	4246
926.566	4272
926.673	4181
926.779	4055
926.886	4055
926.993	3972
927.099	3941
927.206	3941
927.312	3934
927.419	4059
927.525	4044
927.631	4071
927.737	3915
927.843	3964
927.95	3850
928.056	3949
928.162	3994
928.267	4059
928.373	4698
928.479	4139
928.585	3869
928.69	3998
928.796	4109
928.901	4002
929.007	3770
929.112	4006
929.218	3892
929.323	3956
929.428	3915
929.533	4067
929.638	3884
929.743	3979
929.848	4029
929.953	3991
930.058	3934
930.163	3709
930.267	3827
930.372	3983
930.477	3819
930.581	4101
930.685	3930
930.79	3804
930.894	3911
930.998	3816
931.103	4025
931.207	3720
931.311	3679
931.415	3663
931.519	3477
931.623	3568
