Data from test_V78500241_2248.txt Node
Date: Fri Mar 25 17:04:38 CST 2022
User: usil
Spectrometer: V785-0024
Trigger mode: 0
Integration Time (sec): 4.000000E-1
Scans to average: 1
Nonlinearity correction enabled: false
Boxcar width: 0
Storing dark spectrum: false
XAxis mode: Wavelengths
Number of Pixels in Spectrum: 1024
>>>>>Begin Spectral Data<<<<<
801.071	8077
801.214	8005
801.356	7932
801.499	7860
801.641	7841
801.783	7830
801.926	7982
802.068	8016
802.211	8027
802.353	8001
802.496	7909
802.638	7887
802.78	7932
802.923	7997
803.065	7830
803.208	7849
803.35	7993
803.492	8100
803.635	8164
803.777	7997
803.919	8130
804.061	8461
804.204	8210
804.346	8103
804.488	7917
804.63	8180
804.773	7997
804.915	8100
805.057	8332
805.199	8176
805.341	8233
805.483	8301
805.626	8252
805.768	8149
805.91	8183
806.052	8244
806.194	8138
806.336	8267
806.478	8130
806.62	8103
806.762	8187
806.904	8252
807.046	8457
807.188	8355
807.33	8313
807.472	8332
807.614	8237
807.756	8172
807.898	8012
808.04	7830
808.182	7875
808.324	7921
808.465	7871
808.607	8081
808.749	8157
808.891	8252
809.033	8351
809.174	8153
809.316	8081
809.458	7993
809.6	8016
809.741	8096
809.883	7963
810.025	8134
810.166	8058
810.308	7982
810.45	7982
810.591	7837
810.733	7662
810.875	7734
811.016	7506
811.158	7495
811.299	7586
811.441	7662
811.582	7677
811.724	7540
811.865	7559
812.007	7594
812.148	7571
812.29	7613
812.431	7734
812.573	7833
812.714	7974
812.855	8168
812.997	8130
813.138	8351
813.279	8164
813.421	8077
813.562	8020
813.703	7852
813.845	7742
813.986	7396
814.127	7209
814.268	7213
814.41	7209
814.551	7164
814.692	7126
814.833	7149
814.974	7110
815.115	7095
815.256	6958
815.397	6928
815.539	6939
815.68	6779
815.821	6734
815.962	6886
816.103	6806
816.244	6722
816.385	6597
816.526	6639
816.666	6433
816.807	6308
816.948	6407
817.089	6490
817.23	6388
817.371	6437
817.512	6308
817.653	6384
817.793	6323
817.934	6365
818.075	6506
818.216	6452
818.356	6509
818.497	6258
818.638	6148
818.778	6152
818.919	6133
819.06	6114
819.2	6315
819.341	6422
819.481	6353
819.622	6570
819.762	6738
819.903	6719
820.043	6646
820.184	6547
820.324	6589
820.465	6684
820.605	6715
820.746	6604
820.886	6555
821.026	6692
821.167	6703
821.307	6825
821.447	6852
821.588	6688
821.728	6563
821.868	6566
822.008	6327
822.149	6445
822.289	6334
822.429	6205
822.569	6095
822.709	6182
822.849	5977
822.99	5916
823.13	5958
823.27	5931
823.41	5836
823.55	5790
823.69	5821
823.83	5809
823.97	5608
824.11	5600
824.25	5566
824.389	5604
824.529	5547
824.669	5532
824.809	5672
824.949	5718
825.089	5672
825.228	5611
825.368	5455
825.508	5391
825.648	5376
825.787	5425
825.927	5357
826.067	5353
826.206	5337
826.346	5463
826.485	5467
826.625	5455
826.765	5592
826.904	5573
827.044	5261
827.183	5280
827.323	5151
827.462	5265
827.601	5250
827.741	5269
827.88	5254
828.02	5121
828.159	5284
828.298	5349
828.437	5395
828.577	5322
828.716	5535
828.855	5383
828.994	5201
829.134	5178
829.273	5242
829.412	5201
829.551	5166
829.69	5227
829.829	5299
829.968	5402
830.107	5277
830.246	5303
830.385	5178
830.524	5174
830.663	5086
830.802	4976
830.941	4930
831.08	4942
831.219	5071
831.357	5003
831.496	5223
831.635	4938
831.774	4839
831.913	4877
832.051	4782
832.19	4771
832.329	4831
832.467	4691
832.606	4698
832.744	4778
832.883	4721
833.022	4771
833.16	4805
833.299	4873
833.437	4870
833.576	4873
833.714	4870
833.852	4881
833.991	4900
834.129	4972
834.267	5006
834.406	4908
834.544	4987
834.682	5010
834.821	5037
834.959	5162
835.097	5048
835.235	5212
835.373	5090
835.511	5060
835.65	5022
835.788	5060
835.926	4972
836.064	4911
836.202	4915
836.34	5185
836.478	5269
836.615	5204
836.753	5242
836.891	5307
837.029	5277
837.167	5258
837.305	5223
837.443	5143
837.58	5147
837.718	5246
837.856	5235
837.993	5250
838.131	5250
838.269	5288
838.406	5280
838.544	5181
838.681	5052
838.819	5041
838.956	4923
839.094	4911
839.231	5014
839.369	5136
839.506	5459
839.643	5372
839.781	5098
839.918	5094
840.055	5105
840.193	5064
840.33	5162
840.467	5155
840.604	5250
840.742	5474
840.879	5117
841.016	5117
841.153	5181
841.29	5440
841.427	5402
841.564	5288
841.701	5429
841.838	5307
841.975	5277
842.112	5231
842.249	5147
842.385	5178
842.522	5364
842.659	5216
842.796	5159
842.933	5231
843.069	5155
843.206	5235
843.343	5326
843.479	5254
843.616	5299
843.752	5033
843.889	5079
844.025	5288
844.162	5041
844.298	5250
844.435	5113
844.571	5086
844.708	5178
844.844	5357
844.98	5387
845.117	5292
845.253	5147
845.389	5140
845.525	5121
845.661	5159
845.798	5033
845.934	5193
846.07	5086
846.206	5208
846.342	5307
846.478	5242
846.614	5037
846.75	5018
846.886	4938
847.022	5189
847.158	5037
847.294	5140
847.429	5094
847.565	5113
847.701	5421
847.837	4881
847.972	4778
848.108	5045
848.244	4999
848.379	4797
848.515	4755
848.65	4771
848.786	4793
848.921	4831
849.057	4930
849.192	4862
849.328	4793
849.463	4889
849.598	4797
849.734	4767
849.869	4744
850.004	4660
850.14	4721
850.275	4641
850.41	4592
850.545	4592
850.68	4653
850.815	4668
850.95	4653
851.085	4850
851.22	4752
851.355	4698
851.49	4649
851.625	4649
851.76	4660
851.895	4577
852.03	4561
852.165	4664
852.299	4736
852.434	4824
852.569	4786
852.703	4782
852.838	4820
852.973	4968
853.107	4873
853.242	4797
853.376	4729
853.511	4626
853.645	4668
853.78	4801
853.914	4744
854.048	4694
854.183	4714
854.317	4721
854.451	4854
854.585	4759
854.72	4611
854.854	4763
854.988	4637
855.122	4649
855.256	4550
855.39	4744
855.524	4778
855.658	4752
855.792	4767
855.926	4782
856.06	4812
856.194	4816
856.327	4641
856.461	4596
856.595	4630
856.729	4653
856.862	4782
856.996	4679
857.13	4752
857.263	4752
857.397	4828
857.53	4664
857.664	4736
857.797	4767
857.931	4763
858.064	4679
858.197	4763
858.331	4691
858.464	4672
858.597	4523
858.731	4637
858.864	4664
858.997	4641
859.13	4691
859.263	4679
859.396	4706
859.529	4630
859.662	4573
859.795	4538
859.928	4637
860.061	4736
860.194	4786
860.327	4641
860.46	4580
860.592	4733
860.725	4744
860.858	4786
860.99	4645
861.123	4519
861.256	4569
861.388	4611
861.521	5311
861.653	4481
861.786	4451
861.918	4497
862.05	4561
862.183	4561
862.315	4622
862.447	4645
862.58	4535
862.712	4405
862.844	4341
862.976	4493
863.108	4474
863.24	4915
863.372	4356
863.504	4421
863.636	4466
863.768	4538
863.9	4485
864.032	4352
864.164	4459
864.296	4538
864.428	4599
864.559	4573
864.691	4558
864.823	4580
864.954	4481
865.086	4516
865.217	4474
865.349	4424
865.48	4497
865.612	4523
865.743	4630
865.875	4512
866.006	4436
866.137	4500
866.269	4493
866.4	4481
866.531	4409
866.662	4447
866.793	4428
866.924	4424
867.055	4481
867.186	4474
867.317	4443
867.448	4413
867.579	4447
867.71	4440
867.841	4375
867.972	4500
868.103	4485
868.233	4474
868.364	4493
868.495	4500
868.625	4672
868.756	4771
868.886	4558
869.017	4653
869.147	4805
869.278	4782
869.408	4702
869.539	4698
869.669	4725
869.799	4664
869.929	4710
870.06	4782
870.19	4972
870.32	4938
870.45	4961
870.58	5060
870.71	5121
870.84	5105
870.97	4934
871.1	4923
871.23	5212
871.36	5136
871.489	5045
871.619	5140
871.749	5102
871.879	5178
872.008	5193
872.138	5075
872.267	4987
872.397	4866
872.526	4847
872.656	4748
872.785	4816
872.915	4942
873.044	5052
873.173	4923
873.303	4938
873.432	4991
873.561	4984
873.69	4900
873.819	4896
873.948	4927
874.077	4824
874.206	4763
874.335	4755
874.464	4976
874.593	5033
874.722	5022
874.851	5143
874.979	5056
875.108	5052
875.237	4999
875.365	4873
875.494	4949
875.623	4995
875.751	4847
875.88	4908
876.008	5003
876.136	5102
876.265	5216
876.393	5406
876.521	5250
876.65	5201
876.778	5220
876.906	5079
877.034	5041
877.162	5052
877.29	5010
877.418	5124
877.546	5060
877.674	5079
877.802	5067
877.93	5071
878.058	5018
878.185	4896
878.313	4957
878.441	4957
878.568	4839
878.696	4900
878.824	5014
878.951	5022
879.079	5166
879.206	5330
879.333	5155
879.461	4995
879.588	5006
879.715	5140
879.842	5227
879.97	4995
880.097	4828
880.224	4755
880.351	4805
880.478	4850
880.605	4812
880.732	4801
880.859	5033
880.986	4866
881.112	4946
881.239	4843
881.366	4702
881.493	4668
881.619	4584
881.746	4702
881.872	4660
881.999	4675
882.125	4755
882.252	4805
882.378	4843
882.505	4942
882.631	4824
882.757	4694
882.883	4744
883.01	4771
883.136	4668
883.262	4596
883.388	4592
883.514	4812
883.64	4877
883.766	4831
883.892	4706
884.018	4744
884.143	4870
884.269	4999
884.395	4672
884.52	4679
884.646	4672
884.772	4626
884.897	4535
885.023	4672
885.148	4778
885.274	4885
885.399	4831
885.524	4710
885.65	4740
885.775	4748
885.9	4721
886.025	4877
886.15	4778
886.275	4740
886.4	4660
886.525	4710
886.65	4694
886.775	4679
886.9	4923
887.025	5018
887.149	4835
887.274	4698
887.399	4603
887.523	4664
887.648	4588
887.773	4660
887.897	4767
888.021	4755
888.146	4672
888.27	4816
888.395	4968
888.519	4774
888.643	4847
888.767	4801
888.891	4733
889.015	4626
889.139	4660
889.263	4626
889.387	4748
889.511	4850
889.635	4805
889.759	4664
889.883	4675
890.006	4748
890.13	4820
890.254	4634
890.377	4637
890.501	4596
890.624	4554
890.748	4641
890.871	4519
890.995	4462
891.118	4375
891.241	4538
891.364	4531
891.488	4630
891.611	4493
891.734	4527
891.857	4611
891.98	4538
892.103	4611
892.226	4668
892.349	4542
892.471	4421
892.594	4535
892.717	4588
892.839	4580
892.962	4645
893.085	4653
893.207	4554
893.33	4485
893.452	4554
893.575	4637
893.697	4622
893.819	4816
893.941	4843
894.064	4793
894.186	4599
894.308	4561
894.43	4740
894.552	4847
894.674	4736
894.796	4527
894.918	4573
895.04	4645
895.161	4710
895.283	4645
895.405	4554
895.526	4630
895.648	4691
895.769	4653
895.891	4748
896.012	4752
896.134	4702
896.255	4687
896.376	4599
896.498	4626
896.619	4672
896.74	4668
896.861	4653
896.982	4984
897.103	5109
897.224	4831
897.345	4763
897.466	4664
897.587	4721
897.708	4839
897.828	4816
897.949	4668
898.07	4550
898.19	4641
898.311	4767
898.431	4752
898.552	4717
898.672	4824
898.792	4782
898.913	4714
899.033	4645
899.153	4519
899.273	4466
899.393	4538
899.513	4508
899.633	4561
899.753	4519
899.873	4512
899.993	4622
900.113	4519
900.232	4558
900.352	4538
900.472	4474
900.591	4424
900.711	4500
900.83	4466
900.95	4596
901.069	4675
901.189	4531
901.308	4375
901.427	4318
901.546	4386
901.665	4459
901.784	4516
901.904	4383
902.023	4333
902.141	4166
902.26	4154
902.379	4337
902.498	4242
902.617	4227
902.735	4405
902.854	4413
902.973	4356
903.091	4223
903.21	4257
903.328	4325
903.446	4276
903.565	4291
903.683	4421
903.801	4310
903.919	4398
904.038	4478
904.156	4329
904.274	4451
904.392	4424
904.51	4424
904.627	4447
904.745	4554
904.863	4611
904.981	4386
905.098	4333
905.216	4329
905.334	4462
905.451	4470
905.569	4398
905.686	4546
905.803	4554
905.921	4409
906.038	4546
906.155	4478
906.272	4405
906.389	4474
906.506	4322
906.623	4386
906.74	4371
906.857	4363
906.974	4379
907.091	4516
907.208	4752
907.324	4637
907.441	4519
907.557	4314
907.674	4402
907.79	4341
907.907	4413
908.023	4500
908.139	4478
908.256	4390
908.372	4504
908.488	4424
908.604	4360
908.72	4318
908.836	4394
908.952	4356
909.068	4451
909.184	4561
909.3	4466
909.415	4569
909.531	4599
909.647	4383
909.762	4447
909.878	4363
909.993	4478
910.108	4466
910.224	4352
910.339	4428
910.454	4413
910.57	4371
910.685	4333
910.8	4596
910.915	4622
911.03	4504
911.145	4333
911.259	4360
911.374	4409
911.489	4325
911.604	4268
911.718	4154
911.833	4188
911.947	4124
912.062	4032
912.176	4249
912.291	4246
912.405	4303
912.519	4500
912.633	4493
912.748	4337
912.862	4329
912.976	4261
913.09	4071
913.204	4177
913.318	4219
913.431	4333
913.545	4325
913.659	4455
913.772	4318
913.886	4246
914	4219
914.113	4333
914.226	4398
914.34	4398
914.453	4249
914.566	4436
914.68	4287
914.793	4333
914.906	4169
915.019	4135
915.132	4097
915.245	4162
915.358	4230
915.47	4211
915.583	4268
915.696	4280
915.809	4432
915.921	4440
916.034	4314
916.146	4234
916.259	4211
916.371	4367
916.483	4337
916.595	4261
916.708	4333
916.82	4291
916.932	4310
917.044	4325
917.156	4322
917.268	4200
917.38	4265
917.491	4284
917.603	4344
917.715	4379
917.826	4440
917.938	4386
918.049	4211
918.161	4405
918.272	4489
918.384	4519
918.495	4474
918.606	4284
918.717	4246
918.828	4333
918.939	4375
919.05	4268
919.161	4371
919.272	4150
919.383	4242
919.494	4409
919.604	4645
919.715	4447
919.826	4356
919.936	4409
920.047	4542
920.157	4516
920.267	4721
920.378	4516
920.488	4508
920.598	4664
920.708	4919
920.818	4771
920.928	4793
921.038	4965
921.148	4908
921.258	4641
921.368	4535
921.477	4512
921.587	4443
921.697	4360
921.806	4485
921.916	4428
922.025	4234
922.134	4276
922.244	4188
922.353	4314
922.462	4185
922.571	4150
922.68	4010
922.789	3983
922.898	4048
923.007	3979
923.116	4048
923.224	4086
923.333	4067
923.442	3964
923.55	4006
923.659	4032
923.767	4097
923.876	4029
923.984	4109
924.092	4006
924.201	4074
924.309	4135
924.417	4120
924.525	4036
924.633	4124
924.741	5048
924.849	3926
924.956	4105
925.064	3941
925.172	3861
925.279	3968
925.387	4067
925.494	4044
925.602	4200
925.709	4173
925.816	4029
925.924	4116
926.031	4227
926.138	4166
926.245	4177
926.352	4109
926.459	4200
926.566	4325
926.673	4139
926.779	4101
926.886	4109
926.993	4017
927.099	3934
927.206	3926
927.312	3937
927.419	4105
927.525	4021
927.631	4078
927.737	3934
927.843	3987
927.95	3850
928.056	3915
928.162	3979
928.267	4063
928.373	4714
928.479	4071
928.585	3850
928.69	3994
928.796	4128
928.901	3953
929.007	3861
929.112	4002
929.218	3968
929.323	3922
929.428	3968
929.533	4059
929.638	3926
929.743	3964
929.848	4059
929.953	4010
930.058	3953
930.163	3819
930.267	3842
930.372	3998
930.477	3774
930.581	4090
930.685	3922
930.79	3774
930.894	3915
930.998	3857
931.103	4002
931.207	3671
931.311	3717
931.415	3694
931.519	3538
931.623	3507
