Data from test_V78500241_186.txt Node
Date: Fri Mar 25 16:50:17 CST 2022
User: usil
Spectrometer: V785-0024
Trigger mode: 0
Integration Time (sec): 4.000000E-1
Scans to average: 1
Nonlinearity correction enabled: false
Boxcar width: 0
Storing dark spectrum: false
XAxis mode: Wavelengths
Number of Pixels in Spectrum: 1024
>>>>>Begin Spectral Data<<<<<
801.071	8035
801.214	8043
801.356	7814
801.499	7826
801.641	7776
801.783	7811
801.926	8012
802.068	7974
802.211	7932
802.353	7925
802.496	7837
802.638	7909
802.78	7906
802.923	7871
803.065	7837
803.208	7925
803.35	7963
803.492	8058
803.635	8180
803.777	7947
803.919	8145
804.061	8339
804.204	8130
804.346	8005
804.488	7963
804.63	8024
804.773	7894
804.915	8039
805.057	8271
805.199	8142
805.341	8161
805.483	8229
805.626	8145
805.768	8111
805.91	8176
806.052	8183
806.194	8088
806.336	8259
806.478	8096
806.62	8046
806.762	8149
806.904	8202
807.046	8377
807.188	8294
807.33	8301
807.472	8290
807.614	8126
807.756	8096
807.898	8077
808.04	7837
808.182	7883
808.324	7883
808.465	7913
808.607	8081
808.749	8100
808.891	8229
809.033	8313
809.174	8126
809.316	8039
809.458	8077
809.6	7959
809.741	8073
809.883	8024
810.025	8077
810.166	8073
810.308	7997
810.45	8027
810.591	7906
810.733	7795
810.875	7715
811.016	7510
811.158	7441
811.299	7578
811.441	7685
811.582	7681
811.724	7647
811.865	7594
812.007	7651
812.148	7613
812.29	7613
812.431	7818
812.573	7925
812.714	7902
812.855	8176
812.997	8210
813.138	8332
813.279	8138
813.421	8115
813.562	8008
813.703	7849
813.845	7681
813.986	7552
814.127	7305
814.268	7305
814.41	7236
814.551	7183
814.692	7171
814.833	7095
814.974	7118
815.115	7129
815.256	6970
815.397	6951
815.539	7000
815.68	6837
815.821	6719
815.962	6863
816.103	6798
816.244	6669
816.385	6669
816.526	6719
816.666	6502
816.807	6422
816.948	6437
817.089	6475
817.23	6395
817.371	6395
817.512	6369
817.653	6426
817.793	6327
817.934	6407
818.075	6483
818.216	6433
818.356	6346
818.497	6232
818.638	6140
818.778	6117
818.919	6087
819.06	6152
819.2	6311
819.341	6308
819.481	6327
819.622	6540
819.762	6654
819.903	6681
820.043	6604
820.184	6662
820.324	6582
820.465	6696
820.605	6654
820.746	6631
820.886	6574
821.026	6635
821.167	6776
821.307	6730
821.447	6749
821.588	6677
821.728	6563
821.868	6528
822.008	6338
822.149	6338
822.289	6350
822.429	6205
822.569	6072
822.709	6129
822.849	5908
822.99	5927
823.13	5885
823.27	5863
823.41	5790
823.55	5836
823.69	5779
823.83	5779
823.97	5684
824.11	5471
824.25	5516
824.389	5562
824.529	5592
824.669	5543
824.809	5611
824.949	5672
825.089	5562
825.228	5528
825.368	5383
825.508	5345
825.648	5345
825.787	5345
825.927	5376
826.067	5337
826.206	5296
826.346	5395
826.485	5455
826.625	5414
826.765	5596
826.904	5463
827.044	5273
827.183	5208
827.323	5132
827.462	5250
827.601	5174
827.741	5223
827.88	5239
828.02	5132
828.159	5258
828.298	5292
828.437	5383
828.577	5288
828.716	5520
828.855	5273
828.994	5140
829.134	5117
829.273	5242
829.412	5166
829.551	5140
829.69	5166
829.829	5216
829.968	5364
830.107	5303
830.246	5269
830.385	5189
830.524	5147
830.663	5037
830.802	5064
830.941	4946
831.08	4850
831.219	4984
831.357	4987
831.496	5181
831.635	4930
831.774	4835
831.913	4885
832.051	4675
832.19	4740
832.329	4889
832.467	4687
832.606	4679
832.744	4736
832.883	4752
833.022	4717
833.16	4790
833.299	4873
833.437	4812
833.576	4835
833.714	4850
833.852	4908
833.991	4889
834.129	4984
834.267	4942
834.406	4942
834.544	4923
834.682	4961
834.821	4976
834.959	5162
835.097	4968
835.235	5143
835.373	5056
835.511	5147
835.65	5071
835.788	5010
835.926	4858
836.064	4881
836.202	4889
836.34	5178
836.478	5227
836.615	5170
836.753	5220
836.891	5258
837.029	5223
837.167	5193
837.305	5189
837.443	5151
837.58	5090
837.718	5235
837.856	5216
837.993	5117
838.131	5223
838.269	5216
838.406	5181
838.544	5178
838.681	5064
838.819	5048
838.956	4904
839.094	4847
839.231	4972
839.369	5052
839.506	5425
839.643	5284
839.781	5086
839.918	4999
840.055	5014
840.193	5117
840.33	5041
840.467	5124
840.604	5178
840.742	5474
840.879	5083
841.016	5041
841.153	5143
841.29	5414
841.427	5292
841.564	5315
841.701	5334
841.838	5307
841.975	5277
842.112	5269
842.249	5132
842.385	5086
842.522	5364
842.659	5140
842.796	5189
842.933	5178
843.069	5124
843.206	5170
843.343	5303
843.479	5231
843.616	5261
843.752	5025
843.889	5025
844.025	5223
844.162	5018
844.298	5242
844.435	5105
844.571	5045
844.708	5220
844.844	5288
844.98	5292
845.117	5269
845.253	5136
845.389	5132
845.525	5197
845.661	5117
845.798	5033
845.934	5109
846.07	5045
846.206	5216
846.342	5280
846.478	5201
846.614	5052
846.75	4991
846.886	4930
847.022	5121
847.158	5025
847.294	5025
847.429	5140
847.565	5064
847.701	5288
847.837	4850
847.972	4820
848.108	4987
848.244	4881
848.379	4782
848.515	4725
848.65	4725
848.786	4782
848.921	4752
849.057	4911
849.192	4896
849.328	4809
849.463	4870
849.598	4850
849.734	4759
849.869	4736
850.004	4679
850.14	4733
850.275	4588
850.41	4554
850.545	4546
850.68	4592
850.815	4637
850.95	4672
851.085	4930
851.22	4782
851.355	4694
851.49	4641
851.625	4611
851.76	4637
851.895	4596
852.03	4580
852.165	4675
852.299	4774
852.434	4831
852.569	4740
852.703	4820
852.838	4843
852.973	4949
853.107	4976
853.242	4767
853.376	4748
853.511	4618
853.645	4725
853.78	4881
853.914	4710
854.048	4660
854.183	4694
854.317	4744
854.451	4892
854.585	4736
854.72	4706
854.854	4801
854.988	4641
855.122	4660
855.256	4558
855.39	4725
855.524	4824
855.658	4767
855.792	4752
855.926	4790
856.06	4793
856.194	4892
856.327	4733
856.461	4710
856.595	4702
856.729	4744
856.862	4786
856.996	4763
857.13	4790
857.263	4812
857.397	4873
857.53	4714
857.664	4782
857.797	4801
857.931	4774
858.064	4710
858.197	4767
858.331	4710
858.464	4630
858.597	4523
858.731	4672
858.864	4733
858.997	4641
859.13	4717
859.263	4702
859.396	4679
859.529	4653
859.662	4588
859.795	4596
859.928	4706
860.061	4877
860.194	4812
860.327	4679
860.46	4607
860.592	4717
860.725	4778
860.858	4744
860.99	4645
861.123	4558
861.256	4592
861.388	4672
861.521	5463
861.653	4512
861.786	4500
861.918	4508
862.05	4561
862.183	4607
862.315	4649
862.447	4656
862.58	4615
862.712	4436
862.844	4421
862.976	4508
863.108	4489
863.24	4968
863.372	4455
863.504	4459
863.636	4493
863.768	4554
863.9	4531
864.032	4478
864.164	4436
864.296	4500
864.428	4603
864.559	4603
864.691	4508
864.823	4592
864.954	4596
865.086	4558
865.217	4481
865.349	4481
865.48	4455
865.612	4561
865.743	4634
865.875	4478
866.006	4481
866.137	4500
866.269	4497
866.4	4424
866.531	4462
866.662	4470
866.793	4451
866.924	4455
867.055	4497
867.186	4481
867.317	4478
867.448	4421
867.579	4428
867.71	4447
867.841	4394
867.972	4512
868.103	4497
868.233	4478
868.364	4474
868.495	4481
868.625	4717
868.756	4801
868.886	4615
869.017	4687
869.147	4835
869.278	4809
869.408	4736
869.539	4729
869.669	4763
869.799	4698
869.929	4805
870.06	4755
870.19	4957
870.32	4984
870.45	5018
870.58	5029
870.71	5117
870.84	5185
870.97	5022
871.1	4957
871.23	5174
871.36	5166
871.489	5045
871.619	5128
871.749	5132
871.879	5204
872.008	5204
872.138	5117
872.267	5003
872.397	4877
872.526	4835
872.656	4767
872.785	4820
872.915	4972
873.044	5048
873.173	4991
873.303	4999
873.432	5022
873.561	4980
873.69	4885
873.819	4896
873.948	5006
874.077	4850
874.206	4771
874.335	4858
874.464	4949
874.593	5060
874.722	5025
874.851	5159
874.979	5094
875.108	5083
875.237	4911
875.365	4938
875.494	4980
875.623	5045
875.751	4873
875.88	4930
876.008	5010
876.136	5056
876.265	5178
876.393	5383
876.521	5296
876.65	5296
876.778	5216
876.906	5143
877.034	5048
877.162	5079
877.29	5041
877.418	5079
877.546	5128
877.674	5117
877.802	5083
877.93	5075
878.058	4968
878.185	4934
878.313	4991
878.441	4968
878.568	4900
878.696	4889
878.824	5033
878.951	5052
879.079	5159
879.206	5334
879.333	5166
879.461	5029
879.588	5029
879.715	5166
879.842	5235
879.97	5083
880.097	4805
880.224	4786
880.351	4809
880.478	4847
880.605	4870
880.732	4858
880.859	5098
880.986	4949
881.112	4980
881.239	4790
881.366	4672
881.493	4622
881.619	4615
881.746	4641
881.872	4694
881.999	4717
882.125	4725
882.252	4828
882.378	4911
882.505	5018
882.631	4850
882.757	4706
882.883	4778
883.01	4744
883.136	4710
883.262	4641
883.388	4641
883.514	4889
883.64	4915
883.766	4793
883.892	4759
884.018	4778
884.143	4938
884.269	5052
884.395	4698
884.52	4664
884.646	4637
884.772	4630
884.897	4615
885.023	4698
885.148	4820
885.274	4847
885.399	4786
885.524	4786
885.65	4717
885.775	4801
885.9	4755
886.025	4923
886.15	4828
886.275	4797
886.4	4702
886.525	4790
886.65	4736
886.775	4755
886.9	4946
887.025	5067
887.149	4873
887.274	4721
887.399	4588
887.523	4660
887.648	4618
887.773	4626
887.897	4763
888.021	4809
888.146	4702
888.27	4873
888.395	4923
888.519	4805
888.643	4824
888.767	4854
888.891	4694
889.015	4653
889.139	4714
889.263	4656
889.387	4820
889.511	4885
889.635	4835
889.759	4672
889.883	4656
890.006	4740
890.13	4873
890.254	4626
890.377	4702
890.501	4546
890.624	4542
890.748	4683
890.871	4561
890.995	4481
891.118	4390
891.241	4527
891.364	4645
891.488	4702
891.611	4466
891.734	4596
891.857	4630
891.98	4588
892.103	4596
892.226	4637
892.349	4573
892.471	4413
892.594	4596
892.717	4618
892.839	4603
892.962	4592
893.085	4710
893.207	4596
893.33	4497
893.452	4558
893.575	4679
893.697	4634
893.819	4835
893.941	4831
894.064	4824
894.186	4611
894.308	4611
894.43	4816
894.552	4862
894.674	4786
894.796	4622
894.918	4637
895.04	4561
895.161	4717
895.283	4698
895.405	4634
895.526	4675
895.648	4698
895.769	4675
895.891	4755
896.012	4774
896.134	4786
896.255	4702
896.376	4691
896.498	4668
896.619	4691
896.74	4668
896.861	4694
896.982	4949
897.103	5166
897.224	4847
897.345	4771
897.466	4668
897.587	4771
897.708	4885
897.828	4831
897.949	4721
898.07	4592
898.19	4687
898.311	4896
898.431	4702
898.552	4752
898.672	4873
898.792	4812
898.913	4790
899.033	4683
899.153	4542
899.273	4466
899.393	4527
899.513	4565
899.633	4523
899.753	4611
899.873	4523
899.993	4596
900.113	4573
900.232	4626
900.352	4546
900.472	4531
900.591	4432
900.711	4485
900.83	4478
900.95	4656
901.069	4755
901.189	4584
901.308	4417
901.427	4314
901.546	4428
901.665	4512
901.784	4592
901.904	4443
902.023	4344
902.141	4219
902.26	4207
902.379	4348
902.498	4238
902.617	4249
902.735	4375
902.854	4405
902.973	4341
903.091	4234
903.21	4261
903.328	4318
903.446	4291
903.565	4299
903.683	4356
903.801	4310
903.919	4413
904.038	4474
904.156	4344
904.274	4497
904.392	4417
904.51	4470
904.627	4535
904.745	4577
904.863	4596
904.981	4485
905.098	4337
905.216	4371
905.334	4409
905.451	4481
905.569	4478
905.686	4607
905.803	4607
905.921	4462
906.038	4584
906.155	4497
906.272	4447
906.389	4550
906.506	4322
906.623	4436
906.74	4474
906.857	4348
906.974	4417
907.091	4546
907.208	4706
907.324	4641
907.441	4558
907.557	4348
907.674	4383
907.79	4325
907.907	4398
908.023	4489
908.139	4493
908.256	4443
908.372	4485
908.488	4489
908.604	4333
908.72	4371
908.836	4417
908.952	4428
909.068	4485
909.184	4611
909.3	4538
909.415	4561
909.531	4550
909.647	4375
909.762	4356
909.878	4367
909.993	4428
910.108	4451
910.224	4474
910.339	4512
910.454	4413
910.57	4360
910.685	4344
910.8	4752
910.915	4618
911.03	4531
911.145	4367
911.259	4367
911.374	4413
911.489	4337
911.604	4261
911.718	4238
911.833	4204
911.947	4082
912.062	4078
912.176	4181
912.291	4276
912.405	4291
912.519	4497
912.633	4512
912.748	4363
912.862	4295
912.976	4211
913.09	4128
913.204	4211
913.318	4261
913.431	4413
913.545	4432
913.659	4459
913.772	4367
913.886	4227
914	4238
914.113	4443
914.226	4432
914.34	4451
914.453	4230
914.566	4417
914.68	4318
914.793	4325
914.906	4185
915.019	4181
915.132	4131
915.245	4207
915.358	4227
915.47	4291
915.583	4280
915.696	4363
915.809	4417
915.921	4440
916.034	4284
916.146	4303
916.259	4238
916.371	4329
916.483	4390
916.595	4295
916.708	4356
916.82	4318
916.932	4314
917.044	4352
917.156	4398
917.268	4238
917.38	4318
917.491	4287
917.603	4405
917.715	4447
917.826	4478
917.938	4383
918.049	4253
918.161	4417
918.272	4561
918.384	4569
918.495	4519
918.606	4337
918.717	4257
918.828	4421
918.939	4383
919.05	4318
919.161	4424
919.272	4162
919.383	4280
919.494	4485
919.604	4649
919.715	4466
919.826	4386
919.936	4474
920.047	4554
920.157	4561
920.267	4774
920.378	4588
920.488	4550
920.598	4733
920.708	4915
920.818	4805
920.928	4786
921.038	5071
921.148	4946
921.258	4645
921.368	4630
921.477	4538
921.587	4485
921.697	4417
921.806	4611
921.916	4485
922.025	4356
922.134	4306
922.244	4299
922.353	4367
922.462	4238
922.571	4196
922.68	4139
922.789	4051
922.898	4086
923.007	4078
923.116	4200
923.224	4147
923.333	4120
923.442	4017
923.55	4013
923.659	4051
923.767	4109
923.876	4101
923.984	4181
924.092	4036
924.201	4135
924.309	4177
924.417	4166
924.525	4147
924.633	4181
924.741	4934
924.849	3994
924.956	4131
925.064	4013
925.172	3975
925.279	4029
925.387	4093
925.494	4128
925.602	4253
925.709	4219
925.816	4082
925.924	4162
926.031	4246
926.138	4188
926.245	4284
926.352	4154
926.459	4291
926.566	4360
926.673	4219
926.779	4124
926.886	4112
926.993	4013
927.099	4010
927.206	4002
927.312	3979
927.419	4124
927.525	4093
927.631	4158
927.737	4013
927.843	3979
927.95	3873
928.056	4044
928.162	4017
928.267	4074
928.373	4755
928.479	4150
928.585	3926
928.69	4124
928.796	4128
928.901	4010
929.007	3918
929.112	4074
929.218	4002
929.323	3983
929.428	4006
929.533	4128
929.638	4010
929.743	3994
929.848	4116
929.953	4029
930.058	3930
930.163	3873
930.267	3869
930.372	4032
930.477	3850
930.581	4112
930.685	3987
930.79	3892
930.894	3930
930.998	3888
931.103	4071
931.207	3736
931.311	3781
931.415	3720
931.519	3595
931.623	3618
