Data from test_V78500241_2488.txt Node
Date: Fri Mar 25 17:06:18 CST 2022
User: usil
Spectrometer: V785-0024
Trigger mode: 0
Integration Time (sec): 4.000000E-1
Scans to average: 1
Nonlinearity correction enabled: false
Boxcar width: 0
Storing dark spectrum: false
XAxis mode: Wavelengths
Number of Pixels in Spectrum: 1024
>>>>>Begin Spectral Data<<<<<
801.071	7997
801.214	7959
801.356	7860
801.499	7807
801.641	7833
801.783	7837
801.926	7936
802.068	7997
802.211	7986
802.353	8039
802.496	7887
802.638	7928
802.78	7951
802.923	7890
803.065	7864
803.208	7772
803.35	7940
803.492	8027
803.635	8248
803.777	7986
803.919	8111
804.061	8446
804.204	8164
804.346	8039
804.488	7940
804.63	8161
804.773	8024
804.915	8073
805.057	8309
805.199	8138
805.341	8126
805.483	8305
805.626	8275
805.768	8126
805.91	8176
806.052	8157
806.194	8077
806.336	8298
806.478	8039
806.62	8065
806.762	8145
806.904	8259
807.046	8503
807.188	8355
807.33	8248
807.472	8320
807.614	8088
807.756	8153
807.898	7967
808.04	7932
808.182	7883
808.324	7772
808.465	7875
808.607	8058
808.749	8081
808.891	8233
809.033	8317
809.174	8191
809.316	8024
809.458	8046
809.6	8008
809.741	8027
809.883	8054
810.025	8115
810.166	8008
810.308	8062
810.45	7986
810.591	7871
810.733	7719
810.875	7666
811.016	7487
811.158	7415
811.299	7605
811.441	7712
811.582	7666
811.724	7613
811.865	7514
812.007	7708
812.148	7609
812.29	7662
812.431	7723
812.573	7871
812.714	7928
812.855	8149
812.997	8123
813.138	8263
813.279	8111
813.421	8046
813.562	8012
813.703	7837
813.845	7780
813.986	7434
814.127	7213
814.268	7247
814.41	7187
814.551	7110
814.692	7206
814.833	7137
814.974	7168
815.115	7198
815.256	7012
815.397	6875
815.539	6920
815.68	6757
815.821	6772
815.962	6905
816.103	6818
816.244	6821
816.385	6700
816.526	6608
816.666	6521
816.807	6350
816.948	6441
817.089	6517
817.23	6391
817.371	6395
817.512	6399
817.653	6414
817.793	6369
817.934	6414
818.075	6395
818.216	6353
818.356	6346
818.497	6300
818.638	6155
818.778	6186
818.919	6163
819.06	6098
819.2	6384
819.341	6308
819.481	6391
819.622	6521
819.762	6681
819.903	6662
820.043	6574
820.184	6608
820.324	6585
820.465	6665
820.605	6662
820.746	6650
820.886	6498
821.026	6722
821.167	6707
821.307	6806
821.447	6772
821.588	6673
821.728	6604
821.868	6521
822.008	6388
822.149	6441
822.289	6369
822.429	6087
822.569	6083
822.709	6136
822.849	5920
822.99	5923
823.13	5908
823.27	5927
823.41	5813
823.55	5798
823.69	5760
823.83	5767
823.97	5653
824.11	5486
824.25	5509
824.389	5570
824.529	5566
824.669	5505
824.809	5653
824.949	5623
825.089	5596
825.228	5539
825.368	5391
825.508	5391
825.648	5376
825.787	5368
825.927	5353
826.067	5311
826.206	5273
826.346	5414
826.485	5414
826.625	5398
826.765	5509
826.904	5467
827.044	5261
827.183	5212
827.323	5162
827.462	5246
827.601	5212
827.741	5162
827.88	5170
828.02	5060
828.159	5212
828.298	5299
828.437	5425
828.577	5326
828.716	5490
828.855	5337
828.994	5166
829.134	5105
829.273	5174
829.412	5159
829.551	5113
829.69	5166
829.829	5254
829.968	5402
830.107	5277
830.246	5277
830.385	5143
830.524	5166
830.663	5124
830.802	4972
830.941	4828
831.08	4881
831.219	4980
831.357	4984
831.496	5102
831.635	4919
831.774	4809
831.913	4835
832.051	4717
832.19	4721
832.329	4870
832.467	4687
832.606	4634
832.744	4706
832.883	4755
833.022	4725
833.16	4771
833.299	4831
833.437	4847
833.576	4801
833.714	4854
833.852	4866
833.991	4904
834.129	4957
834.267	5003
834.406	4904
834.544	4987
834.682	4976
834.821	4904
834.959	5128
835.097	4972
835.235	5159
835.373	5041
835.511	5064
835.65	5029
835.788	5018
835.926	4911
836.064	4900
836.202	4930
836.34	5181
836.478	5223
836.615	5204
836.753	5223
836.891	5273
837.029	5269
837.167	5208
837.305	5178
837.443	5147
837.58	5037
837.718	5277
837.856	5151
837.993	5128
838.131	5246
838.269	5181
838.406	5204
838.544	5189
838.681	5037
838.819	5003
838.956	4885
839.094	4911
839.231	4980
839.369	5079
839.506	5395
839.643	5242
839.781	5041
839.918	5060
840.055	5079
840.193	5056
840.33	5124
840.467	5109
840.604	5174
840.742	5425
840.879	5075
841.016	5094
841.153	5170
841.29	5341
841.427	5349
841.564	5315
841.701	5364
841.838	5296
841.975	5242
842.112	5277
842.249	5075
842.385	5166
842.522	5337
842.659	5136
842.796	5147
842.933	5155
843.069	5151
843.206	5155
843.343	5311
843.479	5220
843.616	5239
843.752	5022
843.889	5003
844.025	5208
844.162	5025
844.298	5216
844.435	5090
844.571	5060
844.708	5174
844.844	5288
844.98	5337
845.117	5296
845.253	5159
845.389	5098
845.525	5140
845.661	5109
845.798	5018
845.934	5143
846.07	5083
846.206	5185
846.342	5254
846.478	5174
846.614	5056
846.75	4930
846.886	4949
847.022	5132
847.158	4995
847.294	5102
847.429	5121
847.565	5075
847.701	5318
847.837	4866
847.972	4786
848.108	4972
848.244	4957
848.379	4736
848.515	4778
848.65	4729
848.786	4740
848.921	4786
849.057	4835
849.192	4862
849.328	4847
849.463	4885
849.598	4816
849.734	4759
849.869	4706
850.004	4580
850.14	4634
850.275	4580
850.41	4474
850.545	4516
850.68	4558
850.815	4603
850.95	4588
851.085	4885
851.22	4778
851.355	4653
851.49	4588
851.625	4653
851.76	4611
851.895	4577
852.03	4489
852.165	4645
852.299	4729
852.434	4797
852.569	4755
852.703	4752
852.838	4858
852.973	4949
853.107	4892
853.242	4782
853.376	4649
853.511	4531
853.645	4611
853.78	4812
853.914	4691
854.048	4679
854.183	4622
854.317	4714
854.451	4850
854.585	4698
854.72	4668
854.854	4767
854.988	4569
855.122	4603
855.256	4531
855.39	4645
855.524	4752
855.658	4698
855.792	4717
855.926	4710
856.06	4744
856.194	4801
856.327	4679
856.461	4615
856.595	4599
856.729	4641
856.862	4759
856.996	4668
857.13	4748
857.263	4755
857.397	4782
857.53	4668
857.664	4725
857.797	4774
857.931	4721
858.064	4725
858.197	4668
858.331	4675
858.464	4607
858.597	4508
858.731	4622
858.864	4637
858.997	4554
859.13	4637
859.263	4668
859.396	4687
859.529	4565
859.662	4535
859.795	4531
859.928	4637
860.061	4710
860.194	4771
860.327	4611
860.46	4550
860.592	4717
860.725	4733
860.858	4683
860.99	4554
861.123	4554
861.256	4508
861.388	4596
861.521	5216
861.653	4474
861.786	4440
861.918	4432
862.05	4535
862.183	4558
862.315	4611
862.447	4622
862.58	4535
862.712	4405
862.844	4299
862.976	4481
863.108	4523
863.24	4896
863.372	4379
863.504	4428
863.636	4417
863.768	4481
863.9	4417
864.032	4363
864.164	4470
864.296	4478
864.428	4485
864.559	4607
864.691	4592
864.823	4497
864.954	4459
865.086	4500
865.217	4485
865.349	4413
865.48	4462
865.612	4489
865.743	4626
865.875	4443
866.006	4443
866.137	4497
866.269	4447
866.4	4432
866.531	4432
866.662	4402
866.793	4451
866.924	4409
867.055	4478
867.186	4421
867.317	4424
867.448	4405
867.579	4424
867.71	4367
867.841	4371
867.972	4481
868.103	4466
868.233	4497
868.364	4459
868.495	4466
868.625	4641
868.756	4759
868.886	4588
869.017	4626
869.147	4752
869.278	4759
869.408	4683
869.539	4641
869.669	4679
869.799	4645
869.929	4763
870.06	4702
870.19	4980
870.32	4946
870.45	4881
870.58	4953
870.71	5048
870.84	5117
870.97	4991
871.1	4892
871.23	5124
871.36	5052
871.489	5033
871.619	5094
871.749	5052
871.879	5121
872.008	5185
872.138	5083
872.267	4957
872.397	4812
872.526	4767
872.656	4698
872.785	4797
872.915	4930
873.044	5033
873.173	4957
873.303	4949
873.432	4930
873.561	4919
873.69	4908
873.819	4900
873.948	4870
874.077	4862
874.206	4801
874.335	4831
874.464	4919
874.593	5067
874.722	4961
874.851	5075
874.979	5117
875.108	5071
875.237	4900
875.365	4877
875.494	4870
875.623	4965
875.751	4790
875.88	4892
876.008	5003
876.136	5029
876.265	5212
876.393	5334
876.521	5269
876.65	5170
876.778	5147
876.906	5064
877.034	4980
877.162	5056
877.29	4999
877.418	5094
877.546	5079
877.674	5056
877.802	5010
877.93	4980
878.058	4885
878.185	4854
878.313	4908
878.441	4957
878.568	4797
878.696	4862
878.824	4927
878.951	4984
879.079	5132
879.206	5277
879.333	5098
879.461	4972
879.588	4968
879.715	5117
879.842	5193
879.97	5022
880.097	4809
880.224	4744
880.351	4793
880.478	4835
880.605	4820
880.732	4790
880.859	5105
880.986	4858
881.112	4904
881.239	4748
881.366	4649
881.493	4660
881.619	4596
881.746	4649
881.872	4626
881.999	4683
882.125	4706
882.252	4774
882.378	4870
882.505	5006
882.631	4774
882.757	4683
882.883	4752
883.01	4797
883.136	4702
883.262	4596
883.388	4656
883.514	4790
883.64	4839
883.766	4809
883.892	4710
884.018	4710
884.143	4896
884.269	4938
884.395	4664
884.52	4683
884.646	4649
884.772	4538
884.897	4573
885.023	4615
885.148	4778
885.274	4854
885.399	4847
885.524	4691
885.65	4691
885.775	4717
885.9	4649
886.025	4873
886.15	4729
886.275	4679
886.4	4664
886.525	4771
886.65	4672
886.775	4668
886.9	4949
887.025	5033
887.149	4771
887.274	4660
887.399	4588
887.523	4569
887.648	4569
887.773	4565
887.897	4752
888.021	4736
888.146	4683
888.27	4805
888.395	4892
888.519	4801
888.643	4858
888.767	4820
888.891	4691
889.015	4618
889.139	4634
889.263	4615
889.387	4793
889.511	4854
889.635	4763
889.759	4607
889.883	4630
890.006	4736
890.13	4786
890.254	4561
890.377	4679
890.501	4546
890.624	4497
890.748	4596
890.871	4516
890.995	4413
891.118	4337
891.241	4470
891.364	4542
891.488	4630
891.611	4470
891.734	4538
891.857	4542
891.98	4577
892.103	4656
892.226	4569
892.349	4516
892.471	4394
892.594	4577
892.717	4615
892.839	4615
892.962	4558
893.085	4637
893.207	4588
893.33	4466
893.452	4542
893.575	4645
893.697	4603
893.819	4831
893.941	4900
894.064	4733
894.186	4558
894.308	4523
894.43	4740
894.552	4816
894.674	4778
894.796	4538
894.918	4611
895.04	4580
895.161	4641
895.283	4675
895.405	4607
895.526	4675
895.648	4656
895.769	4691
895.891	4721
896.012	4755
896.134	4717
896.255	4710
896.376	4622
896.498	4599
896.619	4702
896.74	4622
896.861	4645
896.982	4923
897.103	5075
897.224	4771
897.345	4725
897.466	4649
897.587	4706
897.708	4850
897.828	4774
897.949	4679
898.07	4542
898.19	4645
898.311	4824
898.431	4641
898.552	4675
898.672	4839
898.792	4812
898.913	4729
899.033	4626
899.153	4558
899.273	4383
899.393	4478
899.513	4504
899.633	4550
899.753	4485
899.873	4493
899.993	4569
900.113	4558
900.232	4588
900.352	4485
900.472	4535
900.591	4466
900.711	4512
900.83	4394
900.95	4588
901.069	4656
901.189	4599
901.308	4356
901.427	4306
901.546	4386
901.665	4455
901.784	4493
901.904	4348
902.023	4287
902.141	4200
902.26	4158
902.379	4295
902.498	4257
902.617	4196
902.735	4352
902.854	4432
902.973	4363
903.091	4227
903.21	4200
903.328	4284
903.446	4246
903.565	4268
903.683	4348
903.801	4181
903.919	4341
904.038	4432
904.156	4325
904.274	4440
904.392	4409
904.51	4443
904.627	4493
904.745	4550
904.863	4649
904.981	4402
905.098	4325
905.216	4371
905.334	4417
905.451	4417
905.569	4443
905.686	4584
905.803	4592
905.921	4440
906.038	4565
906.155	4470
906.272	4405
906.389	4417
906.506	4303
906.623	4352
906.74	4360
906.857	4287
906.974	4409
907.091	4527
907.208	4645
907.324	4569
907.441	4447
907.557	4367
907.674	4352
907.79	4337
907.907	4363
908.023	4519
908.139	4474
908.256	4489
908.372	4462
908.488	4455
908.604	4398
908.72	4303
908.836	4356
908.952	4352
909.068	4451
909.184	4599
909.3	4504
909.415	4550
909.531	4542
909.647	4348
909.762	4409
909.878	4344
909.993	4398
910.108	4390
910.224	4394
910.339	4466
910.454	4390
910.57	4375
910.685	4356
910.8	4649
910.915	4550
911.03	4497
911.145	4356
911.259	4325
911.374	4379
911.489	4314
911.604	4276
911.718	4158
911.833	4177
911.947	4105
912.062	4048
912.176	4223
912.291	4257
912.405	4246
912.519	4474
912.633	4497
912.748	4383
912.862	4276
912.976	4265
913.09	4112
913.204	4147
913.318	4242
913.431	4341
913.545	4341
913.659	4405
913.772	4367
913.886	4253
914	4219
914.113	4402
914.226	4409
914.34	4413
914.453	4272
914.566	4466
914.68	4291
914.793	4322
914.906	4158
915.019	4128
915.132	4006
915.245	4162
915.358	4238
915.47	4230
915.583	4261
915.696	4303
915.809	4421
915.921	4447
916.034	4268
916.146	4238
916.259	4219
916.371	4352
916.483	4341
916.595	4276
916.708	4310
916.82	4306
916.932	4295
917.044	4291
917.156	4333
917.268	4219
917.38	4272
917.491	4310
917.603	4329
917.715	4462
917.826	4390
917.938	4367
918.049	4253
918.161	4394
918.272	4523
918.384	4523
918.495	4459
918.606	4337
918.717	4242
918.828	4310
918.939	4356
919.05	4276
919.161	4341
919.272	4166
919.383	4261
919.494	4470
919.604	4660
919.715	4428
919.826	4341
919.936	4436
920.047	4542
920.157	4516
920.267	4725
920.378	4535
920.488	4485
920.598	4691
920.708	4831
920.818	4729
920.928	4740
921.038	4980
921.148	4930
921.258	4649
921.368	4523
921.477	4523
921.587	4440
921.697	4379
921.806	4531
921.916	4451
922.025	4306
922.134	4272
922.244	4211
922.353	4344
922.462	4204
922.571	4177
922.68	4040
922.789	3991
922.898	4040
923.007	3987
923.116	4093
923.224	4090
923.333	4040
923.442	3987
923.55	3960
923.659	4048
923.767	4124
923.876	3998
923.984	4135
924.092	3975
924.201	4032
924.309	4093
924.417	4135
924.525	4051
924.633	4124
924.741	4873
924.849	3876
924.956	4135
925.064	3979
925.172	3937
925.279	3941
925.387	4021
925.494	4067
925.602	4227
925.709	4200
925.816	4059
925.924	4097
926.031	4276
926.138	4162
926.245	4185
926.352	4097
926.459	4227
926.566	4261
926.673	4200
926.779	4071
926.886	4067
926.993	3979
927.099	3945
927.206	3972
927.312	3945
927.419	4051
927.525	4017
927.631	4078
927.737	3972
927.843	3945
927.95	3850
928.056	3941
928.162	3968
928.267	3991
928.373	4710
928.479	4124
928.585	3876
928.69	4055
928.796	4055
928.901	3956
929.007	3880
929.112	4013
929.218	4010
929.323	3960
929.428	3953
929.533	4154
929.638	3915
929.743	3937
929.848	4044
929.953	4017
930.058	3903
930.163	3766
930.267	3816
930.372	4002
930.477	3827
930.581	4105
930.685	3956
930.79	3804
930.894	3869
930.998	3842
931.103	4021
931.207	3698
931.311	3694
931.415	3675
931.519	3507
931.623	3572
