Data from test_V78500241_1686.txt Node
Date: Fri Mar 25 17:00:43 CST 2022
User: usil
Spectrometer: V785-0024
Trigger mode: 0
Integration Time (sec): 4.000000E-1
Scans to average: 1
Nonlinearity correction enabled: false
Boxcar width: 0
Storing dark spectrum: false
XAxis mode: Wavelengths
Number of Pixels in Spectrum: 1024
>>>>>Begin Spectral Data<<<<<
801.071	7925
801.214	8005
801.356	7864
801.499	7890
801.641	7795
801.783	7792
801.926	7928
802.068	7967
802.211	7993
802.353	7963
802.496	7837
802.638	7845
802.78	7932
802.923	7890
803.065	7875
803.208	7818
803.35	7902
803.492	8001
803.635	8134
803.777	8012
803.919	8126
804.061	8389
804.204	8225
804.346	8020
804.488	7989
804.63	8073
804.773	7993
804.915	8062
805.057	8259
805.199	8119
805.341	8157
805.483	8252
805.626	8161
805.768	8138
805.91	8218
806.052	8229
806.194	8077
806.336	8221
806.478	8084
806.62	8092
806.762	8142
806.904	8355
807.046	8503
807.188	8366
807.33	8237
807.472	8275
807.614	8183
807.756	8157
807.898	8008
808.04	7879
808.182	7860
808.324	7944
808.465	7902
808.607	8054
808.749	8081
808.891	8187
809.033	8233
809.174	8172
809.316	8065
809.458	8035
809.6	7986
809.741	8001
809.883	8050
810.025	8100
810.166	8062
810.308	7997
810.45	7993
810.591	7898
810.733	7662
810.875	7613
811.016	7502
811.158	7434
811.299	7563
811.441	7662
811.582	7670
811.724	7597
811.865	7548
812.007	7571
812.148	7533
812.29	7609
812.431	7761
812.573	7795
812.714	7959
812.855	8138
812.997	8195
813.138	8267
813.279	8229
813.421	8046
813.562	7967
813.703	7765
813.845	7681
813.986	7358
814.127	7236
814.268	7183
814.41	7164
814.551	7213
814.692	7206
814.833	7088
814.974	7065
815.115	7069
815.256	6935
815.397	6863
815.539	6951
815.68	6779
815.821	6730
815.962	6890
816.103	6772
816.244	6665
816.385	6597
816.526	6593
816.666	6513
816.807	6300
816.948	6388
817.089	6460
817.23	6410
817.371	6350
817.512	6346
817.653	6399
817.793	6369
817.934	6418
818.075	6456
818.216	6414
818.356	6407
818.497	6243
818.638	6083
818.778	6163
818.919	6171
819.06	6213
819.2	6308
819.341	6311
819.481	6273
819.622	6464
819.762	6722
819.903	6658
820.043	6563
820.184	6528
820.324	6536
820.465	6738
820.605	6741
820.746	6665
820.886	6422
821.026	6627
821.167	6563
821.307	6722
821.447	6711
821.588	6627
821.728	6585
821.868	6437
822.008	6342
822.149	6338
822.289	6331
822.429	6152
822.569	6072
822.709	6083
822.849	5901
822.99	5882
823.13	5901
823.27	5927
823.41	5775
823.55	5779
823.69	5764
823.83	5798
823.97	5649
824.11	5493
824.25	5516
824.389	5577
824.529	5600
824.669	5516
824.809	5585
824.949	5623
825.089	5634
825.228	5558
825.368	5429
825.508	5349
825.648	5303
825.787	5395
825.927	5353
826.067	5277
826.206	5330
826.346	5421
826.485	5440
826.625	5417
826.765	5562
826.904	5497
827.044	5242
827.183	5197
827.323	5201
827.462	5265
827.601	5178
827.741	5235
827.88	5250
828.02	5147
828.159	5239
828.298	5315
828.437	5379
828.577	5322
828.716	5512
828.855	5368
828.994	5174
829.134	5193
829.273	5197
829.412	5197
829.551	5239
829.69	5261
829.829	5299
829.968	5429
830.107	5315
830.246	5296
830.385	5216
830.524	5204
830.663	5121
830.802	5006
830.941	4927
831.08	4839
831.219	5022
831.357	4987
831.496	5201
831.635	4923
831.774	4797
831.913	4858
832.051	4782
832.19	4778
832.329	4877
832.467	4691
832.606	4679
832.744	4797
832.883	4740
833.022	4767
833.16	4839
833.299	4873
833.437	4847
833.576	4816
833.714	4900
833.852	4942
833.991	4915
834.129	5010
834.267	5010
834.406	4938
834.544	5006
834.682	5014
834.821	4984
834.959	5239
835.097	5056
835.235	5143
835.373	5132
835.511	5121
835.65	5083
835.788	5090
835.926	4980
836.064	4877
836.202	4908
836.34	5189
836.478	5197
836.615	5140
836.753	5250
836.891	5341
837.029	5280
837.167	5254
837.305	5220
837.443	5143
837.58	5090
837.718	5299
837.856	5220
837.993	5223
838.131	5239
838.269	5242
838.406	5231
838.544	5208
838.681	5067
838.819	5064
838.956	4915
839.094	4942
839.231	5022
839.369	5105
839.506	5406
839.643	5277
839.781	5102
839.918	5056
840.055	5083
840.193	5102
840.33	5143
840.467	5155
840.604	5197
840.742	5493
840.879	5136
841.016	5083
841.153	5208
841.29	5395
841.427	5318
841.564	5379
841.701	5360
841.838	5330
841.975	5296
842.112	5269
842.249	5189
842.385	5121
842.522	5364
842.659	5155
842.796	5162
842.933	5193
843.069	5269
843.206	5204
843.343	5322
843.479	5311
843.616	5322
843.752	5075
843.889	5022
844.025	5246
844.162	5056
844.298	5242
844.435	5117
844.571	5045
844.708	5227
844.844	5303
844.98	5360
845.117	5292
845.253	5151
845.389	5067
845.525	5250
845.661	5147
845.798	5079
845.934	5155
846.07	5090
846.206	5220
846.342	5242
846.478	5155
846.614	5056
846.75	4961
846.886	5003
847.022	5174
847.158	5048
847.294	5124
847.429	5174
847.565	5075
847.701	5349
847.837	4854
847.972	4904
848.108	5025
848.244	4980
848.379	4771
848.515	4774
848.65	4748
848.786	4721
848.921	4793
849.057	4938
849.192	4919
849.328	4858
849.463	4870
849.598	4797
849.734	4786
849.869	4721
850.004	4626
850.14	4702
850.275	4645
850.41	4565
850.545	4561
850.68	4580
850.815	4618
850.95	4687
851.085	4862
851.22	4793
851.355	4691
851.49	4675
851.625	4649
851.76	4641
851.895	4611
852.03	4592
852.165	4630
852.299	4759
852.434	4828
852.569	4740
852.703	4805
852.838	4858
852.973	4980
853.107	4984
853.242	4763
853.376	4733
853.511	4596
853.645	4607
853.78	4862
853.914	4702
854.048	4687
854.183	4660
854.317	4660
854.451	4850
854.585	4683
854.72	4736
854.854	4801
854.988	4592
855.122	4615
855.256	4527
855.39	4687
855.524	4782
855.658	4774
855.792	4729
855.926	4740
856.06	4782
856.194	4809
856.327	4702
856.461	4630
856.595	4618
856.729	4725
856.862	4820
856.996	4733
857.13	4740
857.263	4767
857.397	4793
857.53	4687
857.664	4790
857.797	4812
857.931	4805
858.064	4721
858.197	4706
858.331	4630
858.464	4622
858.597	4573
858.731	4615
858.864	4615
858.997	4622
859.13	4660
859.263	4694
859.396	4668
859.529	4599
859.662	4565
859.795	4516
859.928	4645
860.061	4755
860.194	4805
860.327	4653
860.46	4561
860.592	4767
860.725	4748
860.858	4721
860.99	4596
861.123	4481
861.256	4550
861.388	4615
861.521	5402
861.653	4550
861.786	4504
861.918	4485
862.05	4523
862.183	4596
862.315	4672
862.447	4710
862.58	4546
862.712	4424
862.844	4348
862.976	4485
863.108	4455
863.24	4900
863.372	4356
863.504	4386
863.636	4432
863.768	4512
863.9	4459
864.032	4413
864.164	4455
864.296	4493
864.428	4523
864.559	4599
864.691	4573
864.823	4508
864.954	4500
865.086	4512
865.217	4497
865.349	4523
865.48	4413
865.612	4558
865.743	4626
865.875	4523
866.006	4421
866.137	4493
866.269	4447
866.4	4443
866.531	4443
866.662	4417
866.793	4443
866.924	4462
867.055	4531
867.186	4466
867.317	4421
867.448	4341
867.579	4421
867.71	4424
867.841	4424
867.972	4489
868.103	4478
868.233	4512
868.364	4451
868.495	4508
868.625	4702
868.756	4786
868.886	4569
869.017	4653
869.147	4793
869.278	4839
869.408	4710
869.539	4637
869.669	4691
869.799	4649
869.929	4778
870.06	4782
870.19	5025
870.32	4965
870.45	4991
870.58	5029
870.71	5113
870.84	5117
870.97	4984
871.1	4961
871.23	5090
871.36	5109
871.489	5014
871.619	5105
871.749	5170
871.879	5155
872.008	5143
872.138	5041
872.267	4946
872.397	4896
872.526	4809
872.656	4774
872.785	4782
872.915	4976
873.044	5025
873.173	4968
873.303	4972
873.432	5003
873.561	4987
873.69	4843
873.819	4919
873.948	4965
874.077	4862
874.206	4812
874.335	4805
874.464	4892
874.593	5090
874.722	4953
874.851	5121
874.979	5094
875.108	5060
875.237	4949
875.365	4915
875.494	4896
875.623	4896
875.751	4873
875.88	4904
876.008	4980
876.136	5052
876.265	5197
876.393	5326
876.521	5296
876.65	5265
876.778	5185
876.906	5143
877.034	5025
877.162	5071
877.29	5045
877.418	5048
877.546	5041
877.674	5075
877.802	5033
877.93	4980
878.058	4980
878.185	4885
878.313	4938
878.441	5025
878.568	4854
878.696	4938
878.824	4972
878.951	5029
879.079	5162
879.206	5326
879.333	5098
879.461	4987
879.588	5022
879.715	5151
879.842	5250
879.97	5060
880.097	4782
880.224	4778
880.351	4812
880.478	4801
880.605	4812
880.732	4839
880.859	5102
880.986	4919
881.112	4896
881.239	4767
881.366	4698
881.493	4607
881.619	4592
881.746	4668
881.872	4675
881.999	4626
882.125	4744
882.252	4793
882.378	4824
882.505	4961
882.631	4820
882.757	4649
882.883	4752
883.01	4790
883.136	4626
883.262	4645
883.388	4554
883.514	4854
883.64	4866
883.766	4793
883.892	4641
884.018	4687
884.143	4858
884.269	5060
884.395	4710
884.52	4675
884.646	4687
884.772	4637
884.897	4599
885.023	4706
885.148	4793
885.274	4885
885.399	4805
885.524	4740
885.65	4767
885.775	4774
885.9	4675
886.025	4805
886.15	4858
886.275	4717
886.4	4649
886.525	4733
886.65	4717
886.775	4714
886.9	4923
887.025	5048
887.149	4736
887.274	4634
887.399	4573
887.523	4626
887.648	4634
887.773	4630
887.897	4790
888.021	4820
888.146	4683
888.27	4828
888.395	4881
888.519	4797
888.643	4797
888.767	4835
888.891	4687
889.015	4611
889.139	4683
889.263	4653
889.387	4740
889.511	4854
889.635	4729
889.759	4637
889.883	4664
890.006	4675
890.13	4850
890.254	4607
890.377	4721
890.501	4565
890.624	4558
890.748	4645
890.871	4535
890.995	4443
891.118	4402
891.241	4516
891.364	4554
891.488	4641
891.611	4516
891.734	4546
891.857	4580
891.98	4615
892.103	4679
892.226	4599
892.349	4542
892.471	4405
892.594	4554
892.717	4599
892.839	4626
892.962	4607
893.085	4656
893.207	4607
893.33	4546
893.452	4565
893.575	4641
893.697	4558
893.819	4866
893.941	4816
894.064	4782
894.186	4554
894.308	4634
894.43	4725
894.552	4850
894.674	4740
894.796	4580
894.918	4611
895.04	4603
895.161	4740
895.283	4649
895.405	4622
895.526	4618
895.648	4687
895.769	4660
895.891	4706
896.012	4736
896.134	4778
896.255	4706
896.376	4626
896.498	4630
896.619	4683
896.74	4645
896.861	4702
896.982	4900
897.103	5064
897.224	4835
897.345	4805
897.466	4706
897.587	4733
897.708	4870
897.828	4790
897.949	4656
898.07	4580
898.19	4630
898.311	4839
898.431	4694
898.552	4748
898.672	4812
898.792	4797
898.913	4733
899.033	4626
899.153	4519
899.273	4474
899.393	4451
899.513	4508
899.633	4512
899.753	4615
899.873	4542
899.993	4561
900.113	4580
900.232	4565
900.352	4558
900.472	4508
900.591	4459
900.711	4436
900.83	4424
900.95	4634
901.069	4710
901.189	4558
901.308	4386
901.427	4318
901.546	4402
901.665	4470
901.784	4546
901.904	4394
902.023	4360
902.141	4192
902.26	4188
902.379	4310
902.498	4253
902.617	4238
902.735	4394
902.854	4447
902.973	4398
903.091	4211
903.21	4196
903.328	4318
903.446	4280
903.565	4204
903.683	4322
903.801	4295
903.919	4383
904.038	4383
904.156	4329
904.274	4432
904.392	4383
904.51	4436
904.627	4508
904.745	4580
904.863	4645
904.981	4352
905.098	4310
905.216	4402
905.334	4481
905.451	4451
905.569	4447
905.686	4577
905.803	4588
905.921	4409
906.038	4531
906.155	4485
906.272	4394
906.389	4428
906.506	4348
906.623	4417
906.74	4379
906.857	4295
906.974	4375
907.091	4577
907.208	4702
907.324	4618
907.441	4474
907.557	4363
907.674	4383
907.79	4280
907.907	4375
908.023	4455
908.139	4462
908.256	4443
908.372	4474
908.488	4462
908.604	4367
908.72	4360
908.836	4379
908.952	4394
909.068	4455
909.184	4558
909.3	4519
909.415	4626
909.531	4527
909.647	4352
909.762	4383
909.878	4322
909.993	4470
910.108	4394
910.224	4443
910.339	4527
910.454	4379
910.57	4398
910.685	4306
910.8	4672
910.915	4618
911.03	4523
911.145	4337
911.259	4314
911.374	4394
911.489	4261
911.604	4322
911.718	4181
911.833	4196
911.947	4067
912.062	4029
912.176	4204
912.291	4257
912.405	4227
912.519	4497
912.633	4500
912.748	4352
912.862	4253
912.976	4204
913.09	4074
913.204	4173
913.318	4246
913.431	4344
913.545	4363
913.659	4447
913.772	4394
913.886	4257
914	4215
914.113	4367
914.226	4421
914.34	4360
914.453	4272
914.566	4466
914.68	4310
914.793	4314
914.906	4188
915.019	4109
915.132	4124
915.245	4185
915.358	4188
915.47	4200
915.583	4280
915.696	4265
915.809	4394
915.921	4440
916.034	4257
916.146	4303
916.259	4219
916.371	4333
916.483	4360
916.595	4257
916.708	4337
916.82	4322
916.932	4356
917.044	4337
917.156	4329
917.268	4284
917.38	4276
917.491	4329
917.603	4348
917.715	4371
917.826	4459
917.938	4348
918.049	4249
918.161	4371
918.272	4493
918.384	4561
918.495	4497
918.606	4253
918.717	4242
918.828	4291
918.939	4356
919.05	4265
919.161	4280
919.272	4162
919.383	4227
919.494	4409
919.604	4592
919.715	4436
919.826	4341
919.936	4394
920.047	4523
920.157	4497
920.267	4687
920.378	4546
920.488	4497
920.598	4714
920.708	4839
920.818	4752
920.928	4748
921.038	4938
921.148	4904
921.258	4618
921.368	4569
921.477	4481
921.587	4485
921.697	4432
921.806	4546
921.916	4432
922.025	4295
922.134	4272
922.244	4173
922.353	4322
922.462	4147
922.571	4154
922.68	4048
922.789	3991
922.898	3987
923.007	3998
923.116	4116
923.224	4074
923.333	4086
923.442	4006
923.55	3991
923.659	4071
923.767	4093
923.876	4036
923.984	4162
924.092	3979
924.201	4059
924.309	4105
924.417	4150
924.525	4090
924.633	4154
924.741	4873
924.849	3907
924.956	4124
925.064	3953
925.172	3907
925.279	3956
925.387	4055
925.494	4002
925.602	4200
925.709	4169
925.816	4044
925.924	4097
926.031	4257
926.138	4162
926.245	4272
926.352	4105
926.459	4219
926.566	4303
926.673	4135
926.779	4135
926.886	4090
926.993	3953
927.099	3918
927.206	3960
927.312	3922
927.419	4044
927.525	4051
927.631	4097
927.737	3972
927.843	3926
927.95	3827
928.056	3937
928.162	4048
928.267	4036
928.373	4672
928.479	4131
928.585	3876
928.69	4017
928.796	4093
928.901	3983
929.007	3861
929.112	3998
929.218	3987
929.323	3972
929.428	3911
929.533	4097
929.638	3926
929.743	3968
929.848	4051
929.953	3972
930.058	3930
930.163	3770
930.267	3857
930.372	4013
930.477	3835
930.581	4090
930.685	3911
930.79	3831
930.894	3831
930.998	3861
931.103	3991
931.207	3705
931.311	3717
931.415	3656
931.519	3500
931.623	3553
