Data from test_V78500241_2522.txt Node
Date: Fri Mar 25 17:06:32 CST 2022
User: usil
Spectrometer: V785-0024
Trigger mode: 0
Integration Time (sec): 4.000000E-1
Scans to average: 1
Nonlinearity correction enabled: false
Boxcar width: 0
Storing dark spectrum: false
XAxis mode: Wavelengths
Number of Pixels in Spectrum: 1024
>>>>>Begin Spectral Data<<<<<
801.071	7982
801.214	7986
801.356	7871
801.499	7856
801.641	7780
801.783	7792
801.926	7936
802.068	7906
802.211	7947
802.353	7951
802.496	7864
802.638	7887
802.78	7917
802.923	7913
803.065	7955
803.208	7879
803.35	7944
803.492	8142
803.635	8130
803.777	8027
803.919	8126
804.061	8427
804.204	8218
804.346	7986
804.488	8008
804.63	8092
804.773	8065
804.915	8111
805.057	8351
805.199	8142
805.341	8172
805.483	8279
805.626	8191
805.768	8183
805.91	8248
806.052	8183
806.194	8092
806.336	8294
806.478	8081
806.62	7997
806.762	8084
806.904	8282
807.046	8427
807.188	8374
807.33	8271
807.472	8332
807.614	8164
807.756	8138
807.898	8020
808.04	7887
808.182	7917
808.324	7871
808.465	7913
808.607	8050
808.749	8176
808.891	8275
809.033	8298
809.174	8214
809.316	8058
809.458	8081
809.6	8016
809.741	8012
809.883	7986
810.025	8134
810.166	8027
810.308	8035
810.45	7978
810.591	7814
810.733	7681
810.875	7643
811.016	7544
811.158	7502
811.299	7548
811.441	7750
811.582	7693
811.724	7578
811.865	7578
812.007	7620
812.148	7643
812.29	7674
812.431	7765
812.573	7913
812.714	7997
812.855	8138
812.997	8157
813.138	8305
813.279	8107
813.421	8103
813.562	7959
813.703	7890
813.845	7830
813.986	7445
814.127	7206
814.268	7221
814.41	7232
814.551	7118
814.692	7221
814.833	7080
814.974	7110
815.115	7175
815.256	6943
815.397	6939
815.539	6897
815.68	6814
815.821	6798
815.962	6894
816.103	6806
816.244	6681
816.385	6623
816.526	6623
816.666	6506
816.807	6323
816.948	6429
817.089	6483
817.23	6399
817.371	6426
817.512	6372
817.653	6403
817.793	6384
817.934	6380
818.075	6464
818.216	6399
818.356	6460
818.497	6224
818.638	6114
818.778	6148
818.919	6117
819.06	6155
819.2	6285
819.341	6308
819.481	6338
819.622	6509
819.762	6730
819.903	6673
820.043	6601
820.184	6639
820.324	6612
820.465	6734
820.605	6658
820.746	6669
820.886	6486
821.026	6665
821.167	6700
821.307	6760
821.447	6818
821.588	6688
821.728	6620
821.868	6525
822.008	6319
822.149	6429
822.289	6380
822.429	6144
822.569	6129
822.709	6167
822.849	5916
822.99	5912
823.13	5988
823.27	5946
823.41	5874
823.55	5821
823.69	5729
823.83	5805
823.97	5695
824.11	5562
824.25	5482
824.389	5532
824.529	5634
824.669	5486
824.809	5661
824.949	5680
825.089	5646
825.228	5539
825.368	5414
825.508	5345
825.648	5379
825.787	5417
825.927	5341
826.067	5265
826.206	5307
826.346	5345
826.485	5383
826.625	5376
826.765	5558
826.904	5459
827.044	5231
827.183	5216
827.323	5147
827.462	5265
827.601	5178
827.741	5193
827.88	5189
828.02	5109
828.159	5261
828.298	5337
828.437	5387
828.577	5280
828.716	5444
828.855	5334
828.994	5128
829.134	5155
829.273	5166
829.412	5121
829.551	5105
829.69	5170
829.829	5265
829.968	5444
830.107	5296
830.246	5231
830.385	5140
830.524	5124
830.663	5025
830.802	4999
830.941	4896
831.08	4892
831.219	4991
831.357	4976
831.496	5121
831.635	4919
831.774	4881
831.913	4889
832.051	4733
832.19	4774
832.329	4812
832.467	4721
832.606	4611
832.744	4721
832.883	4717
833.022	4717
833.16	4767
833.299	4793
833.437	4839
833.576	4870
833.714	4904
833.852	4900
833.991	4889
834.129	4991
834.267	4961
834.406	4877
834.544	4949
834.682	4972
834.821	4927
834.959	5166
835.097	4976
835.235	5117
835.373	5102
835.511	5113
835.65	5010
835.788	4995
835.926	4900
836.064	4900
836.202	4938
836.34	5178
836.478	5227
836.615	5136
836.753	5170
836.891	5246
837.029	5246
837.167	5235
837.305	5185
837.443	5151
837.58	5102
837.718	5296
837.856	5162
837.993	5178
838.131	5239
838.269	5197
838.406	5227
838.544	5159
838.681	5022
838.819	5060
838.956	4877
839.094	4881
839.231	4995
839.369	5128
839.506	5353
839.643	5258
839.781	5037
839.918	5048
840.055	5086
840.193	5128
840.33	5121
840.467	5105
840.604	5159
840.742	5433
840.879	5041
841.016	5105
841.153	5170
841.29	5387
841.427	5334
841.564	5315
841.701	5337
841.838	5254
841.975	5231
842.112	5307
842.249	5090
842.385	5117
842.522	5277
842.659	5151
842.796	5124
842.933	5162
843.069	5174
843.206	5128
843.343	5326
843.479	5250
843.616	5239
843.752	5052
843.889	5029
844.025	5208
844.162	4995
844.298	5189
844.435	5067
844.571	5102
844.708	5201
844.844	5311
844.98	5265
845.117	5299
845.253	5136
845.389	5090
845.525	5147
845.661	5113
845.798	5060
845.934	5083
846.07	5037
846.206	5231
846.342	5284
846.478	5174
846.614	4991
846.75	4934
846.886	4946
847.022	5143
847.158	5025
847.294	5041
847.429	5113
847.565	4991
847.701	5303
847.837	4873
847.972	4782
848.108	4949
848.244	4946
848.379	4752
848.515	4729
848.65	4706
848.786	4729
848.921	4771
849.057	4862
849.192	4870
849.328	4828
849.463	4885
849.598	4790
849.734	4752
849.869	4641
850.004	4611
850.14	4683
850.275	4618
850.41	4527
850.545	4493
850.68	4611
850.815	4615
850.95	4641
851.085	4831
851.22	4717
851.355	4641
851.49	4573
851.625	4634
851.76	4641
851.895	4538
852.03	4527
852.165	4664
852.299	4698
852.434	4793
852.569	4717
852.703	4748
852.838	4828
852.973	4923
853.107	4904
853.242	4744
853.376	4691
853.511	4531
853.645	4641
853.78	4786
853.914	4679
854.048	4687
854.183	4687
854.317	4675
854.451	4866
854.585	4706
854.72	4637
854.854	4767
854.988	4592
855.122	4649
855.256	4550
855.39	4641
855.524	4767
855.658	4683
855.792	4664
855.926	4729
856.06	4752
856.194	4797
856.327	4729
856.461	4588
856.595	4615
856.729	4596
856.862	4774
856.996	4653
857.13	4691
857.263	4786
857.397	4786
857.53	4603
857.664	4679
857.797	4710
857.931	4839
858.064	4748
858.197	4744
858.331	4618
858.464	4622
858.597	4558
858.731	4618
858.864	4626
858.997	4637
859.13	4641
859.263	4645
859.396	4675
859.529	4561
859.662	4580
859.795	4546
859.928	4687
860.061	4752
860.194	4774
860.327	4622
860.46	4569
860.592	4714
860.725	4698
860.858	4752
860.99	4592
861.123	4523
861.256	4478
861.388	4668
861.521	5246
861.653	4447
861.786	4451
861.918	4497
862.05	4538
862.183	4531
862.315	4584
862.447	4656
862.58	4519
862.712	4409
862.844	4352
862.976	4459
863.108	4451
863.24	4759
863.372	4314
863.504	4424
863.636	4394
863.768	4443
863.9	4455
864.032	4375
864.164	4394
864.296	4451
864.428	4569
864.559	4554
864.691	4523
864.823	4561
864.954	4485
865.086	4561
865.217	4493
865.349	4459
865.48	4474
865.612	4504
865.743	4592
865.875	4459
866.006	4390
866.137	4470
866.269	4466
866.4	4462
866.531	4413
866.662	4432
866.793	4424
866.924	4417
867.055	4493
867.186	4428
867.317	4417
867.448	4367
867.579	4383
867.71	4371
867.841	4398
867.972	4443
868.103	4432
868.233	4451
868.364	4462
868.495	4478
868.625	4668
868.756	4725
868.886	4550
869.017	4611
869.147	4809
869.278	4805
869.408	4653
869.539	4672
869.669	4733
869.799	4622
869.929	4759
870.06	4702
870.19	4915
870.32	4908
870.45	4957
870.58	4995
870.71	5109
870.84	5109
870.97	4957
871.1	4877
871.23	5128
871.36	5102
871.489	5079
871.619	5067
871.749	5052
871.879	5136
872.008	5166
872.138	5022
872.267	4987
872.397	4839
872.526	4774
872.656	4714
872.785	4801
872.915	5010
873.044	5003
873.173	4934
873.303	4991
873.432	4957
873.561	4968
873.69	4850
873.819	4820
873.948	4953
874.077	4850
874.206	4729
874.335	4816
874.464	4911
874.593	5018
874.722	5010
874.851	5052
874.979	5071
875.108	5041
875.237	4904
875.365	4835
875.494	4816
875.623	5018
875.751	4835
875.88	4831
876.008	4995
876.136	5041
876.265	5178
876.393	5292
876.521	5261
876.65	5197
876.778	5162
876.906	5083
877.034	5037
877.162	5060
877.29	5010
877.418	5052
877.546	5056
877.674	5018
877.802	5056
877.93	5075
878.058	4919
878.185	4889
878.313	4984
878.441	4923
878.568	4744
878.696	4870
878.824	5014
878.951	4984
879.079	5136
879.206	5330
879.333	5071
879.461	4965
879.588	5003
879.715	5090
879.842	5239
879.97	5037
880.097	4824
880.224	4759
880.351	4797
880.478	4839
880.605	4824
880.732	4790
880.859	5060
880.986	4934
881.112	4881
881.239	4793
881.366	4683
881.493	4599
881.619	4634
881.746	4622
881.872	4622
881.999	4649
882.125	4714
882.252	4748
882.378	4839
882.505	4957
882.631	4835
882.757	4733
882.883	4691
883.01	4710
883.136	4675
883.262	4618
883.388	4626
883.514	4782
883.64	4850
883.766	4812
883.892	4660
884.018	4721
884.143	4847
884.269	5006
884.395	4649
884.52	4622
884.646	4645
884.772	4618
884.897	4554
885.023	4694
885.148	4793
885.274	4850
885.399	4797
885.524	4744
885.65	4729
885.775	4759
885.9	4687
886.025	4835
886.15	4824
886.275	4717
886.4	4653
886.525	4706
886.65	4721
886.775	4733
886.9	4873
887.025	5083
887.149	4771
887.274	4637
887.399	4603
887.523	4641
887.648	4611
887.773	4580
887.897	4752
888.021	4801
888.146	4653
888.27	4793
888.395	4850
888.519	4797
888.643	4816
888.767	4812
888.891	4660
889.015	4554
889.139	4653
889.263	4569
889.387	4774
889.511	4835
889.635	4797
889.759	4649
889.883	4641
890.006	4736
890.13	4835
890.254	4618
890.377	4683
890.501	4508
890.624	4500
890.748	4637
890.871	4500
890.995	4428
891.118	4409
891.241	4504
891.364	4573
891.488	4626
891.611	4519
891.734	4489
891.857	4603
891.98	4588
892.103	4626
892.226	4596
892.349	4538
892.471	4405
892.594	4584
892.717	4573
892.839	4531
892.962	4596
893.085	4679
893.207	4569
893.33	4424
893.452	4565
893.575	4675
893.697	4538
893.819	4812
893.941	4797
894.064	4778
894.186	4546
894.308	4573
894.43	4702
894.552	4854
894.674	4740
894.796	4523
894.918	4584
895.04	4561
895.161	4675
895.283	4641
895.405	4592
895.526	4634
895.648	4706
895.769	4664
895.891	4698
896.012	4702
896.134	4736
896.255	4683
896.376	4599
896.498	4618
896.619	4656
896.74	4577
896.861	4683
896.982	4934
897.103	5056
897.224	4881
897.345	4736
897.466	4668
897.587	4729
897.708	4847
897.828	4752
897.949	4672
898.07	4512
898.19	4615
898.311	4774
898.431	4626
898.552	4748
898.672	4824
898.792	4805
898.913	4740
899.033	4664
899.153	4512
899.273	4455
899.393	4478
899.513	4531
899.633	4531
899.753	4535
899.873	4512
899.993	4603
900.113	4550
900.232	4584
900.352	4489
900.472	4462
900.591	4383
900.711	4497
900.83	4451
900.95	4596
901.069	4660
901.189	4519
901.308	4390
901.427	4295
901.546	4325
901.665	4504
901.784	4535
901.904	4341
902.023	4360
902.141	4192
902.26	4147
902.379	4325
902.498	4238
902.617	4230
902.735	4421
902.854	4398
902.973	4379
903.091	4215
903.21	4200
903.328	4280
903.446	4303
903.565	4276
903.683	4314
903.801	4310
903.919	4466
904.038	4409
904.156	4268
904.274	4390
904.392	4363
904.51	4432
904.627	4478
904.745	4565
904.863	4596
904.981	4413
905.098	4272
905.216	4367
905.334	4402
905.451	4386
905.569	4440
905.686	4512
905.803	4531
905.921	4436
906.038	4554
906.155	4500
906.272	4383
906.389	4500
906.506	4337
906.623	4436
906.74	4379
906.857	4303
906.974	4371
907.091	4580
907.208	4634
907.324	4538
907.441	4546
907.557	4314
907.674	4379
907.79	4314
907.907	4371
908.023	4470
908.139	4455
908.256	4356
908.372	4504
908.488	4447
908.604	4333
908.72	4291
908.836	4386
908.952	4386
909.068	4421
909.184	4584
909.3	4489
909.415	4588
909.531	4550
909.647	4386
909.762	4371
909.878	4352
909.993	4443
910.108	4386
910.224	4428
910.339	4500
910.454	4409
910.57	4367
910.685	4295
910.8	4668
910.915	4592
911.03	4478
911.145	4291
911.259	4341
911.374	4405
911.489	4303
911.604	4295
911.718	4120
911.833	4177
911.947	4078
912.062	4017
912.176	4219
912.291	4207
912.405	4261
912.519	4447
912.633	4485
912.748	4375
912.862	4299
912.976	4215
913.09	4055
913.204	4196
913.318	4230
913.431	4371
913.545	4390
913.659	4417
913.772	4398
913.886	4230
914	4238
914.113	4360
914.226	4436
914.34	4417
914.453	4219
914.566	4436
914.68	4337
914.793	4310
914.906	4143
915.019	4109
915.132	4074
915.245	4185
915.358	4230
915.47	4223
915.583	4287
915.696	4265
915.809	4333
915.921	4428
916.034	4253
916.146	4211
916.259	4215
916.371	4402
916.483	4348
916.595	4249
916.708	4261
916.82	4257
916.932	4344
917.044	4348
917.156	4360
917.268	4192
917.38	4295
917.491	4280
917.603	4325
917.715	4398
917.826	4424
917.938	4356
918.049	4219
918.161	4383
918.272	4527
918.384	4516
918.495	4508
918.606	4272
918.717	4249
918.828	4341
918.939	4375
919.05	4306
919.161	4333
919.272	4139
919.383	4211
919.494	4440
919.604	4569
919.715	4413
919.826	4333
919.936	4394
920.047	4466
920.157	4497
920.267	4675
920.378	4554
920.488	4500
920.598	4706
920.708	4885
920.818	4767
920.928	4725
921.038	4919
921.148	4885
921.258	4637
921.368	4569
921.477	4462
921.587	4462
921.697	4371
921.806	4489
921.916	4432
922.025	4280
922.134	4268
922.244	4211
922.353	4287
922.462	4211
922.571	4105
922.68	4006
922.789	3987
922.898	4021
923.007	3945
923.116	4074
923.224	4044
923.333	4036
923.442	3968
923.55	3991
923.659	4032
923.767	4090
923.876	4029
923.984	4097
924.092	3972
924.201	4032
924.309	4082
924.417	4120
924.525	4021
924.633	4063
924.741	5022
924.849	3915
924.956	4105
925.064	3987
925.172	3896
925.279	3972
925.387	4048
925.494	4086
925.602	4204
925.709	4147
925.816	4044
925.924	4109
926.031	4158
926.138	4185
926.245	4169
926.352	4109
926.459	4284
926.566	4306
926.673	4177
926.779	4082
926.886	4071
926.993	3975
927.099	3926
927.206	3918
927.312	3884
927.419	4036
927.525	4051
927.631	4067
927.737	3975
927.843	3953
927.95	3865
928.056	3975
928.162	4006
928.267	4074
928.373	4569
928.479	4101
928.585	3869
928.69	3994
928.796	4124
928.901	3956
929.007	3838
929.112	4002
929.218	3994
929.323	3953
929.428	3934
929.533	4116
929.638	3918
929.743	3953
929.848	4029
929.953	3968
930.058	3949
930.163	3778
930.267	3804
930.372	3975
930.477	3770
930.581	4078
930.685	3907
930.79	3804
930.894	3865
930.998	3831
931.103	4032
931.207	3720
931.311	3682
931.415	3709
931.519	3481
931.623	3511
