Data from test_V78500241_767.txt Node
Date: Fri Mar 25 16:54:20 CST 2022
User: usil
Spectrometer: V785-0024
Trigger mode: 0
Integration Time (sec): 4.000000E-1
Scans to average: 1
Nonlinearity correction enabled: false
Boxcar width: 0
Storing dark spectrum: false
XAxis mode: Wavelengths
Number of Pixels in Spectrum: 1024
>>>>>Begin Spectral Data<<<<<
801.071	8008
801.214	8035
801.356	7894
801.499	7913
801.641	7852
801.783	7928
801.926	7997
802.068	7993
802.211	7970
802.353	8050
802.496	7906
802.638	7974
802.78	7986
802.923	7959
803.065	7955
803.208	7936
803.35	8062
803.492	8119
803.635	8187
803.777	8058
803.919	8134
804.061	8427
804.204	8081
804.346	8096
804.488	8111
804.63	8115
804.773	8062
804.915	8107
805.057	8309
805.199	8134
805.341	8176
805.483	8301
805.626	8263
805.768	8111
805.91	8202
806.052	8199
806.194	8073
806.336	8282
806.478	8065
806.62	8073
806.762	8206
806.904	8298
807.046	8503
807.188	8381
807.33	8229
807.472	8343
807.614	8199
807.756	8084
807.898	7978
808.04	7959
808.182	7860
808.324	7902
808.465	7925
808.607	8035
808.749	8069
808.891	8183
809.033	8279
809.174	8233
809.316	8069
809.458	8073
809.6	7955
809.741	8062
809.883	8043
810.025	8050
810.166	8107
810.308	8043
810.45	8111
810.591	7936
810.733	7742
810.875	7704
811.016	7521
811.158	7552
811.299	7616
811.441	7731
811.582	7666
811.724	7609
811.865	7529
812.007	7518
812.148	7613
812.29	7597
812.431	7658
812.573	7883
812.714	7974
812.855	8115
812.997	8199
813.138	8252
813.279	8199
813.421	8183
813.562	7997
813.703	7902
813.845	7742
813.986	7483
814.127	7285
814.268	7251
814.41	7232
814.551	7137
814.692	7202
814.833	7095
814.974	7061
815.115	7129
815.256	7023
815.397	6947
815.539	7019
815.68	6932
815.821	6818
815.962	6859
816.103	6783
816.244	6753
816.385	6585
816.526	6589
816.666	6464
816.807	6300
816.948	6399
817.089	6460
817.23	6448
817.371	6448
817.512	6369
817.653	6426
817.793	6338
817.934	6410
818.075	6464
818.216	6483
818.356	6426
818.497	6197
818.638	6129
818.778	6171
818.919	6155
819.06	6167
819.2	6334
819.341	6311
819.481	6361
819.622	6570
819.762	6741
819.903	6795
820.043	6566
820.184	6559
820.324	6574
820.465	6688
820.605	6658
820.746	6627
820.886	6559
821.026	6597
821.167	6700
821.307	6867
821.447	6768
821.588	6681
821.728	6627
821.868	6498
822.008	6365
822.149	6399
822.289	6407
822.429	6182
822.569	6102
822.709	6144
822.849	5916
822.99	5923
823.13	5973
823.27	5988
823.41	5802
823.55	5809
823.69	5798
823.83	5729
823.97	5733
824.11	5570
824.25	5532
824.389	5535
824.529	5611
824.669	5501
824.809	5653
824.949	5665
825.089	5596
825.228	5539
825.368	5463
825.508	5410
825.648	5337
825.787	5414
825.927	5387
826.067	5277
826.206	5311
826.346	5387
826.485	5398
826.625	5471
826.765	5467
826.904	5459
827.044	5284
827.183	5235
827.323	5140
827.462	5250
827.601	5174
827.741	5166
827.88	5284
828.02	5098
828.159	5261
828.298	5315
828.437	5364
828.577	5277
828.716	5421
828.855	5277
828.994	5132
829.134	5159
829.273	5189
829.412	5147
829.551	5166
829.69	5212
829.829	5288
829.968	5395
830.107	5277
830.246	5357
830.385	5231
830.524	5159
830.663	5102
830.802	5003
830.941	4866
831.08	4904
831.219	4965
831.357	4980
831.496	5140
831.635	4953
831.774	4892
831.913	4847
832.051	4717
832.19	4786
832.329	4850
832.467	4714
832.606	4656
832.744	4740
832.883	4683
833.022	4786
833.16	4812
833.299	4885
833.437	4870
833.576	4839
833.714	4870
833.852	4854
833.991	4870
834.129	4972
834.267	4984
834.406	4900
834.544	5010
834.682	5014
834.821	4923
834.959	5178
835.097	5022
835.235	5128
835.373	5109
835.511	5124
835.65	5071
835.788	5029
835.926	4911
836.064	4881
836.202	4949
836.34	5162
836.478	5242
836.615	5155
836.753	5220
836.891	5277
837.029	5284
837.167	5216
837.305	5166
837.443	5147
837.58	5075
837.718	5288
837.856	5208
837.993	5147
838.131	5242
838.269	5181
838.406	5231
838.544	5246
838.681	4999
838.819	5064
838.956	4934
839.094	4915
839.231	5022
839.369	5090
839.506	5433
839.643	5299
839.781	5071
839.918	5022
840.055	5075
840.193	5147
840.33	5071
840.467	5170
840.604	5178
840.742	5497
840.879	5086
841.016	5128
841.153	5193
841.29	5364
841.427	5334
841.564	5337
841.701	5417
841.838	5280
841.975	5261
842.112	5254
842.249	5151
842.385	5151
842.522	5353
842.659	5231
842.796	5140
842.933	5208
843.069	5174
843.206	5193
843.343	5307
843.479	5223
843.616	5311
843.752	5037
843.889	4995
844.025	5220
844.162	5041
844.298	5239
844.435	5105
844.571	5060
844.708	5162
844.844	5273
844.98	5318
845.117	5273
845.253	5185
845.389	5048
845.525	5162
845.661	5208
845.798	5041
845.934	5178
846.07	5060
846.206	5265
846.342	5288
846.478	5193
846.614	5003
846.75	4999
846.886	4949
847.022	5124
847.158	5094
847.294	5067
847.429	5109
847.565	5029
847.701	5330
847.837	4927
847.972	4881
848.108	4968
848.244	4938
848.379	4748
848.515	4714
848.65	4710
848.786	4759
848.921	4828
849.057	4934
849.192	4900
849.328	4809
849.463	4805
849.598	4812
849.734	4763
849.869	4691
850.004	4649
850.14	4702
850.275	4599
850.41	4577
850.545	4519
850.68	4596
850.815	4637
850.95	4615
851.085	4824
851.22	4740
851.355	4691
851.49	4668
851.625	4637
851.76	4615
851.895	4542
852.03	4535
852.165	4706
852.299	4710
852.434	4767
852.569	4786
852.703	4816
852.838	4873
852.973	4908
853.107	4968
853.242	4721
853.376	4710
853.511	4519
853.645	4611
853.78	4782
853.914	4702
854.048	4702
854.183	4603
854.317	4653
854.451	4881
854.585	4634
854.72	4660
854.854	4744
854.988	4615
855.122	4618
855.256	4550
855.39	4645
855.524	4755
855.658	4714
855.792	4702
855.926	4733
856.06	4809
856.194	4793
856.327	4702
856.461	4679
856.595	4622
856.729	4607
856.862	4778
856.996	4702
857.13	4714
857.263	4721
857.397	4812
857.53	4672
857.664	4710
857.797	4793
857.931	4797
858.064	4679
858.197	4733
858.331	4675
858.464	4596
858.597	4561
858.731	4615
858.864	4637
858.997	4599
859.13	4630
859.263	4664
859.396	4714
859.529	4580
859.662	4573
859.795	4542
859.928	4592
860.061	4729
860.194	4786
860.327	4577
860.46	4588
860.592	4691
860.725	4721
860.858	4767
860.99	4558
861.123	4481
861.256	4580
861.388	4588
861.521	5360
861.653	4516
861.786	4459
861.918	4500
862.05	4561
862.183	4565
862.315	4580
862.447	4649
862.58	4577
862.712	4402
862.844	4333
862.976	4459
863.108	4466
863.24	4892
863.372	4325
863.504	4394
863.636	4428
863.768	4478
863.9	4409
864.032	4360
864.164	4390
864.296	4481
864.428	4558
864.559	4565
864.691	4512
864.823	4508
864.954	4497
865.086	4546
865.217	4466
865.349	4470
865.48	4440
865.612	4538
865.743	4580
865.875	4459
866.006	4451
866.137	4462
866.269	4497
866.4	4466
866.531	4451
866.662	4383
866.793	4428
866.924	4398
867.055	4481
867.186	4481
867.317	4428
867.448	4390
867.579	4417
867.71	4390
867.841	4371
867.972	4455
868.103	4443
868.233	4447
868.364	4443
868.495	4462
868.625	4672
868.756	4748
868.886	4565
869.017	4630
869.147	4740
869.278	4774
869.408	4630
869.539	4599
869.669	4729
869.799	4653
869.929	4725
870.06	4698
870.19	4904
870.32	4908
870.45	4927
870.58	4999
870.71	5151
870.84	5064
870.97	4919
871.1	4896
871.23	5178
871.36	5128
871.489	4991
871.619	5048
871.749	5033
871.879	5159
872.008	5132
872.138	5060
872.267	4984
872.397	4828
872.526	4831
872.656	4740
872.785	4820
872.915	4919
873.044	5014
873.173	4927
873.303	4942
873.432	4984
873.561	4942
873.69	4843
873.819	4873
873.948	4930
874.077	4790
874.206	4782
874.335	4812
874.464	4946
874.593	5060
874.722	4968
874.851	5090
874.979	5079
875.108	5052
875.237	4892
875.365	4900
875.494	4866
875.623	4957
875.751	4793
875.88	4889
876.008	4942
876.136	4991
876.265	5208
876.393	5395
876.521	5261
876.65	5212
876.778	5212
876.906	5071
877.034	5014
877.162	5067
877.29	5003
877.418	5048
877.546	5025
877.674	5029
877.802	5029
877.93	4972
878.058	4972
878.185	4885
878.313	4934
878.441	4896
878.568	4748
878.696	4873
878.824	5018
878.951	4965
879.079	5121
879.206	5261
879.333	5143
879.461	4987
879.588	5033
879.715	5109
879.842	5189
879.97	4987
880.097	4816
880.224	4778
880.351	4782
880.478	4801
880.605	4812
880.732	4820
880.859	5056
880.986	4946
881.112	4930
881.239	4759
881.366	4622
881.493	4611
881.619	4596
881.746	4626
881.872	4645
881.999	4656
882.125	4702
882.252	4820
882.378	4847
882.505	4953
882.631	4835
882.757	4675
882.883	4721
883.01	4771
883.136	4698
883.262	4561
883.388	4637
883.514	4786
883.64	4839
883.766	4801
883.892	4725
884.018	4771
884.143	4923
884.269	4972
884.395	4641
884.52	4641
884.646	4615
884.772	4550
884.897	4554
885.023	4615
885.148	4843
885.274	4809
885.399	4774
885.524	4706
885.65	4683
885.775	4778
885.9	4717
886.025	4824
886.15	4786
886.275	4679
886.4	4664
886.525	4675
886.65	4660
886.775	4702
886.9	4908
887.025	5056
887.149	4839
887.274	4698
887.399	4599
887.523	4634
887.648	4558
887.773	4561
887.897	4759
888.021	4740
888.146	4664
888.27	4786
888.395	4870
888.519	4752
888.643	4782
888.767	4786
888.891	4664
889.015	4626
889.139	4630
889.263	4630
889.387	4721
889.511	4889
889.635	4759
889.759	4687
889.883	4618
890.006	4698
890.13	4866
890.254	4645
890.377	4664
890.501	4535
890.624	4500
890.748	4634
890.871	4481
890.995	4451
891.118	4421
891.241	4481
891.364	4512
891.488	4660
891.611	4493
891.734	4558
891.857	4573
891.98	4519
892.103	4637
892.226	4611
892.349	4489
892.471	4409
892.594	4531
892.717	4577
892.839	4569
892.962	4573
893.085	4672
893.207	4599
893.33	4466
893.452	4561
893.575	4637
893.697	4542
893.819	4809
893.941	4831
894.064	4759
894.186	4622
894.308	4542
894.43	4714
894.552	4801
894.674	4717
894.796	4489
894.918	4592
895.04	4531
895.161	4694
895.283	4645
895.405	4538
895.526	4645
895.648	4668
895.769	4698
895.891	4698
896.012	4767
896.134	4717
896.255	4683
896.376	4558
896.498	4668
896.619	4660
896.74	4588
896.861	4687
896.982	4904
897.103	5041
897.224	4778
897.345	4771
897.466	4668
897.587	4763
897.708	4816
897.828	4801
897.949	4668
898.07	4573
898.19	4634
898.311	4828
898.431	4656
898.552	4714
898.672	4816
898.792	4763
898.913	4752
899.033	4565
899.153	4531
899.273	4443
899.393	4478
899.513	4550
899.633	4504
899.753	4538
899.873	4481
899.993	4584
900.113	4535
900.232	4558
900.352	4561
900.472	4497
900.591	4386
900.711	4497
900.83	4402
900.95	4565
901.069	4702
901.189	4542
901.308	4325
901.427	4318
901.546	4386
901.665	4440
901.784	4512
901.904	4371
902.023	4325
902.141	4188
902.26	4158
902.379	4280
902.498	4257
902.617	4200
902.735	4383
902.854	4417
902.973	4379
903.091	4181
903.21	4200
903.328	4329
903.446	4284
903.565	4276
903.683	4367
903.801	4306
903.919	4402
904.038	4413
904.156	4325
904.274	4447
904.392	4375
904.51	4436
904.627	4489
904.745	4569
904.863	4630
904.981	4390
905.098	4314
905.216	4333
905.334	4424
905.451	4440
905.569	4447
905.686	4519
905.803	4565
905.921	4386
906.038	4497
906.155	4504
906.272	4443
906.389	4428
906.506	4363
906.623	4363
906.74	4394
906.857	4299
906.974	4352
907.091	4611
907.208	4615
907.324	4611
907.441	4512
907.557	4367
907.674	4375
907.79	4306
907.907	4367
908.023	4466
908.139	4459
908.256	4421
908.372	4478
908.488	4455
908.604	4344
908.72	4356
908.836	4375
908.952	4360
909.068	4474
909.184	4519
909.3	4500
909.415	4550
909.531	4577
909.647	4352
909.762	4390
909.878	4402
909.993	4443
910.108	4436
910.224	4402
910.339	4497
910.454	4394
910.57	4344
910.685	4322
910.8	4637
910.915	4637
911.03	4512
911.145	4348
911.259	4306
911.374	4325
911.489	4295
911.604	4314
911.718	4177
911.833	4169
911.947	4055
912.062	4021
912.176	4173
912.291	4230
912.405	4272
912.519	4424
912.633	4531
912.748	4348
912.862	4287
912.976	4169
913.09	4032
913.204	4131
913.318	4257
913.431	4360
913.545	4386
913.659	4432
913.772	4360
913.886	4246
914	4238
914.113	4348
914.226	4405
914.34	4436
914.453	4204
914.566	4417
914.68	4272
914.793	4325
914.906	4173
915.019	4112
915.132	4086
915.245	4150
915.358	4219
915.47	4215
915.583	4287
915.696	4314
915.809	4421
915.921	4402
916.034	4249
916.146	4265
916.259	4173
916.371	4360
916.483	4341
916.595	4272
916.708	4329
916.82	4379
916.932	4318
917.044	4295
917.156	4344
917.268	4204
917.38	4261
917.491	4299
917.603	4306
917.715	4398
917.826	4417
917.938	4341
918.049	4272
918.161	4432
918.272	4565
918.384	4519
918.495	4440
918.606	4280
918.717	4257
918.828	4356
918.939	4398
919.05	4242
919.161	4337
919.272	4120
919.383	4246
919.494	4455
919.604	4596
919.715	4405
919.826	4318
919.936	4386
920.047	4561
920.157	4508
920.267	4683
920.378	4527
920.488	4504
920.598	4717
920.708	4961
920.818	4717
920.928	4736
921.038	4927
921.148	4900
921.258	4656
921.368	4584
921.477	4504
921.587	4436
921.697	4383
921.806	4504
921.916	4417
922.025	4246
922.134	4295
922.244	4185
922.353	4352
922.462	4192
922.571	4128
922.68	3991
922.789	3994
922.898	4017
923.007	3983
923.116	4071
923.224	4063
923.333	4086
923.442	3979
923.55	3998
923.659	4017
923.767	4055
923.876	4025
923.984	4074
924.092	4006
924.201	4032
924.309	4086
924.417	4109
924.525	4032
924.633	4093
924.741	4889
924.849	3907
924.956	4093
925.064	3941
925.172	3915
925.279	3979
925.387	4029
925.494	4036
925.602	4192
925.709	4162
925.816	3998
925.924	4154
926.031	4246
926.138	4116
926.245	4238
926.352	4093
926.459	4246
926.566	4287
926.673	4166
926.779	4059
926.886	4093
926.993	3987
927.099	3960
927.206	3953
927.312	3934
927.419	4002
927.525	4078
927.631	4067
927.737	3915
927.843	3911
927.95	3819
928.056	3937
928.162	3953
928.267	4002
928.373	4698
928.479	4105
928.585	3835
928.69	3987
928.796	4048
928.901	3968
929.007	3876
929.112	3987
929.218	4010
929.323	3960
929.428	3876
929.533	4090
929.638	3911
929.743	3949
929.848	4044
929.953	3968
930.058	3934
930.163	3747
930.267	3850
930.372	3972
930.477	3797
930.581	4135
930.685	3945
930.79	3827
930.894	3907
930.998	3846
931.103	4010
931.207	3713
931.311	3686
931.415	3682
931.519	3523
931.623	3523
