Data from test_V78500241_2469.txt Node
Date: Fri Mar 25 17:06:10 CST 2022
User: usil
Spectrometer: V785-0024
Trigger mode: 0
Integration Time (sec): 4.000000E-1
Scans to average: 1
Nonlinearity correction enabled: false
Boxcar width: 0
Storing dark spectrum: false
XAxis mode: Wavelengths
Number of Pixels in Spectrum: 1024
>>>>>Begin Spectral Data<<<<<
801.071	8027
801.214	8054
801.356	7890
801.499	7864
801.641	7849
801.783	7803
801.926	7989
802.068	7986
802.211	7959
802.353	7993
802.496	7883
802.638	7883
802.78	7864
802.923	7898
803.065	7917
803.208	7921
803.35	7978
803.492	8088
803.635	8145
803.777	8027
803.919	8123
804.061	8427
804.204	8191
804.346	8096
804.488	7978
804.63	8107
804.773	8024
804.915	8157
805.057	8294
805.199	8206
805.341	8191
805.483	8305
805.626	8259
805.768	8168
805.91	8279
806.052	8157
806.194	8088
806.336	8294
806.478	8164
806.62	8046
806.762	8130
806.904	8240
807.046	8434
807.188	8366
807.33	8290
807.472	8305
807.614	8172
807.756	8168
807.898	8046
808.04	7868
808.182	7811
808.324	7894
808.465	7917
808.607	8069
808.749	8115
808.891	8267
809.033	8358
809.174	8176
809.316	8081
809.458	8119
809.6	7989
809.741	8046
809.883	8031
810.025	8088
810.166	8119
810.308	8031
810.45	8039
810.591	7879
810.733	7712
810.875	7597
811.016	7537
811.158	7476
811.299	7586
811.441	7670
811.582	7708
811.724	7525
811.865	7559
812.007	7624
812.148	7552
812.29	7628
812.431	7685
812.573	7902
812.714	7997
812.855	8123
812.997	8172
813.138	8301
813.279	8115
813.421	8058
813.562	7986
813.703	7772
813.845	7746
813.986	7400
814.127	7198
814.268	7247
814.41	7152
814.551	7145
814.692	7175
814.833	7038
814.974	7110
815.115	7107
815.256	7042
815.397	6985
815.539	6966
815.68	6795
815.821	6726
815.962	6886
816.103	6829
816.244	6707
816.385	6654
816.526	6593
816.666	6506
816.807	6338
816.948	6437
817.089	6475
817.23	6437
817.371	6418
817.512	6311
817.653	6422
817.793	6281
817.934	6407
818.075	6479
818.216	6467
818.356	6407
818.497	6270
818.638	6121
818.778	6136
818.919	6159
819.06	6186
819.2	6331
819.341	6357
819.481	6365
819.622	6559
819.762	6738
819.903	6642
820.043	6700
820.184	6623
820.324	6589
820.465	6692
820.605	6711
820.746	6631
820.886	6604
821.026	6677
821.167	6764
821.307	6795
821.447	6837
821.588	6681
821.728	6608
821.868	6506
822.008	6346
822.149	6395
822.289	6388
822.429	6224
822.569	6133
822.709	6175
822.849	5958
822.99	5999
823.13	5935
823.27	5950
823.41	5920
823.55	5844
823.69	5813
823.83	5813
823.97	5714
824.11	5528
824.25	5543
824.389	5573
824.529	5623
824.669	5486
824.809	5745
824.949	5676
825.089	5680
825.228	5608
825.368	5383
825.508	5379
825.648	5402
825.787	5376
825.927	5387
826.067	5383
826.206	5337
826.346	5391
826.485	5452
826.625	5486
826.765	5600
826.904	5543
827.044	5284
827.183	5242
827.323	5193
827.462	5303
827.601	5220
827.741	5227
827.88	5208
828.02	5155
828.159	5261
828.298	5357
828.437	5433
828.577	5326
828.716	5501
828.855	5368
828.994	5193
829.134	5193
829.273	5216
829.412	5189
829.551	5140
829.69	5178
829.829	5288
829.968	5417
830.107	5353
830.246	5318
830.385	5227
830.524	5189
830.663	5155
830.802	5018
830.941	4927
831.08	4911
831.219	5041
831.357	5022
831.496	5212
831.635	4965
831.774	4900
831.913	4870
832.051	4809
832.19	4839
832.329	4881
832.467	4721
832.606	4653
832.744	4752
832.883	4740
833.022	4816
833.16	4824
833.299	4847
833.437	4828
833.576	4850
833.714	4949
833.852	4915
833.991	4915
834.129	5025
834.267	4976
834.406	4968
834.544	4987
834.682	5045
834.821	5052
834.959	5170
835.097	5037
835.235	5185
835.373	5124
835.511	5189
835.65	5060
835.788	5090
835.926	4889
836.064	4885
836.202	4934
836.34	5162
836.478	5265
836.615	5109
836.753	5277
836.891	5364
837.029	5288
837.167	5265
837.305	5174
837.443	5132
837.58	5136
837.718	5303
837.856	5208
837.993	5231
838.131	5307
838.269	5250
838.406	5273
838.544	5231
838.681	5067
838.819	5003
838.956	4873
839.094	4942
839.231	4984
839.369	5128
839.506	5463
839.643	5326
839.781	5102
839.918	5102
840.055	5124
840.193	5124
840.33	5128
840.467	5136
840.604	5201
840.742	5436
840.879	5105
841.016	5102
841.153	5193
841.29	5395
841.427	5353
841.564	5368
841.701	5353
841.838	5307
841.975	5284
842.112	5341
842.249	5124
842.385	5140
842.522	5395
842.659	5208
842.796	5155
842.933	5235
843.069	5155
843.206	5170
843.343	5315
843.479	5277
843.616	5288
843.752	5006
843.889	5083
844.025	5273
844.162	5025
844.298	5231
844.435	5113
844.571	5128
844.708	5216
844.844	5345
844.98	5398
845.117	5337
845.253	5159
845.389	5136
845.525	5201
845.661	5197
845.798	5056
845.934	5197
846.07	5094
846.206	5235
846.342	5334
846.478	5208
846.614	5064
846.75	5018
846.886	4949
847.022	5162
847.158	5086
847.294	5140
847.429	5109
847.565	5121
847.701	5372
847.837	4896
847.972	4881
848.108	4984
848.244	4987
848.379	4816
848.515	4740
848.65	4752
848.786	4786
848.921	4801
849.057	4919
849.192	4953
849.328	4805
849.463	4850
849.598	4820
849.734	4824
849.869	4729
850.004	4622
850.14	4702
850.275	4656
850.41	4546
850.545	4573
850.68	4630
850.815	4618
850.95	4717
851.085	4870
851.22	4744
851.355	4706
851.49	4679
851.625	4649
851.76	4687
851.895	4592
852.03	4573
852.165	4698
852.299	4763
852.434	4847
852.569	4790
852.703	4812
852.838	4919
852.973	5037
853.107	4938
853.242	4771
853.376	4687
853.511	4611
853.645	4698
853.78	4812
853.914	4710
854.048	4706
854.183	4653
854.317	4714
854.451	4892
854.585	4679
854.72	4672
854.854	4790
854.988	4637
855.122	4645
855.256	4607
855.39	4702
855.524	4744
855.658	4717
855.792	4660
855.926	4774
856.06	4801
856.194	4831
856.327	4698
856.461	4683
856.595	4664
856.729	4626
856.862	4797
856.996	4714
857.13	4759
857.263	4816
857.397	4805
857.53	4649
857.664	4767
857.797	4854
857.931	4793
858.064	4733
858.197	4797
858.331	4733
858.464	4641
858.597	4569
858.731	4653
858.864	4664
858.997	4672
859.13	4683
859.263	4702
859.396	4706
859.529	4622
859.662	4588
859.795	4596
859.928	4672
860.061	4816
860.194	4793
860.327	4672
860.46	4538
860.592	4725
860.725	4771
860.858	4771
860.99	4649
861.123	4569
861.256	4588
861.388	4626
861.521	5220
861.653	4527
861.786	4481
861.918	4474
862.05	4535
862.183	4542
862.315	4649
862.447	4679
862.58	4523
862.712	4455
862.844	4375
862.976	4470
863.108	4481
863.24	4862
863.372	4337
863.504	4466
863.636	4451
863.768	4546
863.9	4447
864.032	4390
864.164	4436
864.296	4500
864.428	4561
864.559	4622
864.691	4599
864.823	4546
864.954	4523
865.086	4516
865.217	4497
865.349	4428
865.48	4497
865.612	4485
865.743	4630
865.875	4497
866.006	4447
866.137	4493
866.269	4493
866.4	4485
866.531	4436
866.662	4443
866.793	4409
866.924	4489
867.055	4542
867.186	4485
867.317	4478
867.448	4432
867.579	4421
867.71	4409
867.841	4371
867.972	4493
868.103	4489
868.233	4523
868.364	4470
868.495	4531
868.625	4702
868.756	4790
868.886	4603
869.017	4645
869.147	4805
869.278	4820
869.408	4660
869.539	4656
869.669	4771
869.799	4672
869.929	4793
870.06	4786
870.19	5022
870.32	4953
870.45	5006
870.58	5014
870.71	5121
870.84	5109
870.97	4961
871.1	4923
871.23	5136
871.36	5113
871.489	5048
871.619	5117
871.749	5155
871.879	5166
872.008	5155
872.138	5083
872.267	5037
872.397	4900
872.526	4843
872.656	4767
872.785	4858
872.915	4961
873.044	5025
873.173	4987
873.303	5003
873.432	4980
873.561	4984
873.69	4900
873.819	4835
873.948	4927
874.077	4904
874.206	4809
874.335	4778
874.464	4911
874.593	5060
874.722	4965
874.851	5102
874.979	5159
875.108	5060
875.237	4957
875.365	4881
875.494	4980
875.623	4946
875.751	4862
875.88	4938
876.008	5052
876.136	5117
876.265	5292
876.393	5368
876.521	5280
876.65	5261
876.778	5197
876.906	5105
877.034	5025
877.162	5090
877.29	5045
877.418	5075
877.546	5003
877.674	5048
877.802	5071
877.93	5022
878.058	4972
878.185	4889
878.313	4942
878.441	4976
878.568	4816
878.696	4892
878.824	4976
878.951	5033
879.079	5155
879.206	5246
879.333	5090
879.461	4999
879.588	5060
879.715	5117
879.842	5280
879.97	5014
880.097	4816
880.224	4729
880.351	4831
880.478	4820
880.605	4854
880.732	4858
880.859	5147
880.986	4934
881.112	4923
881.239	4816
881.366	4679
881.493	4584
881.619	4622
881.746	4630
881.872	4653
881.999	4675
882.125	4675
882.252	4782
882.378	4835
882.505	4999
882.631	4839
882.757	4687
882.883	4752
883.01	4774
883.136	4683
883.262	4626
883.388	4672
883.514	4828
883.64	4850
883.766	4820
883.892	4733
884.018	4736
884.143	4877
884.269	5003
884.395	4687
884.52	4618
884.646	4645
884.772	4626
884.897	4580
885.023	4641
885.148	4786
885.274	4892
885.399	4847
885.524	4778
885.65	4691
885.775	4763
885.9	4771
886.025	4866
886.15	4786
886.275	4714
886.4	4687
886.525	4759
886.65	4714
886.775	4694
886.9	4911
887.025	5033
887.149	4843
887.274	4694
887.399	4577
887.523	4603
887.648	4603
887.773	4622
887.897	4801
888.021	4843
888.146	4691
888.27	4858
888.395	4946
888.519	4740
888.643	4812
888.767	4866
888.891	4679
889.015	4634
889.139	4717
889.263	4592
889.387	4790
889.511	4862
889.635	4828
889.759	4634
889.883	4622
890.006	4778
890.13	4831
890.254	4630
890.377	4729
890.501	4538
890.624	4542
890.748	4634
890.871	4542
890.995	4466
891.118	4402
891.241	4504
891.364	4577
891.488	4637
891.611	4516
891.734	4573
891.857	4596
891.98	4531
892.103	4687
892.226	4599
892.349	4554
892.471	4466
892.594	4538
892.717	4596
892.839	4611
892.962	4634
893.085	4721
893.207	4599
893.33	4466
893.452	4508
893.575	4649
893.697	4588
893.819	4828
893.941	4809
894.064	4790
894.186	4607
894.308	4584
894.43	4774
894.552	4854
894.674	4805
894.796	4561
894.918	4626
895.04	4561
895.161	4736
895.283	4694
895.405	4603
895.526	4645
895.648	4725
895.769	4710
895.891	4721
896.012	4740
896.134	4748
896.255	4687
896.376	4618
896.498	4592
896.619	4691
896.74	4577
896.861	4702
896.982	4938
897.103	5086
897.224	4816
897.345	4744
897.466	4691
897.587	4725
897.708	4919
897.828	4824
897.949	4660
898.07	4592
898.19	4672
898.311	4847
898.431	4698
898.552	4736
898.672	4854
898.792	4881
898.913	4752
899.033	4618
899.153	4550
899.273	4436
899.393	4474
899.513	4497
899.633	4538
899.753	4558
899.873	4538
899.993	4611
900.113	4592
900.232	4607
900.352	4546
900.472	4485
900.591	4462
900.711	4497
900.83	4424
900.95	4622
901.069	4653
901.189	4622
901.308	4356
901.427	4337
901.546	4398
901.665	4504
901.784	4481
901.904	4402
902.023	4299
902.141	4204
902.26	4219
902.379	4314
902.498	4257
902.617	4230
902.735	4398
902.854	4447
902.973	4348
903.091	4246
903.21	4223
903.328	4314
903.446	4291
903.565	4276
903.683	4375
903.801	4265
903.919	4409
904.038	4459
904.156	4280
904.274	4462
904.392	4405
904.51	4432
904.627	4474
904.745	4577
904.863	4653
904.981	4363
905.098	4314
905.216	4394
905.334	4405
905.451	4443
905.569	4497
905.686	4558
905.803	4634
905.921	4432
906.038	4584
906.155	4508
906.272	4443
906.389	4451
906.506	4344
906.623	4375
906.74	4402
906.857	4344
906.974	4409
907.091	4561
907.208	4649
907.324	4584
907.441	4512
907.557	4398
907.674	4360
907.79	4322
907.907	4383
908.023	4527
908.139	4478
908.256	4409
908.372	4432
908.488	4489
908.604	4367
908.72	4322
908.836	4394
908.952	4386
909.068	4447
909.184	4599
909.3	4500
909.415	4607
909.531	4580
909.647	4360
909.762	4367
909.878	4310
909.993	4474
910.108	4371
910.224	4459
910.339	4527
910.454	4356
910.57	4394
910.685	4322
910.8	4660
910.915	4596
911.03	4462
911.145	4379
911.259	4333
911.374	4417
911.489	4257
911.604	4322
911.718	4162
911.833	4207
911.947	4101
912.062	4013
912.176	4162
912.291	4261
912.405	4249
912.519	4485
912.633	4516
912.748	4379
912.862	4352
912.976	4230
913.09	4135
913.204	4204
913.318	4257
913.431	4390
913.545	4352
913.659	4428
913.772	4325
913.886	4268
914	4227
914.113	4417
914.226	4398
914.34	4409
914.453	4287
914.566	4440
914.68	4352
914.793	4287
914.906	4143
915.019	4135
915.132	4071
915.245	4219
915.358	4211
915.47	4227
915.583	4261
915.696	4352
915.809	4379
915.921	4440
916.034	4284
916.146	4268
916.259	4223
916.371	4436
916.483	4318
916.595	4234
916.708	4318
916.82	4333
916.932	4360
917.044	4348
917.156	4352
917.268	4230
917.38	4310
917.491	4211
917.603	4341
917.715	4462
917.826	4474
917.938	4379
918.049	4223
918.161	4413
918.272	4538
918.384	4565
918.495	4462
918.606	4265
918.717	4276
918.828	4363
918.939	4390
919.05	4249
919.161	4303
919.272	4109
919.383	4230
919.494	4402
919.604	4615
919.715	4436
919.826	4291
919.936	4371
920.047	4504
920.157	4474
920.267	4691
920.378	4538
920.488	4546
920.598	4687
920.708	4862
920.818	4721
920.928	4733
921.038	4976
921.148	4930
921.258	4645
921.368	4577
921.477	4527
921.587	4493
921.697	4367
921.806	4535
921.916	4360
922.025	4272
922.134	4310
922.244	4227
922.353	4303
922.462	4131
922.571	4128
922.68	4029
922.789	3972
922.898	3991
923.007	4021
923.116	4109
923.224	4105
923.333	4105
923.442	3983
923.55	4006
923.659	3998
923.767	4093
923.876	3979
923.984	4135
924.092	4021
924.201	4101
924.309	4120
924.417	4112
924.525	4112
924.633	4128
924.741	5067
924.849	3922
924.956	4143
925.064	3934
925.172	3907
925.279	3968
925.387	4074
925.494	4067
925.602	4219
925.709	4162
925.816	4025
925.924	4105
926.031	4207
926.138	4173
926.245	4238
926.352	4135
926.459	4242
926.566	4295
926.673	4166
926.779	4116
926.886	4044
926.993	3979
927.099	3979
927.206	3953
927.312	3987
927.419	4097
927.525	4029
927.631	4090
927.737	3964
927.843	3975
927.95	3857
928.056	3953
928.162	3983
928.267	4101
928.373	4656
928.479	4112
928.585	3896
928.69	4036
928.796	4078
928.901	3953
929.007	3861
929.112	4025
929.218	3998
929.323	3975
929.428	3934
929.533	4112
929.638	3899
929.743	3975
929.848	4055
929.953	3998
930.058	3941
930.163	3797
930.267	3804
930.372	3949
930.477	3819
930.581	4105
930.685	4010
930.79	3842
930.894	3934
930.998	3812
931.103	4036
931.207	3717
931.311	3717
931.415	3675
931.519	3553
931.623	3542
