Data from test_V78500241_593.txt Node
Date: Fri Mar 25 16:53:07 CST 2022
User: usil
Spectrometer: V785-0024
Trigger mode: 0
Integration Time (sec): 4.000000E-1
Scans to average: 1
Nonlinearity correction enabled: false
Boxcar width: 0
Storing dark spectrum: false
XAxis mode: Wavelengths
Number of Pixels in Spectrum: 1024
>>>>>Begin Spectral Data<<<<<
801.071	8008
801.214	8035
801.356	7894
801.499	7811
801.641	7818
801.783	7784
801.926	8107
802.068	7982
802.211	7936
802.353	8005
802.496	7925
802.638	7925
802.78	7974
802.923	7955
803.065	7795
803.208	7814
803.35	7986
803.492	8138
803.635	8119
803.777	8020
803.919	8103
804.061	8385
804.204	8149
804.346	8031
804.488	7936
804.63	8050
804.773	8008
804.915	8081
805.057	8298
805.199	8115
805.341	8267
805.483	8336
805.626	8294
805.768	8065
805.91	8180
806.052	8142
806.194	8024
806.336	8282
806.478	8096
806.62	8096
806.762	8103
806.904	8279
807.046	8431
807.188	8370
807.33	8271
807.472	8305
807.614	8225
807.756	8134
807.898	7986
808.04	7936
808.182	7947
808.324	7906
808.465	7913
808.607	8020
808.749	8100
808.891	8218
809.033	8271
809.174	8100
809.316	8016
809.458	8020
809.6	7951
809.741	8001
809.883	7947
810.025	8016
810.166	7982
810.308	7970
810.45	8005
810.591	7894
810.733	7734
810.875	7643
811.016	7552
811.158	7491
811.299	7613
811.441	7765
811.582	7681
811.724	7559
811.865	7533
812.007	7601
812.148	7639
812.29	7620
812.431	7708
812.573	7871
812.714	8005
812.855	8191
812.997	8237
813.138	8385
813.279	8191
813.421	8081
813.562	8065
813.703	7837
813.845	7841
813.986	7540
814.127	7403
814.268	7232
814.41	7209
814.551	7141
814.692	7129
814.833	7114
814.974	7122
815.115	7076
815.256	6878
815.397	6932
815.539	7031
815.68	6871
815.821	6783
815.962	6924
816.103	6833
816.244	6692
816.385	6631
816.526	6616
816.666	6494
816.807	6311
816.948	6399
817.089	6441
817.23	6403
817.371	6399
817.512	6395
817.653	6369
817.793	6338
817.934	6384
818.075	6456
818.216	6452
818.356	6376
818.497	6232
818.638	6121
818.778	6098
818.919	6095
819.06	6098
819.2	6277
819.341	6327
819.481	6304
819.622	6540
819.762	6722
819.903	6673
820.043	6559
820.184	6521
820.324	6616
820.465	6722
820.605	6642
820.746	6547
820.886	6486
821.026	6620
821.167	6681
821.307	6802
821.447	6711
821.588	6635
821.728	6521
821.868	6486
822.008	6251
822.149	6365
822.289	6300
822.429	6186
822.569	6057
822.709	6095
822.849	5927
822.99	5878
823.13	5908
823.27	5969
823.41	5813
823.55	5771
823.69	5786
823.83	5786
823.97	5653
824.11	5558
824.25	5497
824.389	5509
824.529	5585
824.669	5505
824.809	5600
824.949	5718
825.089	5592
825.228	5558
825.368	5391
825.508	5334
825.648	5315
825.787	5398
825.927	5379
826.067	5280
826.206	5227
826.346	5353
826.485	5459
826.625	5410
826.765	5512
826.904	5429
827.044	5246
827.183	5273
827.323	5155
827.462	5242
827.601	5170
827.741	5128
827.88	5189
828.02	5121
828.159	5208
828.298	5258
828.437	5307
828.577	5273
828.716	5474
828.855	5284
828.994	5109
829.134	5155
829.273	5162
829.412	5109
829.551	5105
829.69	5155
829.829	5212
829.968	5315
830.107	5296
830.246	5292
830.385	5170
830.524	5113
830.663	5067
830.802	4965
830.941	4873
831.08	4896
831.219	4980
831.357	4942
831.496	5170
831.635	4934
831.774	4862
831.913	4843
832.051	4694
832.19	4744
832.329	4866
832.467	4675
832.606	4592
832.744	4733
832.883	4694
833.022	4744
833.16	4793
833.299	4805
833.437	4812
833.576	4889
833.714	4812
833.852	4843
833.991	4873
834.129	4946
834.267	4995
834.406	4911
834.544	4934
834.682	4961
834.821	4900
834.959	5155
835.097	4991
835.235	5109
835.373	5098
835.511	5083
835.65	5048
835.788	5048
835.926	4915
836.064	4866
836.202	4904
836.34	5132
836.478	5227
836.615	5132
836.753	5220
836.891	5235
837.029	5231
837.167	5170
837.305	5128
837.443	5098
837.58	5052
837.718	5273
837.856	5155
837.993	5143
838.131	5220
838.269	5201
838.406	5178
838.544	5140
838.681	5018
838.819	5003
838.956	4953
839.094	4873
839.231	4976
839.369	5025
839.506	5395
839.643	5277
839.781	5022
839.918	5014
840.055	5113
840.193	5102
840.33	5064
840.467	5128
840.604	5193
840.742	5417
840.879	5086
841.016	5064
841.153	5155
841.29	5387
841.427	5357
841.564	5318
841.701	5387
841.838	5242
841.975	5246
842.112	5284
842.249	5136
842.385	5090
842.522	5357
842.659	5235
842.796	5147
842.933	5162
843.069	5136
843.206	5132
843.343	5284
843.479	5258
843.616	5254
843.752	5022
843.889	5022
844.025	5208
844.162	5029
844.298	5181
844.435	5083
844.571	5029
844.708	5212
844.844	5269
844.98	5273
845.117	5280
845.253	5185
845.389	5071
845.525	5140
845.661	5143
845.798	5052
845.934	5136
846.07	5067
846.206	5193
846.342	5265
846.478	5208
846.614	4999
846.75	4949
846.886	4889
847.022	5170
847.158	4991
847.294	5056
847.429	5117
847.565	5029
847.701	5307
847.837	4873
847.972	4771
848.108	4946
848.244	4908
848.379	4759
848.515	4736
848.65	4740
848.786	4812
848.921	4801
849.057	4870
849.192	4904
849.328	4771
849.463	4835
849.598	4771
849.734	4774
849.869	4729
850.004	4641
850.14	4649
850.275	4618
850.41	4554
850.545	4538
850.68	4584
850.815	4622
850.95	4660
851.085	4870
851.22	4774
851.355	4679
851.49	4599
851.625	4603
851.76	4645
851.895	4538
852.03	4523
852.165	4637
852.299	4736
852.434	4778
852.569	4763
852.703	4752
852.838	4866
852.973	4892
853.107	4881
853.242	4679
853.376	4607
853.511	4504
853.645	4569
853.78	4782
853.914	4653
854.048	4706
854.183	4630
854.317	4668
854.451	4835
854.585	4725
854.72	4607
854.854	4763
854.988	4611
855.122	4634
855.256	4523
855.39	4675
855.524	4816
855.658	4702
855.792	4691
855.926	4733
856.06	4675
856.194	4824
856.327	4702
856.461	4580
856.595	4626
856.729	4603
856.862	4736
856.996	4679
857.13	4725
857.263	4733
857.397	4778
857.53	4653
857.664	4729
857.797	4733
857.931	4744
858.064	4675
858.197	4710
858.331	4675
858.464	4573
858.597	4523
858.731	4626
858.864	4615
858.997	4599
859.13	4668
859.263	4672
859.396	4668
859.529	4588
859.662	4542
859.795	4519
859.928	4607
860.061	4744
860.194	4710
860.327	4611
860.46	4577
860.592	4710
860.725	4733
860.858	4733
860.99	4546
861.123	4527
861.256	4485
861.388	4596
861.521	5379
861.653	4504
861.786	4421
861.918	4443
862.05	4527
862.183	4500
862.315	4596
862.447	4653
862.58	4554
862.712	4398
862.844	4356
862.976	4459
863.108	4421
863.24	4908
863.372	4337
863.504	4394
863.636	4360
863.768	4462
863.9	4413
864.032	4333
864.164	4375
864.296	4470
864.428	4558
864.559	4573
864.691	4474
864.823	4523
864.954	4466
865.086	4493
865.217	4436
865.349	4383
865.48	4440
865.612	4485
865.743	4626
865.875	4443
866.006	4405
866.137	4451
866.269	4478
866.4	4436
866.531	4436
866.662	4405
866.793	4383
866.924	4405
867.055	4474
867.186	4451
867.317	4405
867.448	4379
867.579	4417
867.71	4360
867.841	4417
867.972	4428
868.103	4459
868.233	4390
868.364	4466
868.495	4519
868.625	4672
868.756	4755
868.886	4535
869.017	4580
869.147	4797
869.278	4729
869.408	4634
869.539	4649
869.669	4672
869.799	4725
869.929	4736
870.06	4786
870.19	4949
870.32	4889
870.45	4946
870.58	5018
870.71	5025
870.84	5052
870.97	4927
871.1	4877
871.23	5136
871.36	5140
871.489	5029
871.619	5067
871.749	5075
871.879	5056
872.008	5185
872.138	5022
872.267	4953
872.397	4843
872.526	4816
872.656	4748
872.785	4790
872.915	4984
873.044	5018
873.173	4965
873.303	4984
873.432	4972
873.561	4927
873.69	4900
873.819	4889
873.948	4930
874.077	4793
874.206	4774
874.335	4748
874.464	4889
874.593	5071
874.722	4942
874.851	5090
874.979	5045
875.108	5003
875.237	4938
875.365	4904
875.494	4946
875.623	4972
875.751	4896
875.88	4870
876.008	4965
876.136	4999
876.265	5185
876.393	5360
876.521	5201
876.65	5242
876.778	5170
876.906	5052
877.034	5037
877.162	5037
877.29	4968
877.418	5045
877.546	5064
877.674	5052
877.802	4972
877.93	5037
878.058	4930
878.185	4877
878.313	4889
878.441	4934
878.568	4809
878.696	4877
878.824	4927
878.951	4946
879.079	5185
879.206	5307
879.333	5075
879.461	4953
879.588	4957
879.715	5151
879.842	5231
879.97	5025
880.097	4801
880.224	4698
880.351	4805
880.478	4801
880.605	4812
880.732	4797
880.859	5048
880.986	4862
881.112	4889
881.239	4793
881.366	4675
881.493	4599
881.619	4531
881.746	4634
881.872	4615
881.999	4649
882.125	4634
882.252	4797
882.378	4850
882.505	4965
882.631	4839
882.757	4634
882.883	4717
883.01	4691
883.136	4706
883.262	4599
883.388	4622
883.514	4740
883.64	4812
883.766	4714
883.892	4603
884.018	4702
884.143	4850
884.269	4965
884.395	4702
884.52	4611
884.646	4626
884.772	4558
884.897	4577
885.023	4672
885.148	4771
885.274	4828
885.399	4828
885.524	4714
885.65	4660
885.775	4702
885.9	4752
886.025	4885
886.15	4790
886.275	4778
886.4	4706
886.525	4683
886.65	4656
886.775	4698
886.9	4896
887.025	5041
887.149	4809
887.274	4691
887.399	4618
887.523	4592
887.648	4596
887.773	4592
887.897	4774
888.021	4824
888.146	4717
888.27	4801
888.395	4946
888.519	4793
888.643	4831
888.767	4831
888.891	4721
889.015	4656
889.139	4672
889.263	4656
889.387	4793
889.511	4934
889.635	4797
889.759	4668
889.883	4637
890.006	4755
890.13	4862
890.254	4653
890.377	4691
890.501	4538
890.624	4603
890.748	4649
890.871	4538
890.995	4481
891.118	4432
891.241	4550
891.364	4561
891.488	4660
891.611	4550
891.734	4538
891.857	4622
891.98	4611
892.103	4706
892.226	4558
892.349	4569
892.471	4432
892.594	4580
892.717	4618
892.839	4599
892.962	4622
893.085	4714
893.207	4641
893.33	4535
893.452	4580
893.575	4702
893.697	4656
893.819	4885
893.941	4858
894.064	4839
894.186	4668
894.308	4607
894.43	4740
894.552	4873
894.674	4824
894.796	4603
894.918	4626
895.04	4653
895.161	4801
895.283	4725
895.405	4611
895.526	4645
895.648	4702
895.769	4698
895.891	4740
896.012	4812
896.134	4752
896.255	4660
896.376	4702
896.498	4672
896.619	4675
896.74	4626
896.861	4736
896.982	4938
897.103	5094
897.224	4820
897.345	4740
897.466	4683
897.587	4774
897.708	4892
897.828	4824
897.949	4740
898.07	4577
898.19	4675
898.311	4896
898.431	4691
898.552	4733
898.672	4801
898.792	4801
898.913	4782
899.033	4622
899.153	4542
899.273	4516
899.393	4538
899.513	4535
899.633	4588
899.753	4561
899.873	4535
899.993	4611
900.113	4573
900.232	4649
900.352	4577
900.472	4527
900.591	4405
900.711	4516
900.83	4432
900.95	4668
901.069	4748
901.189	4584
901.308	4394
901.427	4322
901.546	4440
901.665	4531
901.784	4512
901.904	4383
902.023	4284
902.141	4238
902.26	4261
902.379	4306
902.498	4280
902.617	4295
902.735	4394
902.854	4409
902.973	4394
903.091	4261
903.21	4253
903.328	4329
903.446	4291
903.565	4280
903.683	4413
903.801	4333
903.919	4443
904.038	4459
904.156	4371
904.274	4512
904.392	4485
904.51	4459
904.627	4489
904.745	4649
904.863	4660
904.981	4367
905.098	4341
905.216	4360
905.334	4474
905.451	4470
905.569	4508
905.686	4596
905.803	4588
905.921	4447
906.038	4561
906.155	4523
906.272	4421
906.389	4489
906.506	4421
906.623	4398
906.74	4394
906.857	4348
906.974	4386
907.091	4577
907.208	4714
907.324	4607
907.441	4489
907.557	4390
907.674	4417
907.79	4310
907.907	4390
908.023	4508
908.139	4527
908.256	4474
908.372	4546
908.488	4493
908.604	4390
908.72	4367
908.836	4424
908.952	4398
909.068	4451
909.184	4569
909.3	4508
909.415	4637
909.531	4588
909.647	4383
909.762	4375
909.878	4386
909.993	4443
910.108	4451
910.224	4432
910.339	4512
910.454	4436
910.57	4356
910.685	4333
910.8	4714
910.915	4645
911.03	4481
911.145	4375
911.259	4352
911.374	4394
911.489	4352
911.604	4379
911.718	4227
911.833	4257
911.947	4128
912.062	4071
912.176	4253
912.291	4242
912.405	4303
912.519	4550
912.633	4573
912.748	4459
912.862	4333
912.976	4234
913.09	4116
913.204	4234
913.318	4310
913.431	4428
913.545	4394
913.659	4474
913.772	4398
913.886	4261
914	4261
914.113	4451
914.226	4440
914.34	4451
914.453	4230
914.566	4500
914.68	4325
914.793	4310
914.906	4238
915.019	4162
915.132	4143
915.245	4223
915.358	4257
915.47	4265
915.583	4287
915.696	4337
915.809	4428
915.921	4481
916.034	4284
916.146	4291
916.259	4253
916.371	4443
916.483	4360
916.595	4280
916.708	4405
916.82	4371
916.932	4341
917.044	4356
917.156	4337
917.268	4253
917.38	4363
917.491	4325
917.603	4360
917.715	4470
917.826	4451
917.938	4386
918.049	4272
918.161	4451
918.272	4618
918.384	4573
918.495	4455
918.606	4287
918.717	4310
918.828	4363
918.939	4344
919.05	4333
919.161	4344
919.272	4112
919.383	4265
919.494	4466
919.604	4630
919.715	4432
919.826	4375
919.936	4413
920.047	4519
920.157	4489
920.267	4774
920.378	4577
920.488	4493
920.598	4710
920.708	4904
920.818	4786
920.928	4820
921.038	4995
921.148	4949
921.258	4626
921.368	4554
921.477	4523
921.587	4451
921.697	4455
921.806	4565
921.916	4432
922.025	4303
922.134	4249
922.244	4280
922.353	4348
922.462	4162
922.571	4147
922.68	3983
922.789	3998
922.898	4059
923.007	4036
923.116	4086
923.224	4097
923.333	4078
923.442	4017
923.55	4006
923.659	4051
923.767	4135
923.876	4040
923.984	4185
924.092	3979
924.201	4051
924.309	4105
924.417	4143
924.525	4086
924.633	4120
924.741	5086
924.849	3918
924.956	4166
925.064	3960
925.172	3960
925.279	3994
925.387	4059
925.494	4067
925.602	4227
925.709	4287
925.816	4048
925.924	4128
926.031	4253
926.138	4219
926.245	4181
926.352	4147
926.459	4257
926.566	4310
926.673	4219
926.779	4090
926.886	4086
926.993	3991
927.099	3964
927.206	3968
927.312	3968
927.419	4071
927.525	4051
927.631	4097
927.737	4010
927.843	3945
927.95	3869
928.056	3979
928.162	4040
928.267	4086
928.373	4687
928.479	4158
928.585	3930
928.69	4040
928.796	4105
928.901	3983
929.007	3873
929.112	3972
929.218	4013
929.323	4002
929.428	3972
929.533	4135
929.638	3941
929.743	4010
929.848	4074
929.953	4059
930.058	3991
930.163	3800
930.267	3861
930.372	3979
930.477	3865
930.581	4082
930.685	3983
930.79	3835
930.894	3903
930.998	3816
931.103	4074
931.207	3785
931.311	3724
931.415	3713
931.519	3549
931.623	3515
