Data from test_V78500241_2316.txt Node
Date: Fri Mar 25 17:05:06 CST 2022
User: usil
Spectrometer: V785-0024
Trigger mode: 0
Integration Time (sec): 4.000000E-1
Scans to average: 1
Nonlinearity correction enabled: false
Boxcar width: 0
Storing dark spectrum: false
XAxis mode: Wavelengths
Number of Pixels in Spectrum: 1024
>>>>>Begin Spectral Data<<<<<
801.071	8065
801.214	7967
801.356	7830
801.499	7898
801.641	7795
801.783	7807
801.926	7928
802.068	7932
802.211	7967
802.353	7993
802.496	7814
802.638	7883
802.78	7887
802.923	7974
803.065	7795
803.208	7830
803.35	7970
803.492	8039
803.635	8115
803.777	8054
803.919	8115
804.061	8427
804.204	8149
804.346	8020
804.488	8016
804.63	8119
804.773	7944
804.915	8088
805.057	8259
805.199	8142
805.341	8180
805.483	8267
805.626	8233
805.768	8149
805.91	8145
806.052	8187
806.194	8176
806.336	8248
806.478	8043
806.62	8100
806.762	8130
806.904	8221
807.046	8476
807.188	8324
807.33	8229
807.472	8317
807.614	8142
807.756	8138
807.898	7974
808.04	7814
808.182	7860
808.324	7887
808.465	7909
808.607	8050
808.749	8100
808.891	8271
809.033	8290
809.174	8138
809.316	8039
809.458	8084
809.6	7928
809.741	8077
809.883	8039
810.025	8153
810.166	8065
810.308	8016
810.45	8008
810.591	7894
810.733	7761
810.875	7685
811.016	7559
811.158	7422
811.299	7571
811.441	7746
811.582	7578
811.724	7548
811.865	7502
812.007	7575
812.148	7552
812.29	7594
812.431	7708
812.573	7833
812.714	7967
812.855	8035
812.997	8176
813.138	8332
813.279	8199
813.421	8008
813.562	7967
813.703	7811
813.845	7731
813.986	7396
814.127	7240
814.268	7114
814.41	7221
814.551	7164
814.692	7225
814.833	7080
814.974	7114
815.115	7156
815.256	6985
815.397	6935
815.539	6916
815.68	6852
815.821	6783
815.962	6856
816.103	6844
816.244	6707
816.385	6650
816.526	6566
816.666	6525
816.807	6327
816.948	6448
817.089	6464
817.23	6509
817.371	6315
817.512	6422
817.653	6395
817.793	6315
817.934	6395
818.075	6506
818.216	6414
818.356	6407
818.497	6209
818.638	6152
818.778	6155
818.919	6087
819.06	6186
819.2	6285
819.341	6369
819.481	6365
819.622	6528
819.762	6700
819.903	6703
820.043	6642
820.184	6540
820.324	6555
820.465	6677
820.605	6623
820.746	6662
820.886	6525
821.026	6665
821.167	6738
821.307	6783
821.447	6753
821.588	6669
821.728	6570
821.868	6517
822.008	6350
822.149	6350
822.289	6357
822.429	6167
822.569	6045
822.709	6129
822.849	5935
822.99	5851
823.13	5927
823.27	5885
823.41	5798
823.55	5748
823.69	5752
823.83	5760
823.97	5733
824.11	5539
824.25	5482
824.389	5539
824.529	5558
824.669	5509
824.809	5657
824.949	5688
825.089	5619
825.228	5596
825.368	5421
825.508	5334
825.648	5296
825.787	5330
825.927	5330
826.067	5284
826.206	5299
826.346	5379
826.485	5391
826.625	5414
826.765	5573
826.904	5493
827.044	5212
827.183	5201
827.323	5094
827.462	5239
827.601	5166
827.741	5212
827.88	5212
828.02	5124
828.159	5220
828.298	5307
828.437	5345
828.577	5246
828.716	5436
828.855	5265
828.994	5170
829.134	5178
829.273	5197
829.412	5098
829.551	5155
829.69	5140
829.829	5201
829.968	5364
830.107	5227
830.246	5250
830.385	5151
830.524	5159
830.663	5014
830.802	4999
830.941	4915
831.08	4862
831.219	4976
831.357	4995
831.496	5105
831.635	4896
831.774	4866
831.913	4831
832.051	4668
832.19	4748
832.329	4793
832.467	4694
832.606	4637
832.744	4679
832.883	4740
833.022	4717
833.16	4752
833.299	4858
833.437	4843
833.576	4831
833.714	4835
833.852	4816
833.991	4839
834.129	4953
834.267	4938
834.406	4908
834.544	4949
834.682	4949
834.821	4953
834.959	5136
835.097	4965
835.235	5113
835.373	5048
835.511	5064
835.65	5060
835.788	5014
835.926	4885
836.064	4835
836.202	4896
836.34	5155
836.478	5220
836.615	5083
836.753	5220
836.891	5330
837.029	5231
837.167	5193
837.305	5181
837.443	5121
837.58	5094
837.718	5261
837.856	5159
837.993	5147
838.131	5269
838.269	5231
838.406	5204
838.544	5140
838.681	5018
838.819	5048
838.956	4881
839.094	4847
839.231	4946
839.369	5124
839.506	5444
839.643	5261
839.781	5143
839.918	5006
840.055	5075
840.193	5132
840.33	5071
840.467	5143
840.604	5223
840.742	5474
840.879	5159
841.016	5121
841.153	5170
841.29	5395
841.427	5360
841.564	5345
841.701	5383
841.838	5357
841.975	5277
842.112	5292
842.249	5178
842.385	5166
842.522	5444
842.659	5197
842.796	5208
842.933	5235
843.069	5220
843.206	5201
843.343	5341
843.479	5250
843.616	5326
843.752	5083
843.889	5105
844.025	5280
844.162	5098
844.298	5254
844.435	5102
844.571	5067
844.708	5246
844.844	5315
844.98	5425
845.117	5368
845.253	5197
845.389	5128
845.525	5181
845.661	5212
845.798	5014
845.934	5193
846.07	5075
846.206	5197
846.342	5299
846.478	5254
846.614	5086
846.75	4965
846.886	4984
847.022	5189
847.158	5071
847.294	5117
847.429	5121
847.565	5102
847.701	5299
847.837	4915
847.972	4793
848.108	4957
848.244	4942
848.379	4824
848.515	4824
848.65	4763
848.786	4805
848.921	4831
849.057	4915
849.192	4900
849.328	4835
849.463	4866
849.598	4801
849.734	4820
849.869	4736
850.004	4645
850.14	4736
850.275	4653
850.41	4565
850.545	4622
850.68	4660
850.815	4683
850.95	4656
851.085	4847
851.22	4797
851.355	4752
851.49	4641
851.625	4653
851.76	4683
851.895	4622
852.03	4558
852.165	4637
852.299	4752
852.434	4847
852.569	4740
852.703	4774
852.838	4873
852.973	4927
853.107	4934
853.242	4752
853.376	4664
853.511	4573
853.645	4664
853.78	4793
853.914	4721
854.048	4710
854.183	4660
854.317	4752
854.451	4866
854.585	4664
854.72	4615
854.854	4816
854.988	4653
855.122	4626
855.256	4565
855.39	4687
855.524	4755
855.658	4736
855.792	4767
855.926	4714
856.06	4790
856.194	4831
856.327	4706
856.461	4649
856.595	4634
856.729	4656
856.862	4805
856.996	4744
857.13	4771
857.263	4782
857.397	4862
857.53	4668
857.664	4748
857.797	4771
857.931	4820
858.064	4744
858.197	4782
858.331	4679
858.464	4615
858.597	4497
858.731	4656
858.864	4653
858.997	4596
859.13	4694
859.263	4740
859.396	4744
859.529	4660
859.662	4630
859.795	4550
859.928	4634
860.061	4786
860.194	4801
860.327	4664
860.46	4584
860.592	4702
860.725	4744
860.858	4755
860.99	4626
861.123	4550
861.256	4565
861.388	4618
861.521	5258
861.653	4527
861.786	4459
861.918	4561
862.05	4554
862.183	4592
862.315	4675
862.447	4649
862.58	4580
862.712	4436
862.844	4379
862.976	4542
863.108	4500
863.24	4915
863.372	4398
863.504	4424
863.636	4402
863.768	4535
863.9	4485
864.032	4371
864.164	4485
864.296	4500
864.428	4622
864.559	4584
864.691	4554
864.823	4607
864.954	4489
865.086	4531
865.217	4485
865.349	4478
865.48	4504
865.612	4500
865.743	4675
865.875	4481
866.006	4417
866.137	4497
866.269	4504
866.4	4489
866.531	4417
866.662	4451
866.793	4409
866.924	4386
867.055	4516
867.186	4451
867.317	4481
867.448	4428
867.579	4424
867.71	4428
867.841	4413
867.972	4478
868.103	4500
868.233	4459
868.364	4485
868.495	4481
868.625	4672
868.756	4710
868.886	4554
869.017	4630
869.147	4786
869.278	4831
869.408	4675
869.539	4675
869.669	4759
869.799	4626
869.929	4782
870.06	4744
870.19	4923
870.32	4949
870.45	4984
870.58	5048
870.71	5140
870.84	5136
870.97	4957
871.1	4942
871.23	5147
871.36	5185
871.489	5025
871.619	5086
871.749	5124
871.879	5071
872.008	5178
872.138	5090
872.267	4987
872.397	4858
872.526	4816
872.656	4752
872.785	4866
872.915	4938
873.044	5056
873.173	4957
873.303	5003
873.432	4987
873.561	4968
873.69	4930
873.819	4896
873.948	4896
874.077	4862
874.206	4797
874.335	4873
874.464	4949
874.593	5117
874.722	4972
874.851	5162
874.979	5079
875.108	5025
875.237	4923
875.365	4881
875.494	4889
875.623	4980
875.751	4866
875.88	4927
876.008	5025
876.136	5079
876.265	5273
876.393	5406
876.521	5288
876.65	5220
876.778	5170
876.906	5109
877.034	4999
877.162	5060
877.29	4976
877.418	5041
877.546	5041
877.674	5102
877.802	5052
877.93	5064
878.058	4965
878.185	4889
878.313	4999
878.441	4995
878.568	4824
878.696	4915
878.824	4961
878.951	5006
879.079	5136
879.206	5288
879.333	5117
879.461	4980
879.588	5079
879.715	5159
879.842	5258
879.97	5029
880.097	4809
880.224	4809
880.351	4824
880.478	4793
880.605	4816
880.732	4835
880.859	5071
880.986	4915
881.112	4919
881.239	4843
881.366	4706
881.493	4611
881.619	4641
881.746	4698
881.872	4687
881.999	4672
882.125	4679
882.252	4862
882.378	4812
882.505	5014
882.631	4816
882.757	4675
882.883	4774
883.01	4702
883.136	4717
883.262	4622
883.388	4630
883.514	4885
883.64	4892
883.766	4778
883.892	4634
884.018	4740
884.143	4866
884.269	5037
884.395	4679
884.52	4637
884.646	4706
884.772	4584
884.897	4588
885.023	4698
885.148	4771
885.274	4900
885.399	4824
885.524	4736
885.65	4717
885.775	4786
885.9	4691
886.025	4862
886.15	4809
886.275	4706
886.4	4615
886.525	4774
886.65	4664
886.775	4744
886.9	4938
887.025	5056
887.149	4847
887.274	4656
887.399	4550
887.523	4584
887.648	4626
887.773	4596
887.897	4774
888.021	4801
888.146	4706
888.27	4816
888.395	4930
888.519	4824
888.643	4824
888.767	4839
888.891	4744
889.015	4622
889.139	4679
889.263	4596
889.387	4748
889.511	4877
889.635	4805
889.759	4649
889.883	4626
890.006	4721
890.13	4839
890.254	4664
890.377	4702
890.501	4580
890.624	4519
890.748	4641
890.871	4527
890.995	4443
891.118	4436
891.241	4523
891.364	4558
891.488	4664
891.611	4527
891.734	4527
891.857	4607
891.98	4596
892.103	4660
892.226	4649
892.349	4588
892.471	4421
892.594	4573
892.717	4584
892.839	4588
892.962	4546
893.085	4645
893.207	4611
893.33	4466
893.452	4569
893.575	4664
893.697	4535
893.819	4755
893.941	4809
894.064	4774
894.186	4569
894.308	4611
894.43	4675
894.552	4820
894.674	4786
894.796	4588
894.918	4622
895.04	4565
895.161	4790
895.283	4717
895.405	4622
895.526	4656
895.648	4694
895.769	4706
895.891	4736
896.012	4771
896.134	4744
896.255	4717
896.376	4683
896.498	4584
896.619	4721
896.74	4630
896.861	4698
896.982	4934
897.103	5124
897.224	4831
897.345	4748
897.466	4687
897.587	4763
897.708	4873
897.828	4782
897.949	4714
898.07	4607
898.19	4683
898.311	4850
898.431	4649
898.552	4736
898.672	4812
898.792	4790
898.913	4702
899.033	4634
899.153	4527
899.273	4455
899.393	4497
899.513	4538
899.633	4569
899.753	4584
899.873	4474
899.993	4607
900.113	4580
900.232	4565
900.352	4558
900.472	4481
900.591	4432
900.711	4504
900.83	4478
900.95	4577
901.069	4672
901.189	4546
901.308	4413
901.427	4299
901.546	4356
901.665	4489
901.784	4558
901.904	4360
902.023	4386
902.141	4207
902.26	4200
902.379	4303
902.498	4230
902.617	4261
902.735	4424
902.854	4413
902.973	4348
903.091	4215
903.21	4181
903.328	4344
903.446	4276
903.565	4272
903.683	4360
903.801	4310
903.919	4413
904.038	4462
904.156	4329
904.274	4466
904.392	4405
904.51	4455
904.627	4485
904.745	4577
904.863	4634
904.981	4402
905.098	4272
905.216	4375
905.334	4428
905.451	4470
905.569	4398
905.686	4554
905.803	4584
905.921	4424
906.038	4565
906.155	4516
906.272	4443
906.389	4421
906.506	4371
906.623	4333
906.74	4428
906.857	4299
906.974	4367
907.091	4531
907.208	4691
907.324	4603
907.441	4512
907.557	4363
907.674	4383
907.79	4306
907.907	4356
908.023	4527
908.139	4489
908.256	4462
908.372	4451
908.488	4455
908.604	4363
908.72	4325
908.836	4394
908.952	4394
909.068	4428
909.184	4512
909.3	4478
909.415	4603
909.531	4538
909.647	4363
909.762	4386
909.878	4367
909.993	4413
910.108	4367
910.224	4413
910.339	4508
910.454	4436
910.57	4379
910.685	4352
910.8	4656
910.915	4603
911.03	4508
911.145	4344
911.259	4352
911.374	4375
911.489	4295
911.604	4314
911.718	4238
911.833	4173
911.947	4093
912.062	4040
912.176	4253
912.291	4246
912.405	4295
912.519	4508
912.633	4538
912.748	4375
912.862	4390
912.976	4276
913.09	4207
913.204	4188
913.318	4272
913.431	4405
913.545	4386
913.659	4489
913.772	4363
913.886	4253
914	4276
914.113	4356
914.226	4470
914.34	4436
914.453	4287
914.566	4455
914.68	4348
914.793	4348
914.906	4211
915.019	4150
915.132	4131
915.245	4249
915.358	4268
915.47	4272
915.583	4314
915.696	4356
915.809	4383
915.921	4474
916.034	4287
916.146	4303
916.259	4303
916.371	4417
916.483	4440
916.595	4318
916.708	4356
916.82	4360
916.932	4352
917.044	4371
917.156	4333
917.268	4234
917.38	4371
917.491	4272
917.603	4371
917.715	4523
917.826	4504
917.938	4394
918.049	4322
918.161	4443
918.272	4558
918.384	4618
918.495	4497
918.606	4383
918.717	4261
918.828	4390
918.939	4405
919.05	4295
919.161	4341
919.272	4181
919.383	4284
919.494	4489
919.604	4626
919.715	4451
919.826	4356
919.936	4455
920.047	4527
920.157	4516
920.267	4729
920.378	4596
920.488	4512
920.598	4763
920.708	4873
920.818	4767
920.928	4809
921.038	5025
921.148	4976
921.258	4691
921.368	4634
921.477	4577
921.587	4504
921.697	4409
921.806	4588
921.916	4443
922.025	4352
922.134	4348
922.244	4287
922.353	4352
922.462	4234
922.571	4154
922.68	4097
922.789	4021
922.898	4093
923.007	4036
923.116	4131
923.224	4036
923.333	4116
923.442	4010
923.55	3991
923.659	4086
923.767	4181
923.876	4044
923.984	4154
924.092	4032
924.201	4181
924.309	4128
924.417	4181
924.525	4059
924.633	4116
924.741	5094
924.849	3941
924.956	4147
925.064	4006
925.172	3903
925.279	4017
925.387	4128
925.494	4128
925.602	4207
925.709	4211
925.816	4093
925.924	4200
926.031	4310
926.138	4185
926.245	4261
926.352	4162
926.459	4242
926.566	4295
926.673	4200
926.779	4093
926.886	4105
926.993	4044
927.099	3975
927.206	3979
927.312	3953
927.419	4101
927.525	4093
927.631	4128
927.737	4002
927.843	3991
927.95	3842
928.056	3979
928.162	4025
928.267	4105
928.373	4721
928.479	4128
928.585	3873
928.69	4036
928.796	4112
928.901	3987
929.007	3865
929.112	4021
929.218	4029
929.323	3953
929.428	3987
929.533	4162
929.638	3934
929.743	3975
929.848	4093
929.953	4029
930.058	3979
930.163	3846
930.267	3865
930.372	3994
930.477	3835
930.581	4158
930.685	3987
930.79	3838
930.894	3949
930.998	3930
931.103	4086
931.207	3759
931.311	3720
931.415	3709
931.519	3576
931.623	3534
