Data from test_V78500241_2279.txt Node
Date: Fri Mar 25 17:04:50 CST 2022
User: usil
Spectrometer: V785-0024
Trigger mode: 0
Integration Time (sec): 4.000000E-1
Scans to average: 1
Nonlinearity correction enabled: false
Boxcar width: 0
Storing dark spectrum: false
XAxis mode: Wavelengths
Number of Pixels in Spectrum: 1024
>>>>>Begin Spectral Data<<<<<
801.071	8020
801.214	7963
801.356	7849
801.499	7871
801.641	7761
801.783	7818
801.926	8031
802.068	7940
802.211	8027
802.353	8031
802.496	7879
802.638	7833
802.78	7906
802.923	7959
803.065	7887
803.208	7841
803.35	7978
803.492	8088
803.635	8126
803.777	8065
803.919	8157
804.061	8450
804.204	8214
804.346	8103
804.488	7970
804.63	8092
804.773	8043
804.915	8123
805.057	8275
805.199	8157
805.341	8214
805.483	8320
805.626	8229
805.768	8145
805.91	8123
806.052	8187
806.194	8161
806.336	8305
806.478	8107
806.62	8058
806.762	8233
806.904	8290
807.046	8492
807.188	8301
807.33	8415
807.472	8351
807.614	8142
807.756	8180
807.898	7993
808.04	7917
808.182	7898
808.324	7917
808.465	7898
808.607	8058
808.749	8107
808.891	8263
809.033	8275
809.174	8233
809.316	8119
809.458	8043
809.6	7967
809.741	8046
809.883	8054
810.025	8088
810.166	8077
810.308	8058
810.45	8050
810.591	7894
810.733	7769
810.875	7700
811.016	7533
811.158	7483
811.299	7540
811.441	7738
811.582	7670
811.724	7575
811.865	7571
812.007	7609
812.148	7575
812.29	7590
812.431	7746
812.573	7856
812.714	8001
812.855	8229
812.997	8157
813.138	8271
813.279	8164
813.421	8130
813.562	7978
813.703	7860
813.845	7780
813.986	7464
814.127	7244
814.268	7232
814.41	7137
814.551	7149
814.692	7240
814.833	7088
814.974	7091
815.115	7149
815.256	6924
815.397	6928
815.539	6958
815.68	6852
815.821	6840
815.962	6810
816.103	6753
816.244	6707
816.385	6654
816.526	6601
816.666	6521
816.807	6262
816.948	6498
817.089	6490
817.23	6422
817.371	6429
817.512	6441
817.653	6403
817.793	6311
817.934	6407
818.075	6502
818.216	6433
818.356	6429
818.497	6281
818.638	6133
818.778	6152
818.919	6197
819.06	6159
819.2	6281
819.341	6380
819.481	6353
819.622	6494
819.762	6738
819.903	6696
820.043	6677
820.184	6563
820.324	6597
820.465	6700
820.605	6707
820.746	6639
820.886	6582
821.026	6757
821.167	6741
821.307	6802
821.447	6783
821.588	6715
821.728	6578
821.868	6494
822.008	6315
822.149	6357
822.289	6380
822.429	6182
822.569	6121
822.709	6167
822.849	5939
822.99	5908
823.13	5950
823.27	5912
823.41	5844
823.55	5764
823.69	5786
823.83	5775
823.97	5703
824.11	5585
824.25	5486
824.389	5585
824.529	5573
824.669	5535
824.809	5604
824.949	5676
825.089	5577
825.228	5554
825.368	5379
825.508	5376
825.648	5368
825.787	5421
825.927	5429
826.067	5345
826.206	5307
826.346	5326
826.485	5478
826.625	5414
826.765	5509
826.904	5463
827.044	5258
827.183	5242
827.323	5124
827.462	5223
827.601	5155
827.741	5170
827.88	5181
828.02	5117
828.159	5258
828.298	5307
828.437	5391
828.577	5280
828.716	5482
828.855	5337
828.994	5185
829.134	5170
829.273	5216
829.412	5143
829.551	5140
829.69	5170
829.829	5288
829.968	5341
830.107	5239
830.246	5326
830.385	5201
830.524	5143
830.663	5041
830.802	4976
830.941	4877
831.08	4850
831.219	5018
831.357	5018
831.496	5166
831.635	4968
831.774	4862
831.913	4850
832.051	4748
832.19	4744
832.329	4889
832.467	4733
832.606	4641
832.744	4706
832.883	4710
833.022	4706
833.16	4812
833.299	4911
833.437	4809
833.576	4809
833.714	4877
833.852	4847
833.991	4949
834.129	4949
834.267	4984
834.406	4934
834.544	4968
834.682	4980
834.821	4934
834.959	5193
835.097	4999
835.235	5151
835.373	5083
835.511	5117
835.65	5003
835.788	5010
835.926	4908
836.064	4904
836.202	4885
836.34	5162
836.478	5223
836.615	5166
836.753	5250
836.891	5292
837.029	5246
837.167	5242
837.305	5170
837.443	5147
837.58	5045
837.718	5334
837.856	5197
837.993	5208
838.131	5208
838.269	5223
838.406	5204
838.544	5189
838.681	5048
838.819	5067
838.956	4923
839.094	4915
839.231	4961
839.369	5086
839.506	5448
839.643	5239
839.781	5083
839.918	4987
840.055	5075
840.193	5098
840.33	5113
840.467	5098
840.604	5185
840.742	5417
840.879	5052
841.016	5079
841.153	5128
841.29	5383
841.427	5330
841.564	5296
841.701	5334
841.838	5292
841.975	5265
842.112	5292
842.249	5105
842.385	5090
842.522	5296
842.659	5208
842.796	5147
842.933	5212
843.069	5121
843.206	5174
843.343	5326
843.479	5185
843.616	5246
843.752	5041
843.889	5014
844.025	5227
844.162	5006
844.298	5231
844.435	5090
844.571	5048
844.708	5143
844.844	5307
844.98	5307
845.117	5261
845.253	5155
845.389	5102
845.525	5170
845.661	5136
845.798	5022
845.934	5132
846.07	5079
846.206	5193
846.342	5227
846.478	5151
846.614	5048
846.75	4984
846.886	4976
847.022	5143
847.158	5018
847.294	5079
847.429	5098
847.565	5060
847.701	5315
847.837	4885
847.972	4820
848.108	4995
848.244	4949
848.379	4786
848.515	4736
848.65	4744
848.786	4733
848.921	4786
849.057	4889
849.192	4877
849.328	4801
849.463	4824
849.598	4763
849.734	4793
849.869	4706
850.004	4649
850.14	4675
850.275	4630
850.41	4565
850.545	4588
850.68	4577
850.815	4615
850.95	4618
851.085	4809
851.22	4782
851.355	4672
851.49	4653
851.625	4626
851.76	4611
851.895	4577
852.03	4546
852.165	4626
852.299	4702
852.434	4809
852.569	4733
852.703	4782
852.838	4873
852.973	4908
853.107	4889
853.242	4721
853.376	4660
853.511	4558
853.645	4596
853.78	4782
853.914	4733
854.048	4626
854.183	4725
854.317	4710
854.451	4809
854.585	4687
854.72	4630
854.854	4721
854.988	4649
855.122	4656
855.256	4565
855.39	4672
855.524	4702
855.658	4702
855.792	4702
855.926	4717
856.06	4816
856.194	4793
856.327	4691
856.461	4615
856.595	4569
856.729	4622
856.862	4786
856.996	4672
857.13	4774
857.263	4774
857.397	4752
857.53	4656
857.664	4679
857.797	4782
857.931	4805
858.064	4702
858.197	4736
858.331	4656
858.464	4630
858.597	4508
858.731	4656
858.864	4584
858.997	4588
859.13	4660
859.263	4687
859.396	4675
859.529	4561
859.662	4538
859.795	4569
859.928	4630
860.061	4759
860.194	4797
860.327	4607
860.46	4588
860.592	4767
860.725	4668
860.858	4721
860.99	4573
861.123	4538
861.256	4500
861.388	4580
861.521	5254
861.653	4500
861.786	4462
861.918	4455
862.05	4531
862.183	4573
862.315	4584
862.447	4626
862.58	4531
862.712	4409
862.844	4322
862.976	4481
863.108	4489
863.24	4896
863.372	4348
863.504	4413
863.636	4455
863.768	4478
863.9	4451
864.032	4421
864.164	4428
864.296	4451
864.428	4565
864.559	4535
864.691	4504
864.823	4500
864.954	4481
865.086	4527
865.217	4417
865.349	4432
865.48	4466
865.612	4493
865.743	4630
865.875	4466
866.006	4447
866.137	4474
866.269	4443
866.4	4417
866.531	4440
866.662	4417
866.793	4405
866.924	4436
867.055	4474
867.186	4440
867.317	4386
867.448	4367
867.579	4409
867.71	4432
867.841	4344
867.972	4470
868.103	4459
868.233	4436
868.364	4443
868.495	4466
868.625	4637
868.756	4793
868.886	4561
869.017	4637
869.147	4790
869.278	4759
869.408	4649
869.539	4664
869.669	4702
869.799	4649
869.929	4736
870.06	4748
870.19	4991
870.32	4889
870.45	4923
870.58	5006
870.71	5094
870.84	5071
870.97	4938
871.1	4896
871.23	5113
871.36	5132
871.489	4961
871.619	5071
871.749	5083
871.879	5128
872.008	5193
872.138	5033
872.267	5003
872.397	4824
872.526	4801
872.656	4714
872.785	4812
872.915	4946
873.044	5010
873.173	4965
873.303	5025
873.432	4961
873.561	4972
873.69	4904
873.819	4839
873.948	4927
874.077	4812
874.206	4759
874.335	4801
874.464	4946
874.593	5033
874.722	4915
874.851	5075
874.979	5041
875.108	5022
875.237	4900
875.365	4881
875.494	4904
875.623	4961
875.751	4824
875.88	4946
876.008	4965
876.136	5018
876.265	5155
876.393	5349
876.521	5235
876.65	5239
876.778	5178
876.906	5083
877.034	5045
877.162	4995
877.29	5014
877.418	5037
877.546	4972
877.674	5048
877.802	4999
877.93	4999
878.058	4961
878.185	4881
878.313	4949
878.441	4953
878.568	4805
878.696	4824
878.824	4949
878.951	5052
879.079	5124
879.206	5258
879.333	5064
879.461	4976
879.588	4995
879.715	5140
879.842	5197
879.97	5006
880.097	4774
880.224	4717
880.351	4786
880.478	4828
880.605	4786
880.732	4755
880.859	5083
880.986	4858
881.112	4885
881.239	4790
881.366	4679
881.493	4653
881.619	4516
881.746	4622
881.872	4634
881.999	4622
882.125	4672
882.252	4774
882.378	4835
882.505	4984
882.631	4752
882.757	4668
882.883	4729
883.01	4706
883.136	4653
883.262	4641
883.388	4592
883.514	4812
883.64	4816
883.766	4782
883.892	4744
884.018	4698
884.143	4900
884.269	4976
884.395	4656
884.52	4645
884.646	4664
884.772	4588
884.897	4573
885.023	4645
885.148	4767
885.274	4862
885.399	4805
885.524	4729
885.65	4706
885.775	4733
885.9	4706
886.025	4847
886.15	4828
886.275	4725
886.4	4710
886.525	4694
886.65	4653
886.775	4679
886.9	4923
887.025	4984
887.149	4816
887.274	4660
887.399	4599
887.523	4592
887.648	4573
887.773	4584
887.897	4714
888.021	4816
888.146	4736
888.27	4805
888.395	4877
888.519	4782
888.643	4820
888.767	4790
888.891	4653
889.015	4626
889.139	4622
889.263	4630
889.387	4767
889.511	4816
889.635	4782
889.759	4634
889.883	4645
890.006	4702
890.13	4816
890.254	4584
890.377	4653
890.501	4538
890.624	4535
890.748	4634
890.871	4523
890.995	4398
891.118	4409
891.241	4519
891.364	4542
891.488	4656
891.611	4531
891.734	4523
891.857	4618
891.98	4599
892.103	4630
892.226	4569
892.349	4497
892.471	4436
892.594	4531
892.717	4577
892.839	4535
892.962	4538
893.085	4668
893.207	4660
893.33	4432
893.452	4500
893.575	4691
893.697	4599
893.819	4763
893.941	4824
894.064	4790
894.186	4561
894.308	4546
894.43	4687
894.552	4805
894.674	4717
894.796	4599
894.918	4588
895.04	4603
895.161	4721
895.283	4634
895.405	4603
895.526	4615
895.648	4664
895.769	4687
895.891	4664
896.012	4790
896.134	4672
896.255	4683
896.376	4679
896.498	4615
896.619	4626
896.74	4580
896.861	4634
896.982	4930
897.103	5075
897.224	4809
897.345	4816
897.466	4702
897.587	4729
897.708	4870
897.828	4759
897.949	4668
898.07	4607
898.19	4588
898.311	4831
898.431	4672
898.552	4774
898.672	4820
898.792	4812
898.913	4694
899.033	4630
899.153	4508
899.273	4371
899.393	4485
899.513	4512
899.633	4516
899.753	4531
899.873	4512
899.993	4554
900.113	4523
900.232	4538
900.352	4577
900.472	4504
900.591	4409
900.711	4512
900.83	4451
900.95	4577
901.069	4702
901.189	4519
901.308	4344
901.427	4291
901.546	4413
901.665	4459
901.784	4558
901.904	4383
902.023	4310
902.141	4181
902.26	4147
902.379	4306
902.498	4227
902.617	4211
902.735	4352
902.854	4394
902.973	4325
903.091	4185
903.21	4227
903.328	4230
903.446	4265
903.565	4261
903.683	4341
903.801	4295
903.919	4398
904.038	4390
904.156	4333
904.274	4447
904.392	4424
904.51	4462
904.627	4466
904.745	4603
904.863	4634
904.981	4386
905.098	4303
905.216	4314
905.334	4424
905.451	4421
905.569	4451
905.686	4531
905.803	4603
905.921	4390
906.038	4558
906.155	4440
906.272	4417
906.389	4455
906.506	4318
906.623	4348
906.74	4375
906.857	4291
906.974	4344
907.091	4592
907.208	4599
907.324	4538
907.441	4508
907.557	4337
907.674	4363
907.79	4314
907.907	4318
908.023	4478
908.139	4421
908.256	4390
908.372	4500
908.488	4417
908.604	4306
908.72	4310
908.836	4310
908.952	4356
909.068	4462
909.184	4558
909.3	4474
909.415	4607
909.531	4550
909.647	4352
909.762	4379
909.878	4284
909.993	4402
910.108	4386
910.224	4417
910.339	4455
910.454	4436
910.57	4344
910.685	4287
910.8	4645
910.915	4588
911.03	4451
911.145	4306
911.259	4291
911.374	4325
911.489	4284
911.604	4238
911.718	4128
911.833	4196
911.947	4055
912.062	4002
912.176	4215
912.291	4227
912.405	4249
912.519	4459
912.633	4523
912.748	4363
912.862	4329
912.976	4154
913.09	4074
913.204	4204
913.318	4246
913.431	4367
913.545	4390
913.659	4421
913.772	4390
913.886	4234
914	4207
914.113	4375
914.226	4409
914.34	4356
914.453	4211
914.566	4424
914.68	4322
914.793	4287
914.906	4131
915.019	4135
915.132	4051
915.245	4143
915.358	4215
915.47	4223
915.583	4329
915.696	4306
915.809	4432
915.921	4421
916.034	4230
916.146	4204
916.259	4249
916.371	4360
916.483	4375
916.595	4291
916.708	4337
916.82	4337
916.932	4325
917.044	4291
917.156	4329
917.268	4234
917.38	4272
917.491	4276
917.603	4394
917.715	4394
917.826	4440
917.938	4333
918.049	4253
918.161	4440
918.272	4493
918.384	4538
918.495	4436
918.606	4272
918.717	4257
918.828	4344
918.939	4348
919.05	4303
919.161	4360
919.272	4147
919.383	4204
919.494	4443
919.604	4618
919.715	4440
919.826	4356
919.936	4379
920.047	4558
920.157	4432
920.267	4687
920.378	4546
920.488	4493
920.598	4694
920.708	4911
920.818	4744
920.928	4778
921.038	4946
921.148	4892
921.258	4637
921.368	4493
921.477	4489
921.587	4386
921.697	4428
921.806	4527
921.916	4436
922.025	4246
922.134	4276
922.244	4215
922.353	4348
922.462	4181
922.571	4169
922.68	4032
922.789	3991
922.898	4032
923.007	4006
923.116	4116
923.224	4044
923.333	4105
923.442	3998
923.55	3964
923.659	4013
923.767	4082
923.876	4010
923.984	4131
924.092	4010
924.201	4124
924.309	4082
924.417	4135
924.525	4071
924.633	4116
924.741	5079
924.849	3899
924.956	4154
925.064	3922
925.172	3930
925.279	3949
925.387	4055
925.494	4036
925.602	4219
925.709	4188
925.816	4082
925.924	4131
926.031	4238
926.138	4147
926.245	4207
926.352	4112
926.459	4234
926.566	4318
926.673	4150
926.779	4093
926.886	4097
926.993	3979
927.099	3979
927.206	3945
927.312	3903
927.419	4029
927.525	3994
927.631	4093
927.737	3991
927.843	3918
927.95	3857
928.056	3964
928.162	4021
928.267	4067
928.373	4634
928.479	4112
928.585	3857
928.69	3983
928.796	4101
928.901	3960
929.007	3838
929.112	3987
929.218	4010
929.323	3934
929.428	3930
929.533	4112
929.638	3907
929.743	3949
929.848	4048
929.953	4040
930.058	3930
930.163	3778
930.267	3842
930.372	3975
930.477	3831
930.581	4093
930.685	3964
930.79	3823
930.894	3892
930.998	3869
931.103	4051
931.207	3728
931.311	3671
931.415	3648
931.519	3458
931.623	3549
