Data from test_V78500241_2314.txt Node
Date: Fri Mar 25 17:05:05 CST 2022
User: usil
Spectrometer: V785-0024
Trigger mode: 0
Integration Time (sec): 4.000000E-1
Scans to average: 1
Nonlinearity correction enabled: false
Boxcar width: 0
Storing dark spectrum: false
XAxis mode: Wavelengths
Number of Pixels in Spectrum: 1024
>>>>>Begin Spectral Data<<<<<
801.071	8027
801.214	8065
801.356	7902
801.499	7898
801.641	7792
801.783	7852
801.926	8005
802.068	7978
802.211	7982
802.353	8035
802.496	7902
802.638	7898
802.78	7925
802.923	7974
803.065	7887
803.208	7871
803.35	8035
803.492	8103
803.635	8176
803.777	8012
803.919	8115
804.061	8476
804.204	8164
804.346	8138
804.488	8035
804.63	8157
804.773	8008
804.915	8054
805.057	8294
805.199	8145
805.341	8225
805.483	8206
805.626	8202
805.768	8183
805.91	8282
806.052	8294
806.194	8145
806.336	8336
806.478	8126
806.62	8035
806.762	8145
806.904	8271
807.046	8526
807.188	8374
807.33	8347
807.472	8385
807.614	8145
807.756	8138
807.898	8103
808.04	7856
808.182	7951
808.324	7944
808.465	7887
808.607	8058
808.749	8054
808.891	8229
809.033	8389
809.174	8206
809.316	8123
809.458	8081
809.6	8069
809.741	8027
809.883	8024
810.025	8130
810.166	8081
810.308	7978
810.45	8046
810.591	7875
810.733	7761
810.875	7666
811.016	7483
811.158	7396
811.299	7514
811.441	7712
811.582	7734
811.724	7636
811.865	7590
812.007	7582
812.148	7655
812.29	7662
812.431	7750
812.573	7894
812.714	8058
812.855	8142
812.997	8263
813.138	8282
813.279	8157
813.421	8145
813.562	8001
813.703	7868
813.845	7734
813.986	7472
814.127	7255
814.268	7247
814.41	7259
814.551	7217
814.692	7247
814.833	7156
814.974	7107
815.115	7099
815.256	7076
815.397	6882
815.539	6996
815.68	6833
815.821	6730
815.962	6932
816.103	6825
816.244	6700
816.385	6627
816.526	6612
816.666	6517
816.807	6300
816.948	6528
817.089	6456
817.23	6486
817.371	6448
817.512	6441
817.653	6369
817.793	6429
817.934	6418
818.075	6475
818.216	6452
818.356	6437
818.497	6323
818.638	6155
818.778	6144
818.919	6167
819.06	6186
819.2	6308
819.341	6323
819.481	6418
819.622	6574
819.762	6753
819.903	6684
820.043	6692
820.184	6585
820.324	6574
820.465	6688
820.605	6696
820.746	6700
820.886	6490
821.026	6684
821.167	6749
821.307	6779
821.447	6757
821.588	6673
821.728	6612
821.868	6563
822.008	6353
822.149	6357
822.289	6369
822.429	6171
822.569	6091
822.709	6136
822.849	5939
822.99	5908
823.13	6003
823.27	5935
823.41	5908
823.55	5844
823.69	5714
823.83	5786
823.97	5699
824.11	5539
824.25	5535
824.389	5577
824.529	5573
824.669	5528
824.809	5646
824.949	5619
825.089	5619
825.228	5532
825.368	5421
825.508	5395
825.648	5353
825.787	5391
825.927	5414
826.067	5303
826.206	5307
826.346	5376
826.485	5395
826.625	5414
826.765	5543
826.904	5505
827.044	5239
827.183	5216
827.323	5181
827.462	5242
827.601	5166
827.741	5155
827.88	5227
828.02	5098
828.159	5201
828.298	5330
828.437	5334
828.577	5307
828.716	5463
828.855	5307
828.994	5170
829.134	5174
829.273	5204
829.412	5121
829.551	5128
829.69	5162
829.829	5261
829.968	5444
830.107	5277
830.246	5277
830.385	5197
830.524	5197
830.663	5079
830.802	5018
830.941	4919
831.08	4862
831.219	4991
831.357	4995
831.496	5170
831.635	4938
831.774	4835
831.913	4831
832.051	4736
832.19	4744
832.329	4854
832.467	4668
832.606	4683
832.744	4740
832.883	4714
833.022	4748
833.16	4797
833.299	4812
833.437	4877
833.576	4854
833.714	4858
833.852	4847
833.991	4885
834.129	4953
834.267	4942
834.406	4972
834.544	4991
834.682	4980
834.821	4934
834.959	5159
835.097	5006
835.235	5208
835.373	5071
835.511	5132
835.65	5010
835.788	5010
835.926	4919
836.064	4854
836.202	4961
836.34	5204
836.478	5128
836.615	5140
836.753	5227
836.891	5269
837.029	5280
837.167	5201
837.305	5136
837.443	5166
837.58	5113
837.718	5277
837.856	5212
837.993	5147
838.131	5201
838.269	5189
838.406	5178
838.544	5178
838.681	5064
838.819	4980
838.956	4889
839.094	4911
839.231	5029
839.369	5109
839.506	5402
839.643	5277
839.781	5045
839.918	5025
840.055	5067
840.193	5098
840.33	5037
840.467	5136
840.604	5174
840.742	5478
840.879	5052
841.016	5121
841.153	5147
841.29	5368
841.427	5345
841.564	5315
841.701	5372
841.838	5292
841.975	5193
842.112	5269
842.249	5155
842.385	5109
842.522	5299
842.659	5178
842.796	5105
842.933	5223
843.069	5189
843.206	5147
843.343	5242
843.479	5242
843.616	5242
843.752	5037
843.889	5010
844.025	5178
844.162	5067
844.298	5261
844.435	5102
844.571	5045
844.708	5227
844.844	5254
844.98	5318
845.117	5273
845.253	5159
845.389	5048
845.525	5147
845.661	5136
845.798	5056
845.934	5090
846.07	5048
846.206	5193
846.342	5318
846.478	5170
846.614	5014
846.75	4949
846.886	4946
847.022	5151
847.158	4968
847.294	5045
847.429	5136
847.565	5064
847.701	5299
847.837	4850
847.972	4866
848.108	4957
848.244	4965
848.379	4805
848.515	4733
848.65	4729
848.786	4733
848.921	4793
849.057	4896
849.192	4930
849.328	4854
849.463	4801
849.598	4763
849.734	4748
849.869	4679
850.004	4596
850.14	4672
850.275	4596
850.41	4558
850.545	4569
850.68	4599
850.815	4626
850.95	4637
851.085	4809
851.22	4729
851.355	4653
851.49	4637
851.625	4611
851.76	4645
851.895	4580
852.03	4588
852.165	4615
852.299	4744
852.434	4744
852.569	4721
852.703	4790
852.838	4824
852.973	4930
853.107	4923
853.242	4778
853.376	4698
853.511	4538
853.645	4603
853.78	4763
853.914	4717
854.048	4615
854.183	4653
854.317	4733
854.451	4881
854.585	4679
854.72	4641
854.854	4721
854.988	4550
855.122	4630
855.256	4554
855.39	4618
855.524	4820
855.658	4736
855.792	4729
855.926	4744
856.06	4767
856.194	4782
856.327	4664
856.461	4611
856.595	4615
856.729	4634
856.862	4721
856.996	4721
857.13	4736
857.263	4771
857.397	4782
857.53	4698
857.664	4736
857.797	4725
857.931	4790
858.064	4679
858.197	4755
858.331	4611
858.464	4580
858.597	4500
858.731	4649
858.864	4611
858.997	4596
859.13	4660
859.263	4706
859.396	4717
859.529	4573
859.662	4542
859.795	4523
859.928	4649
860.061	4786
860.194	4736
860.327	4611
860.46	4542
860.592	4721
860.725	4706
860.858	4721
860.99	4546
861.123	4535
861.256	4489
861.388	4569
861.521	5239
861.653	4474
861.786	4481
861.918	4466
862.05	4546
862.183	4565
862.315	4618
862.447	4649
862.58	4538
862.712	4390
862.844	4291
862.976	4440
863.108	4421
863.24	4881
863.372	4325
863.504	4417
863.636	4424
863.768	4451
863.9	4436
864.032	4314
864.164	4402
864.296	4489
864.428	4542
864.559	4519
864.691	4554
864.823	4500
864.954	4508
865.086	4538
865.217	4462
865.349	4390
865.48	4451
865.612	4504
865.743	4664
865.875	4478
866.006	4421
866.137	4436
866.269	4447
866.4	4413
866.531	4474
866.662	4383
866.793	4424
866.924	4447
867.055	4527
867.186	4485
867.317	4386
867.448	4379
867.579	4421
867.71	4409
867.841	4367
867.972	4451
868.103	4478
868.233	4432
868.364	4459
868.495	4485
868.625	4637
868.756	4805
868.886	4550
869.017	4626
869.147	4797
869.278	4759
869.408	4679
869.539	4714
869.669	4694
869.799	4653
869.929	4736
870.06	4733
870.19	4968
870.32	4904
870.45	4957
870.58	4980
870.71	5071
870.84	5113
870.97	4987
871.1	4858
871.23	5162
871.36	5113
871.489	4995
871.619	5079
871.749	5086
871.879	5121
872.008	5166
872.138	5041
872.267	4949
872.397	4854
872.526	4820
872.656	4740
872.785	4797
872.915	4957
873.044	5014
873.173	4953
873.303	4987
873.432	4957
873.561	4923
873.69	4824
873.819	4847
873.948	4930
874.077	4793
874.206	4771
874.335	4816
874.464	4904
874.593	5067
874.722	4949
874.851	5052
874.979	5094
875.108	5018
875.237	4889
875.365	4904
875.494	4927
875.623	4987
875.751	4854
875.88	4877
876.008	4953
876.136	5014
876.265	5151
876.393	5292
876.521	5246
876.65	5277
876.778	5155
876.906	5105
877.034	5025
877.162	5033
877.29	4991
877.418	5094
877.546	5060
877.674	5098
877.802	5079
877.93	5029
878.058	4946
878.185	4919
878.313	4965
878.441	5018
878.568	4801
878.696	4896
878.824	4927
878.951	5052
879.079	5140
879.206	5292
879.333	5109
879.461	4995
879.588	5006
879.715	5143
879.842	5277
879.97	4987
880.097	4858
880.224	4729
880.351	4809
880.478	4824
880.605	4835
880.732	4850
880.859	5124
880.986	4904
881.112	4904
881.239	4801
881.366	4664
881.493	4634
881.619	4554
881.746	4596
881.872	4634
881.999	4664
882.125	4687
882.252	4759
882.378	4782
882.505	5010
882.631	4820
882.757	4691
882.883	4721
883.01	4721
883.136	4717
883.262	4592
883.388	4611
883.514	4820
883.64	4885
883.766	4759
883.892	4675
884.018	4744
884.143	4908
884.269	4980
884.395	4702
884.52	4618
884.646	4660
884.772	4584
884.897	4569
885.023	4675
885.148	4774
885.274	4847
885.399	4797
885.524	4687
885.65	4706
885.775	4778
885.9	4675
886.025	4866
886.15	4835
886.275	4698
886.4	4675
886.525	4687
886.65	4664
886.775	4729
886.9	4885
887.025	5048
887.149	4839
887.274	4675
887.399	4599
887.523	4592
887.648	4573
887.773	4577
887.897	4759
888.021	4736
888.146	4634
888.27	4835
888.395	4896
888.519	4801
888.643	4763
888.767	4820
888.891	4683
889.015	4599
889.139	4672
889.263	4622
889.387	4763
889.511	4850
889.635	4786
889.759	4630
889.883	4668
890.006	4725
890.13	4790
890.254	4599
890.377	4645
890.501	4577
890.624	4527
890.748	4588
890.871	4485
890.995	4440
891.118	4375
891.241	4485
891.364	4538
891.488	4660
891.611	4508
891.734	4565
891.857	4653
891.98	4538
892.103	4634
892.226	4573
892.349	4516
892.471	4428
892.594	4546
892.717	4607
892.839	4531
892.962	4649
893.085	4691
893.207	4588
893.33	4402
893.452	4538
893.575	4675
893.697	4561
893.819	4797
893.941	4828
894.064	4763
894.186	4554
894.308	4569
894.43	4759
894.552	4809
894.674	4698
894.796	4550
894.918	4596
895.04	4554
895.161	4702
895.283	4641
895.405	4596
895.526	4649
895.648	4687
895.769	4660
895.891	4717
896.012	4717
896.134	4714
896.255	4691
896.376	4649
896.498	4634
896.619	4675
896.74	4596
896.861	4596
896.982	4870
897.103	5121
897.224	4919
897.345	4725
897.466	4622
897.587	4759
897.708	4835
897.828	4771
897.949	4660
898.07	4580
898.19	4618
898.311	4812
898.431	4672
898.552	4710
898.672	4866
898.792	4790
898.913	4721
899.033	4603
899.153	4512
899.273	4428
899.393	4481
899.513	4478
899.633	4512
899.753	4535
899.873	4470
899.993	4542
900.113	4500
900.232	4554
900.352	4592
900.472	4481
900.591	4409
900.711	4489
900.83	4443
900.95	4584
901.069	4714
901.189	4500
901.308	4329
901.427	4310
901.546	4371
901.665	4462
901.784	4493
901.904	4386
902.023	4341
902.141	4196
902.26	4181
902.379	4295
902.498	4246
902.617	4200
902.735	4375
902.854	4398
902.973	4375
903.091	4215
903.21	4196
903.328	4249
903.446	4268
903.565	4253
903.683	4379
903.801	4314
903.919	4379
904.038	4432
904.156	4348
904.274	4432
904.392	4405
904.51	4417
904.627	4478
904.745	4573
904.863	4615
904.981	4417
905.098	4276
905.216	4398
905.334	4455
905.451	4421
905.569	4440
905.686	4622
905.803	4558
905.921	4394
906.038	4550
906.155	4436
906.272	4390
906.389	4459
906.506	4337
906.623	4344
906.74	4402
906.857	4310
906.974	4390
907.091	4569
907.208	4679
907.324	4599
907.441	4500
907.557	4341
907.674	4337
907.79	4329
907.907	4428
908.023	4436
908.139	4432
908.256	4417
908.372	4481
908.488	4413
908.604	4333
908.72	4306
908.836	4363
908.952	4352
909.068	4443
909.184	4626
909.3	4481
909.415	4573
909.531	4546
909.647	4383
909.762	4341
909.878	4333
909.993	4405
910.108	4390
910.224	4405
910.339	4481
910.454	4375
910.57	4383
910.685	4329
910.8	4618
910.915	4588
911.03	4470
911.145	4284
911.259	4291
911.374	4348
911.489	4310
911.604	4246
911.718	4177
911.833	4211
911.947	4055
912.062	3991
912.176	4196
912.291	4246
912.405	4284
912.519	4443
912.633	4512
912.748	4356
912.862	4280
912.976	4177
913.09	4112
913.204	4166
913.318	4249
913.431	4318
913.545	4409
913.659	4409
913.772	4383
913.886	4219
914	4223
914.113	4371
914.226	4443
914.34	4398
914.453	4234
914.566	4398
914.68	4295
914.793	4265
914.906	4135
915.019	4150
915.132	4067
915.245	4192
915.358	4223
915.47	4188
915.583	4261
915.696	4303
915.809	4379
915.921	4428
916.034	4238
916.146	4204
916.259	4230
916.371	4383
916.483	4337
916.595	4272
916.708	4268
916.82	4322
916.932	4329
917.044	4306
917.156	4322
917.268	4242
917.38	4265
917.491	4284
917.603	4314
917.715	4455
917.826	4455
917.938	4325
918.049	4227
918.161	4356
918.272	4554
918.384	4512
918.495	4443
918.606	4299
918.717	4204
918.828	4341
918.939	4383
919.05	4249
919.161	4322
919.272	4139
919.383	4227
919.494	4440
919.604	4634
919.715	4451
919.826	4272
919.936	4394
920.047	4504
920.157	4470
920.267	4664
920.378	4542
920.488	4470
920.598	4691
920.708	4930
920.818	4793
920.928	4748
921.038	4908
921.148	4938
921.258	4607
921.368	4538
921.477	4512
921.587	4451
921.697	4383
921.806	4554
921.916	4386
922.025	4280
922.134	4242
922.244	4200
922.353	4352
922.462	4147
922.571	4147
922.68	3975
922.789	3956
922.898	4051
923.007	3994
923.116	4036
923.224	4067
923.333	4082
923.442	3987
923.55	3953
923.659	3983
923.767	4101
923.876	3972
923.984	4097
924.092	3983
924.201	4071
924.309	4082
924.417	4093
924.525	4040
924.633	4105
924.741	5052
924.849	3937
924.956	4124
925.064	3972
925.172	3915
925.279	3956
925.387	4082
925.494	4032
925.602	4219
925.709	4215
925.816	4059
925.924	4162
926.031	4223
926.138	4166
926.245	4211
926.352	4044
926.459	4246
926.566	4280
926.673	4147
926.779	4078
926.886	4105
926.993	4013
927.099	3926
927.206	3956
927.312	3949
927.419	4051
927.525	4067
927.631	4090
927.737	3991
927.843	3930
927.95	3899
928.056	3953
928.162	3983
928.267	4017
928.373	4668
928.479	4093
928.585	3873
928.69	4032
928.796	4124
928.901	3975
929.007	3842
929.112	4013
929.218	3930
929.323	3945
929.428	3968
929.533	4029
929.638	3964
929.743	3972
929.848	4059
929.953	3998
930.058	3896
930.163	3778
930.267	3854
930.372	3968
930.477	3762
930.581	4120
930.685	3953
930.79	3846
930.894	3869
930.998	3861
931.103	4029
931.207	3705
931.311	3694
931.415	3629
931.519	3530
931.623	3576
