Data from test_V78500241_302.txt Node
Date: Fri Mar 25 16:51:06 CST 2022
User: usil
Spectrometer: V785-0024
Trigger mode: 0
Integration Time (sec): 4.000000E-1
Scans to average: 1
Nonlinearity correction enabled: false
Boxcar width: 0
Storing dark spectrum: false
XAxis mode: Wavelengths
Number of Pixels in Spectrum: 1024
>>>>>Begin Spectral Data<<<<<
801.071	8058
801.214	7970
801.356	7868
801.499	7944
801.641	7776
801.783	7826
801.926	7944
802.068	7890
802.211	8039
802.353	8039
802.496	8008
802.638	7902
802.78	7955
802.923	8012
803.065	7826
803.208	7830
803.35	7974
803.492	8096
803.635	8077
803.777	8016
803.919	8180
804.061	8419
804.204	8161
804.346	8081
804.488	7997
804.63	8111
804.773	8024
804.915	8092
805.057	8214
805.199	8123
805.341	8240
805.483	8279
805.626	8214
805.768	8096
805.91	8275
806.052	8210
806.194	8123
806.336	8301
806.478	8043
806.62	8035
806.762	8142
806.904	8294
807.046	8461
807.188	8324
807.33	8317
807.472	8282
807.614	8157
807.756	8183
807.898	8020
808.04	7906
808.182	7928
808.324	7917
808.465	7967
808.607	8043
808.749	8088
808.891	8206
809.033	8294
809.174	8191
809.316	8043
809.458	8020
809.6	8046
809.741	7982
809.883	8016
810.025	8046
810.166	8046
810.308	8054
810.45	7951
810.591	7841
810.733	7719
810.875	7674
811.016	7537
811.158	7525
811.299	7597
811.441	7738
811.582	7693
811.724	7586
811.865	7575
812.007	7662
812.148	7601
812.29	7651
812.431	7757
812.573	7925
812.714	8031
812.855	8103
812.997	8176
813.138	8366
813.279	8145
813.421	8153
813.562	8073
813.703	7868
813.845	7780
813.986	7468
814.127	7255
814.268	7202
814.41	7183
814.551	7194
814.692	7221
814.833	7042
814.974	7107
815.115	7091
815.256	6943
815.397	6882
815.539	6947
815.68	6783
815.821	6802
815.962	6840
816.103	6779
816.244	6730
816.385	6673
816.526	6650
816.666	6486
816.807	6315
816.948	6460
817.089	6426
817.23	6452
817.371	6422
817.512	6422
817.653	6391
817.793	6334
817.934	6372
818.075	6475
818.216	6448
818.356	6433
818.497	6209
818.638	6175
818.778	6140
818.919	6194
819.06	6178
819.2	6357
819.341	6285
819.481	6384
819.622	6555
819.762	6749
819.903	6688
820.043	6540
820.184	6528
820.324	6627
820.465	6654
820.605	6627
820.746	6574
820.886	6467
821.026	6646
821.167	6681
821.307	6814
821.447	6814
821.588	6700
821.728	6604
821.868	6490
822.008	6300
822.149	6372
822.289	6334
822.429	6182
822.569	6110
822.709	6095
822.849	5893
822.99	5908
823.13	5885
823.27	5916
823.41	5836
823.55	5767
823.69	5775
823.83	5802
823.97	5638
824.11	5585
824.25	5543
824.389	5585
824.529	5589
824.669	5509
824.809	5657
824.949	5638
825.089	5589
825.228	5589
825.368	5391
825.508	5345
825.648	5357
825.787	5387
825.927	5360
826.067	5303
826.206	5288
826.346	5421
826.485	5433
826.625	5417
826.765	5543
826.904	5452
827.044	5277
827.183	5220
827.323	5174
827.462	5250
827.601	5121
827.741	5197
827.88	5193
828.02	5086
828.159	5254
828.298	5307
828.437	5387
828.577	5284
828.716	5497
828.855	5353
828.994	5143
829.134	5143
829.273	5242
829.412	5155
829.551	5166
829.69	5113
829.829	5212
829.968	5387
830.107	5284
830.246	5315
830.385	5193
830.524	5181
830.663	5056
830.802	4961
830.941	4911
831.08	4942
831.219	4999
831.357	4957
831.496	5166
831.635	4911
831.774	4835
831.913	4831
832.051	4733
832.19	4778
832.329	4824
832.467	4740
832.606	4675
832.744	4717
832.883	4729
833.022	4706
833.16	4793
833.299	4816
833.437	4881
833.576	4831
833.714	4835
833.852	4866
833.991	4850
834.129	4927
834.267	4949
834.406	4949
834.544	5018
834.682	4949
834.821	4972
834.959	5132
835.097	4976
835.235	5178
835.373	5060
835.511	5121
835.65	5029
835.788	4991
835.926	4942
836.064	4870
836.202	4980
836.34	5201
836.478	5250
836.615	5162
836.753	5216
836.891	5261
837.029	5231
837.167	5235
837.305	5121
837.443	5181
837.58	5109
837.718	5216
837.856	5258
837.993	5212
838.131	5269
838.269	5258
838.406	5242
838.544	5178
838.681	5098
838.819	5022
838.956	4919
839.094	4870
839.231	5006
839.369	5086
839.506	5414
839.643	5269
839.781	5128
839.918	5029
840.055	5090
840.193	5128
840.33	5124
840.467	5147
840.604	5178
840.742	5493
840.879	5060
841.016	5064
841.153	5185
841.29	5368
841.427	5337
841.564	5315
841.701	5387
841.838	5269
841.975	5201
842.112	5273
842.249	5208
842.385	5140
842.522	5280
842.659	5162
842.796	5170
842.933	5178
843.069	5132
843.206	5174
843.343	5269
843.479	5242
843.616	5261
843.752	5079
843.889	5006
844.025	5204
844.162	5022
844.298	5201
844.435	5025
844.571	5056
844.708	5151
844.844	5277
844.98	5303
845.117	5303
845.253	5086
845.389	5033
845.525	5185
845.661	5098
845.798	5071
845.934	5094
846.07	5003
846.206	5242
846.342	5330
846.478	5170
846.614	5060
846.75	4927
846.886	4919
847.022	5155
847.158	4999
847.294	5045
847.429	5098
847.565	5079
847.701	5353
847.837	4908
847.972	4820
848.108	5010
848.244	4923
848.379	4778
848.515	4767
848.65	4672
848.786	4733
848.921	4771
849.057	4805
849.192	4927
849.328	4820
849.463	4870
849.598	4839
849.734	4740
849.869	4683
850.004	4607
850.14	4660
850.275	4630
850.41	4546
850.545	4561
850.68	4596
850.815	4618
850.95	4622
851.085	4858
851.22	4721
851.355	4630
851.49	4607
851.625	4626
851.76	4637
851.895	4523
852.03	4550
852.165	4637
852.299	4721
852.434	4805
852.569	4691
852.703	4752
852.838	4850
852.973	4938
853.107	4919
853.242	4702
853.376	4675
853.511	4523
853.645	4672
853.78	4786
853.914	4702
854.048	4656
854.183	4596
854.317	4710
854.451	4866
854.585	4729
854.72	4626
854.854	4748
854.988	4615
855.122	4596
855.256	4504
855.39	4641
855.524	4809
855.658	4759
855.792	4706
855.926	4755
856.06	4740
856.194	4771
856.327	4675
856.461	4599
856.595	4592
856.729	4622
856.862	4733
856.996	4698
857.13	4759
857.263	4717
857.397	4759
857.53	4649
857.664	4668
857.797	4725
857.931	4774
858.064	4649
858.197	4710
858.331	4626
858.464	4618
858.597	4546
858.731	4630
858.864	4672
858.997	4592
859.13	4710
859.263	4645
859.396	4675
859.529	4573
859.662	4569
859.795	4569
859.928	4622
860.061	4786
860.194	4805
860.327	4611
860.46	4630
860.592	4672
860.725	4752
860.858	4755
860.99	4607
861.123	4558
861.256	4538
861.388	4630
861.521	5254
861.653	4516
861.786	4440
861.918	4455
862.05	4546
862.183	4603
862.315	4603
862.447	4668
862.58	4592
862.712	4375
862.844	4325
862.976	4436
863.108	4508
863.24	4881
863.372	4329
863.504	4436
863.636	4421
863.768	4474
863.9	4466
864.032	4375
864.164	4390
864.296	4443
864.428	4565
864.559	4561
864.691	4519
864.823	4485
864.954	4493
865.086	4512
865.217	4516
865.349	4436
865.48	4413
865.612	4485
865.743	4634
865.875	4455
866.006	4417
866.137	4424
866.269	4424
866.4	4413
866.531	4481
866.662	4451
866.793	4360
866.924	4440
867.055	4519
867.186	4451
867.317	4451
867.448	4348
867.579	4436
867.71	4413
867.841	4383
867.972	4470
868.103	4493
868.233	4409
868.364	4447
868.495	4500
868.625	4660
868.756	4763
868.886	4527
869.017	4615
869.147	4733
869.278	4759
869.408	4702
869.539	4637
869.669	4740
869.799	4611
869.929	4763
870.06	4748
870.19	5014
870.32	4930
870.45	4934
870.58	4984
870.71	5041
870.84	5098
870.97	4949
871.1	4949
871.23	5147
871.36	5140
871.489	5022
871.619	5121
871.749	5064
871.879	5136
872.008	5193
872.138	5098
872.267	5003
872.397	4866
872.526	4831
872.656	4740
872.785	4843
872.915	4900
873.044	4965
873.173	4984
873.303	4949
873.432	4957
873.561	4934
873.69	4911
873.819	4881
873.948	4900
874.077	4839
874.206	4740
874.335	4782
874.464	4934
874.593	5037
874.722	4961
874.851	5151
874.979	5090
875.108	5029
875.237	4896
875.365	4915
875.494	4877
875.623	4991
875.751	4858
875.88	4927
876.008	4984
876.136	4987
876.265	5212
876.393	5318
876.521	5261
876.65	5261
876.778	5166
876.906	5022
877.034	5041
877.162	5064
877.29	5029
877.418	5010
877.546	5003
877.674	5033
877.802	5067
877.93	5006
878.058	4953
878.185	4866
878.313	4968
878.441	4976
878.568	4809
878.696	4896
878.824	4953
878.951	5014
879.079	5083
879.206	5250
879.333	5086
879.461	5025
879.588	4965
879.715	5071
879.842	5208
879.97	5048
880.097	4759
880.224	4717
880.351	4850
880.478	4824
880.605	4790
880.732	4805
880.859	5071
880.986	4904
881.112	4949
881.239	4733
881.366	4714
881.493	4615
881.619	4580
881.746	4596
881.872	4668
881.999	4672
882.125	4710
882.252	4793
882.378	4843
882.505	4968
882.631	4801
882.757	4698
882.883	4763
883.01	4767
883.136	4656
883.262	4622
883.388	4630
883.514	4843
883.64	4866
883.766	4801
883.892	4702
884.018	4706
884.143	4896
884.269	5022
884.395	4675
884.52	4634
884.646	4687
884.772	4599
884.897	4588
885.023	4672
885.148	4759
885.274	4847
885.399	4809
885.524	4698
885.65	4672
885.775	4691
885.9	4725
886.025	4858
886.15	4793
886.275	4744
886.4	4694
886.525	4740
886.65	4714
886.775	4641
886.9	4900
887.025	5045
887.149	4801
887.274	4634
887.399	4592
887.523	4535
887.648	4527
887.773	4580
887.897	4752
888.021	4778
888.146	4660
888.27	4831
888.395	4919
888.519	4805
888.643	4729
888.767	4820
888.891	4733
889.015	4634
889.139	4733
889.263	4622
889.387	4767
889.511	4839
889.635	4778
889.759	4645
889.883	4653
890.006	4755
890.13	4824
890.254	4645
890.377	4702
890.501	4565
890.624	4527
890.748	4580
890.871	4527
890.995	4409
891.118	4405
891.241	4569
891.364	4527
891.488	4599
891.611	4500
891.734	4565
891.857	4573
891.98	4546
892.103	4675
892.226	4596
892.349	4527
892.471	4432
892.594	4569
892.717	4592
892.839	4565
892.962	4645
893.085	4653
893.207	4596
893.33	4443
893.452	4527
893.575	4618
893.697	4596
893.819	4805
893.941	4828
894.064	4774
894.186	4588
894.308	4599
894.43	4767
894.552	4771
894.674	4797
894.796	4569
894.918	4618
895.04	4519
895.161	4683
895.283	4634
895.405	4577
895.526	4672
895.648	4687
895.769	4656
895.891	4729
896.012	4790
896.134	4717
896.255	4641
896.376	4637
896.498	4649
896.619	4668
896.74	4573
896.861	4664
896.982	4923
897.103	5067
897.224	4820
897.345	4752
897.466	4679
897.587	4729
897.708	4812
897.828	4771
897.949	4672
898.07	4550
898.19	4664
898.311	4824
898.431	4660
898.552	4721
898.672	4786
898.792	4847
898.913	4793
899.033	4630
899.153	4508
899.273	4440
899.393	4516
899.513	4523
899.633	4497
899.753	4546
899.873	4500
899.993	4554
900.113	4519
900.232	4592
900.352	4538
900.472	4504
900.591	4432
900.711	4512
900.83	4421
900.95	4596
901.069	4675
901.189	4538
901.308	4352
901.427	4314
901.546	4405
901.665	4497
901.784	4535
901.904	4375
902.023	4280
902.141	4169
902.26	4166
902.379	4291
902.498	4223
902.617	4223
902.735	4318
902.854	4413
902.973	4375
903.091	4219
903.21	4261
903.328	4314
903.446	4246
903.565	4265
903.683	4352
903.801	4291
903.919	4424
904.038	4436
904.156	4287
904.274	4413
904.392	4360
904.51	4428
904.627	4478
904.745	4599
904.863	4618
904.981	4402
905.098	4310
905.216	4337
905.334	4383
905.451	4424
905.569	4424
905.686	4538
905.803	4607
905.921	4398
906.038	4554
906.155	4451
906.272	4405
906.389	4447
906.506	4344
906.623	4341
906.74	4375
906.857	4314
906.974	4428
907.091	4531
907.208	4672
907.324	4626
907.441	4527
907.557	4318
907.674	4363
907.79	4337
907.907	4360
908.023	4443
908.139	4489
908.256	4428
908.372	4447
908.488	4432
908.604	4379
908.72	4318
908.836	4371
908.952	4356
909.068	4409
909.184	4573
909.3	4462
909.415	4641
909.531	4565
909.647	4371
909.762	4367
909.878	4413
909.993	4390
910.108	4405
910.224	4367
910.339	4500
910.454	4417
910.57	4363
910.685	4314
910.8	4622
910.915	4573
911.03	4546
911.145	4303
911.259	4337
911.374	4371
911.489	4333
911.604	4272
911.718	4166
911.833	4173
911.947	4036
912.062	3991
912.176	4223
912.291	4207
912.405	4265
912.519	4421
912.633	4474
912.748	4344
912.862	4337
912.976	4253
913.09	4071
913.204	4162
913.318	4257
913.431	4344
913.545	4363
913.659	4436
913.772	4325
913.886	4219
914	4223
914.113	4371
914.226	4394
914.34	4383
914.453	4234
914.566	4405
914.68	4265
914.793	4322
914.906	4131
915.019	4116
915.132	4112
915.245	4204
915.358	4227
915.47	4207
915.583	4261
915.696	4287
915.809	4394
915.921	4417
916.034	4265
916.146	4261
916.259	4219
916.371	4421
916.483	4363
916.595	4249
916.708	4363
916.82	4314
916.932	4409
917.044	4352
917.156	4367
917.268	4276
917.38	4325
917.491	4306
917.603	4390
917.715	4413
917.826	4443
917.938	4390
918.049	4276
918.161	4451
918.272	4577
918.384	4542
918.495	4504
918.606	4371
918.717	4249
918.828	4398
918.939	4363
919.05	4242
919.161	4405
919.272	4215
919.383	4265
919.494	4462
919.604	4687
919.715	4466
919.826	4383
919.936	4459
920.047	4542
920.157	4558
920.267	4710
920.378	4569
920.488	4554
920.598	4752
920.708	4908
920.818	4812
920.928	4790
921.038	5041
921.148	4968
921.258	4710
921.368	4603
921.477	4577
921.587	4519
921.697	4455
921.806	4573
921.916	4497
922.025	4295
922.134	4303
922.244	4291
922.353	4363
922.462	4238
922.571	4169
922.68	4059
922.789	4036
922.898	4067
923.007	4059
923.116	4150
923.224	4097
923.333	4143
923.442	4086
923.55	3991
923.659	4040
923.767	4135
923.876	4036
923.984	4128
924.092	4021
924.201	4139
924.309	4105
924.417	4158
924.525	4112
924.633	4139
924.741	5102
924.849	3975
924.956	4181
925.064	4010
925.172	3945
925.279	4002
925.387	4112
925.494	4044
925.602	4268
925.709	4238
925.816	4097
925.924	4162
926.031	4253
926.138	4249
926.245	4257
926.352	4135
926.459	4299
926.566	4409
926.673	4166
926.779	4169
926.886	4109
926.993	4036
927.099	4006
927.206	3964
927.312	4032
927.419	4101
927.525	4082
927.631	4109
927.737	3987
927.843	3994
927.95	3911
928.056	4006
928.162	4021
928.267	4101
928.373	4721
928.479	4143
928.585	3941
928.69	4055
928.796	4128
928.901	3972
929.007	3876
929.112	4048
929.218	4025
929.323	3998
929.428	3987
929.533	4154
929.638	3926
929.743	3994
929.848	4109
929.953	4025
930.058	3998
930.163	3808
930.267	3873
930.372	3987
930.477	3911
930.581	4063
930.685	3979
930.79	3846
930.894	3930
930.998	3896
931.103	4071
931.207	3732
931.311	3682
931.415	3705
931.519	3545
931.623	3587
