Data from test_V78500241_2160.txt Node
Date: Fri Mar 25 17:04:01 CST 2022
User: usil
Spectrometer: V785-0024
Trigger mode: 0
Integration Time (sec): 4.000000E-1
Scans to average: 1
Nonlinearity correction enabled: false
Boxcar width: 0
Storing dark spectrum: false
XAxis mode: Wavelengths
Number of Pixels in Spectrum: 1024
>>>>>Begin Spectral Data<<<<<
801.071	8024
801.214	8024
801.356	7856
801.499	7852
801.641	7788
801.783	7807
801.926	7928
802.068	7982
802.211	8035
802.353	7974
802.496	7856
802.638	7868
802.78	7959
802.923	7955
803.065	7894
803.208	7875
803.35	7986
803.492	8058
803.635	8240
803.777	8035
803.919	8168
804.061	8492
804.204	8164
804.346	8092
804.488	7970
804.63	8115
804.773	8035
804.915	8103
805.057	8233
805.199	8138
805.341	8161
805.483	8309
805.626	8237
805.768	8107
805.91	8195
806.052	8259
806.194	8126
806.336	8256
806.478	8043
806.62	8103
806.762	8157
806.904	8237
807.046	8419
807.188	8389
807.33	8275
807.472	8275
807.614	8123
807.756	8153
807.898	7963
808.04	7860
808.182	7940
808.324	7868
808.465	7928
808.607	8050
808.749	8206
808.891	8282
809.033	8317
809.174	8210
809.316	8088
809.458	8111
809.6	8020
809.741	8062
809.883	7986
810.025	8138
810.166	8062
810.308	8001
810.45	8024
810.591	7879
810.733	7704
810.875	7662
811.016	7563
811.158	7415
811.299	7537
811.441	7693
811.582	7704
811.724	7518
811.865	7502
812.007	7578
812.148	7578
812.29	7559
812.431	7727
812.573	7928
812.714	7928
812.855	8107
812.997	8176
813.138	8305
813.279	8153
813.421	8081
813.562	7982
813.703	7826
813.845	7719
813.986	7441
814.127	7225
814.268	7202
814.41	7190
814.551	7187
814.692	7225
814.833	7110
814.974	7145
815.115	7057
815.256	7000
815.397	6863
815.539	6890
815.68	6791
815.821	6741
815.962	6844
816.103	6738
816.244	6673
816.385	6593
816.526	6532
816.666	6517
816.807	6346
816.948	6475
817.089	6441
817.23	6433
817.371	6319
817.512	6361
817.653	6399
817.793	6331
817.934	6391
818.075	6414
818.216	6494
818.356	6437
818.497	6232
818.638	6171
818.778	6213
818.919	6106
819.06	6182
819.2	6273
819.341	6323
819.481	6391
819.622	6525
819.762	6726
819.903	6741
820.043	6532
820.184	6574
820.324	6582
820.465	6730
820.605	6711
820.746	6681
820.886	6525
821.026	6681
821.167	6692
821.307	6791
821.447	6764
821.588	6764
821.728	6593
821.868	6547
822.008	6346
822.149	6376
822.289	6380
822.429	6190
822.569	6095
822.709	6209
822.849	5927
822.99	5927
823.13	5969
823.27	5984
823.41	5786
823.55	5802
823.69	5824
823.83	5844
823.97	5695
824.11	5532
824.25	5581
824.389	5554
824.529	5623
824.669	5516
824.809	5596
824.949	5695
825.089	5665
825.228	5619
825.368	5433
825.508	5433
825.648	5364
825.787	5440
825.927	5406
826.067	5322
826.206	5261
826.346	5421
826.485	5429
826.625	5444
826.765	5638
826.904	5554
827.044	5246
827.183	5239
827.323	5174
827.462	5296
827.601	5231
827.741	5181
827.88	5296
828.02	5185
828.159	5277
828.298	5360
828.437	5417
828.577	5288
828.716	5509
828.855	5364
828.994	5250
829.134	5208
829.273	5223
829.412	5181
829.551	5181
829.69	5189
829.829	5277
829.968	5398
830.107	5273
830.246	5280
830.385	5242
830.524	5204
830.663	5124
830.802	4995
830.941	5029
831.08	4919
831.219	4976
831.357	5006
831.496	5208
831.635	4953
831.774	4896
831.913	4915
832.051	4740
832.19	4752
832.329	4885
832.467	4736
832.606	4679
832.744	4786
832.883	4774
833.022	4763
833.16	4850
833.299	4854
833.437	4850
833.576	4885
833.714	4892
833.852	4873
833.991	4927
834.129	4942
834.267	5029
834.406	4984
834.544	5037
834.682	5025
834.821	4961
834.959	5220
835.097	5033
835.235	5170
835.373	5128
835.511	5166
835.65	5079
835.788	5071
835.926	4938
836.064	4881
836.202	4957
836.34	5147
836.478	5261
836.615	5166
836.753	5223
836.891	5292
837.029	5239
837.167	5185
837.305	5212
837.443	5166
837.58	5181
837.718	5311
837.856	5265
837.993	5117
838.131	5284
838.269	5250
838.406	5269
838.544	5242
838.681	5090
838.819	4995
838.956	4900
839.094	4908
839.231	5041
839.369	5056
839.506	5444
839.643	5235
839.781	5124
839.918	5056
840.055	5128
840.193	5136
840.33	5140
840.467	5185
840.604	5212
840.742	5455
840.879	5094
841.016	5086
841.153	5197
841.29	5368
841.427	5383
841.564	5288
841.701	5387
841.838	5326
841.975	5269
842.112	5322
842.249	5136
842.385	5136
842.522	5322
842.659	5223
842.796	5181
842.933	5220
843.069	5151
843.206	5181
843.343	5330
843.479	5303
843.616	5318
843.752	5090
843.889	5048
844.025	5254
844.162	5075
844.298	5242
844.435	5094
844.571	5086
844.708	5265
844.844	5341
844.98	5360
845.117	5364
845.253	5147
845.389	5162
845.525	5201
845.661	5147
845.798	5048
845.934	5155
846.07	5086
846.206	5220
846.342	5303
846.478	5201
846.614	5041
846.75	5006
846.886	4953
847.022	5208
847.158	5075
847.294	5090
847.429	5178
847.565	5105
847.701	5364
847.837	4896
847.972	4809
848.108	4965
848.244	4953
848.379	4816
848.515	4759
848.65	4714
848.786	4733
848.921	4805
849.057	4877
849.192	4915
849.328	4816
849.463	4892
849.598	4805
849.734	4771
849.869	4759
850.004	4687
850.14	4668
850.275	4603
850.41	4558
850.545	4588
850.68	4630
850.815	4675
850.95	4660
851.085	4805
851.22	4782
851.355	4630
851.49	4660
851.625	4679
851.76	4649
851.895	4611
852.03	4615
852.165	4622
852.299	4717
852.434	4809
852.569	4801
852.703	4828
852.838	4919
852.973	4961
853.107	4968
853.242	4790
853.376	4687
853.511	4561
853.645	4637
853.78	4850
853.914	4679
854.048	4694
854.183	4641
854.317	4733
854.451	4877
854.585	4683
854.72	4668
854.854	4793
854.988	4618
855.122	4691
855.256	4531
855.39	4664
855.524	4786
855.658	4694
855.792	4683
855.926	4816
856.06	4820
856.194	4824
856.327	4717
856.461	4672
856.595	4599
856.729	4702
856.862	4771
856.996	4755
857.13	4812
857.263	4805
857.397	4835
857.53	4702
857.664	4793
857.797	4786
857.931	4828
858.064	4702
858.197	4820
858.331	4668
858.464	4664
858.597	4497
858.731	4641
858.864	4611
858.997	4607
859.13	4733
859.263	4672
859.396	4710
859.529	4596
859.662	4596
859.795	4546
859.928	4668
860.061	4767
860.194	4843
860.327	4645
860.46	4634
860.592	4759
860.725	4759
860.858	4759
860.99	4599
861.123	4550
861.256	4558
861.388	4664
861.521	5421
861.653	4531
861.786	4432
861.918	4462
862.05	4531
862.183	4535
862.315	4634
862.447	4637
862.58	4573
862.712	4417
862.844	4363
862.976	4535
863.108	4489
863.24	4740
863.372	4371
863.504	4455
863.636	4413
863.768	4497
863.9	4443
864.032	4383
864.164	4417
864.296	4470
864.428	4550
864.559	4634
864.691	4542
864.823	4550
864.954	4523
865.086	4527
865.217	4497
865.349	4421
865.48	4436
865.612	4474
865.743	4660
865.875	4485
866.006	4413
866.137	4478
866.269	4466
866.4	4459
866.531	4386
866.662	4447
866.793	4432
866.924	4409
867.055	4523
867.186	4462
867.317	4436
867.448	4360
867.579	4409
867.71	4402
867.841	4383
867.972	4489
868.103	4489
868.233	4455
868.364	4485
868.495	4523
868.625	4702
868.756	4774
868.886	4630
869.017	4637
869.147	4790
869.278	4801
869.408	4672
869.539	4618
869.669	4752
869.799	4721
869.929	4824
870.06	4725
870.19	4968
870.32	4995
870.45	4991
870.58	4987
870.71	5083
870.84	5155
870.97	4934
871.1	4908
871.23	5113
871.36	5132
871.489	5052
871.619	5113
871.749	5071
871.879	5166
872.008	5170
872.138	5094
872.267	4999
872.397	4904
872.526	4843
872.656	4721
872.785	4866
872.915	4965
873.044	4995
873.173	4972
873.303	5003
873.432	4953
873.561	4949
873.69	4946
873.819	4885
873.948	4965
874.077	4820
874.206	4774
874.335	4820
874.464	4953
874.593	5041
874.722	4938
874.851	5094
874.979	5113
875.108	4991
875.237	4930
875.365	4900
875.494	4908
875.623	5010
875.751	4870
875.88	4946
876.008	5003
876.136	5045
876.265	5250
876.393	5341
876.521	5246
876.65	5261
876.778	5178
876.906	5060
877.034	4995
877.162	5056
877.29	5003
877.418	5071
877.546	5052
877.674	5083
877.802	5048
877.93	5048
878.058	4949
878.185	4881
878.313	4968
878.441	4942
878.568	4854
878.696	4881
878.824	4968
878.951	5006
879.079	5193
879.206	5261
879.333	5109
879.461	4984
879.588	4987
879.715	5102
879.842	5261
879.97	4995
880.097	4790
880.224	4771
880.351	4812
880.478	4801
880.605	4790
880.732	4843
880.859	5086
880.986	4923
881.112	4908
881.239	4774
881.366	4660
881.493	4599
881.619	4615
881.746	4626
881.872	4630
881.999	4725
882.125	4706
882.252	4816
882.378	4824
882.505	5003
882.631	4873
882.757	4687
882.883	4759
883.01	4698
883.136	4683
883.262	4603
883.388	4603
883.514	4797
883.64	4892
883.766	4786
883.892	4706
884.018	4656
884.143	4904
884.269	4987
884.395	4637
884.52	4622
884.646	4656
884.772	4603
884.897	4558
885.023	4679
885.148	4793
885.274	4881
885.399	4797
885.524	4733
885.65	4687
885.775	4748
885.9	4767
886.025	4850
886.15	4831
886.275	4752
886.4	4668
886.525	4759
886.65	4698
886.775	4691
886.9	4927
887.025	5033
887.149	4847
887.274	4603
887.399	4611
887.523	4618
887.648	4565
887.773	4626
887.897	4778
888.021	4778
888.146	4683
888.27	4816
888.395	4896
888.519	4801
888.643	4805
888.767	4843
888.891	4691
889.015	4634
889.139	4641
889.263	4637
889.387	4778
889.511	4835
889.635	4797
889.759	4615
889.883	4626
890.006	4675
890.13	4782
890.254	4710
890.377	4675
890.501	4584
890.624	4523
890.748	4664
890.871	4497
890.995	4424
891.118	4344
891.241	4508
891.364	4519
891.488	4622
891.611	4470
891.734	4565
891.857	4596
891.98	4527
892.103	4675
892.226	4618
892.349	4550
892.471	4455
892.594	4531
892.717	4558
892.839	4565
892.962	4592
893.085	4645
893.207	4569
893.33	4440
893.452	4535
893.575	4641
893.697	4550
893.819	4824
893.941	4908
894.064	4771
894.186	4584
894.308	4516
894.43	4778
894.552	4824
894.674	4778
894.796	4550
894.918	4607
895.04	4596
895.161	4714
895.283	4694
895.405	4554
895.526	4630
895.648	4672
895.769	4694
895.891	4706
896.012	4744
896.134	4691
896.255	4660
896.376	4660
896.498	4622
896.619	4675
896.74	4664
896.861	4653
896.982	4892
897.103	5109
897.224	4839
897.345	4733
897.466	4664
897.587	4736
897.708	4908
897.828	4790
897.949	4702
898.07	4554
898.19	4637
898.311	4820
898.431	4698
898.552	4752
898.672	4873
898.792	4839
898.913	4771
899.033	4664
899.153	4516
899.273	4413
899.393	4531
899.513	4462
899.633	4546
899.753	4588
899.873	4481
899.993	4596
900.113	4512
900.232	4596
900.352	4573
900.472	4508
900.591	4383
900.711	4493
900.83	4451
900.95	4618
901.069	4710
901.189	4512
901.308	4348
901.427	4329
901.546	4409
901.665	4516
901.784	4489
901.904	4356
902.023	4314
902.141	4204
902.26	4128
902.379	4310
902.498	4276
902.617	4257
902.735	4375
902.854	4390
902.973	4325
903.091	4246
903.21	4200
903.328	4291
903.446	4253
903.565	4272
903.683	4360
903.801	4246
903.919	4394
904.038	4383
904.156	4348
904.274	4383
904.392	4417
904.51	4447
904.627	4459
904.745	4599
904.863	4649
904.981	4417
905.098	4310
905.216	4379
905.334	4459
905.451	4405
905.569	4493
905.686	4546
905.803	4588
905.921	4386
906.038	4546
906.155	4474
906.272	4352
906.389	4443
906.506	4352
906.623	4303
906.74	4394
906.857	4390
906.974	4348
907.091	4577
907.208	4679
907.324	4607
907.441	4561
907.557	4337
907.674	4356
907.79	4287
907.907	4375
908.023	4489
908.139	4451
908.256	4440
908.372	4470
908.488	4455
908.604	4367
908.72	4291
908.836	4405
908.952	4337
909.068	4413
909.184	4523
909.3	4489
909.415	4588
909.531	4550
909.647	4402
909.762	4417
909.878	4375
909.993	4413
910.108	4443
910.224	4405
910.339	4500
910.454	4428
910.57	4337
910.685	4337
910.8	4653
910.915	4664
911.03	4500
911.145	4306
911.259	4344
911.374	4367
911.489	4325
911.604	4268
911.718	4192
911.833	4173
911.947	4120
912.062	3991
912.176	4215
912.291	4238
912.405	4238
912.519	4470
912.633	4535
912.748	4394
912.862	4333
912.976	4181
913.09	4124
913.204	4181
913.318	4242
913.431	4390
913.545	4367
913.659	4447
913.772	4348
913.886	4287
914	4219
914.113	4367
914.226	4409
914.34	4348
914.453	4253
914.566	4394
914.68	4314
914.793	4375
914.906	4158
915.019	4063
915.132	4097
915.245	4215
915.358	4211
915.47	4261
915.583	4268
915.696	4284
915.809	4470
915.921	4398
916.034	4280
916.146	4238
916.259	4207
916.371	4386
916.483	4360
916.595	4306
916.708	4306
916.82	4318
916.932	4325
917.044	4299
917.156	4341
917.268	4223
917.38	4257
917.491	4291
917.603	4352
917.715	4383
917.826	4417
917.938	4333
918.049	4234
918.161	4398
918.272	4554
918.384	4478
918.495	4447
918.606	4287
918.717	4242
918.828	4306
918.939	4333
919.05	4230
919.161	4356
919.272	4078
919.383	4238
919.494	4485
919.604	4561
919.715	4421
919.826	4337
919.936	4352
920.047	4512
920.157	4466
920.267	4725
920.378	4573
920.488	4535
920.598	4717
920.708	4854
920.818	4698
920.928	4729
921.038	4961
921.148	4942
921.258	4649
921.368	4554
921.477	4527
921.587	4500
921.697	4390
921.806	4554
921.916	4443
922.025	4287
922.134	4249
922.244	4242
922.353	4341
922.462	4188
922.571	4139
922.68	3991
922.789	4055
922.898	4017
923.007	3975
923.116	4116
923.224	4097
923.333	4048
923.442	4013
923.55	3987
923.659	4036
923.767	4067
923.876	4032
923.984	4128
924.092	3941
924.201	4090
924.309	4093
924.417	4128
924.525	3983
924.633	4105
924.741	5025
924.849	3876
924.956	4128
925.064	3949
925.172	3911
925.279	3926
925.387	4010
925.494	4074
925.602	4246
925.709	4131
925.816	4013
925.924	4109
926.031	4227
926.138	4150
926.245	4166
926.352	4074
926.459	4246
926.566	4287
926.673	4166
926.779	4090
926.886	4067
926.993	3991
927.099	3987
927.206	3918
927.312	3968
927.419	4032
927.525	3979
927.631	4067
927.737	3949
927.843	3975
927.95	3869
928.056	3915
928.162	3934
928.267	4021
928.373	4668
928.479	4109
928.585	3918
928.69	4006
928.796	4078
928.901	3941
929.007	3816
929.112	3987
929.218	3926
929.323	3937
929.428	3979
929.533	4093
929.638	3869
929.743	3972
929.848	3991
929.953	3979
930.058	3907
930.163	3781
930.267	3816
930.372	3953
930.477	3770
930.581	4112
930.685	3915
930.79	3831
930.894	3876
930.998	3850
931.103	4044
931.207	3740
931.311	3713
931.415	3667
931.519	3561
931.623	3568
