Data from test_V78500241_2492.txt Node
Date: Fri Mar 25 17:06:19 CST 2022
User: usil
Spectrometer: V785-0024
Trigger mode: 0
Integration Time (sec): 4.000000E-1
Scans to average: 1
Nonlinearity correction enabled: false
Boxcar width: 0
Storing dark spectrum: false
XAxis mode: Wavelengths
Number of Pixels in Spectrum: 1024
>>>>>Begin Spectral Data<<<<<
801.071	8069
801.214	7875
801.356	7837
801.499	7803
801.641	7784
801.783	7845
801.926	8024
802.068	7928
802.211	8001
802.353	7997
802.496	7864
802.638	7894
802.78	7856
802.923	7906
803.065	7826
803.208	7807
803.35	7944
803.492	8039
803.635	8168
803.777	8069
803.919	8161
804.061	8374
804.204	8115
804.346	8069
804.488	8012
804.63	8096
804.773	7982
804.915	8134
805.057	8298
805.199	8199
805.341	8168
805.483	8191
805.626	8187
805.768	8176
805.91	8161
806.052	8142
806.194	8077
806.336	8301
806.478	8107
806.62	8046
806.762	8088
806.904	8271
807.046	8419
807.188	8317
807.33	8286
807.472	8298
807.614	8145
807.756	8164
807.898	7967
808.04	7833
808.182	7849
808.324	7841
808.465	7849
808.607	8024
808.749	8145
808.891	8206
809.033	8355
809.174	8202
809.316	8092
809.458	8039
809.6	8020
809.741	7997
809.883	7986
810.025	8096
810.166	8092
810.308	7967
810.45	7986
810.591	7868
810.733	7731
810.875	7681
811.016	7552
811.158	7472
811.299	7540
811.441	7708
811.582	7734
811.724	7582
811.865	7483
812.007	7586
812.148	7540
812.29	7590
812.431	7776
812.573	7887
812.714	7906
812.855	8153
812.997	8214
813.138	8290
813.279	8233
813.421	8092
813.562	7940
813.703	7864
813.845	7734
813.986	7422
814.127	7289
814.268	7221
814.41	7206
814.551	7149
814.692	7225
814.833	6993
814.974	7114
815.115	7103
815.256	6939
815.397	6909
815.539	6939
815.68	6810
815.821	6840
815.962	6837
816.103	6810
816.244	6753
816.385	6635
816.526	6616
816.666	6502
816.807	6342
816.948	6456
817.089	6509
817.23	6483
817.371	6407
817.512	6399
817.653	6414
817.793	6319
817.934	6433
818.075	6388
818.216	6391
818.356	6407
818.497	6285
818.638	6133
818.778	6133
818.919	6140
819.06	6175
819.2	6315
819.341	6376
819.481	6361
819.622	6578
819.762	6783
819.903	6692
820.043	6589
820.184	6532
820.324	6555
820.465	6741
820.605	6703
820.746	6616
820.886	6509
821.026	6646
821.167	6673
821.307	6730
821.447	6760
821.588	6692
821.728	6582
821.868	6521
822.008	6331
822.149	6365
822.289	6361
822.429	6152
822.569	6068
822.709	6129
822.849	5904
822.99	5923
823.13	5912
823.27	5969
823.41	5779
823.55	5756
823.69	5745
823.83	5779
823.97	5691
824.11	5528
824.25	5551
824.389	5528
824.529	5573
824.669	5524
824.809	5630
824.949	5649
825.089	5619
825.228	5535
825.368	5353
825.508	5330
825.648	5318
825.787	5410
825.927	5364
826.067	5337
826.206	5242
826.346	5330
826.485	5379
826.625	5395
826.765	5547
826.904	5467
827.044	5258
827.183	5204
827.323	5140
827.462	5193
827.601	5147
827.741	5193
827.88	5204
828.02	5086
828.159	5208
828.298	5296
828.437	5311
828.577	5261
828.716	5509
828.855	5334
828.994	5140
829.134	5128
829.273	5212
829.412	5155
829.551	5117
829.69	5128
829.829	5273
829.968	5387
830.107	5307
830.246	5318
830.385	5178
830.524	5178
830.663	5105
830.802	4984
830.941	4889
831.08	4915
831.219	4976
831.357	4999
831.496	5143
831.635	4968
831.774	4866
831.913	4911
832.051	4736
832.19	4793
832.329	4873
832.467	4733
832.606	4710
832.744	4733
832.883	4725
833.022	4729
833.16	4824
833.299	4843
833.437	4885
833.576	4919
833.714	4900
833.852	4942
833.991	4877
834.129	4972
834.267	5025
834.406	4984
834.544	4968
834.682	4995
834.821	5003
834.959	5189
835.097	5048
835.235	5174
835.373	5083
835.511	5136
835.65	5041
835.788	5079
835.926	4957
836.064	4923
836.202	4946
836.34	5208
836.478	5223
836.615	5166
836.753	5280
836.891	5330
837.029	5261
837.167	5216
837.305	5181
837.443	5189
837.58	5086
837.718	5258
837.856	5216
837.993	5223
838.131	5265
838.269	5239
838.406	5277
838.544	5250
838.681	5048
838.819	5025
838.956	4934
839.094	4881
839.231	5010
839.369	5140
839.506	5433
839.643	5357
839.781	5128
839.918	5094
840.055	5105
840.193	5128
840.33	5136
840.467	5166
840.604	5250
840.742	5459
840.879	5159
841.016	5109
841.153	5159
841.29	5402
841.427	5376
841.564	5345
841.701	5402
841.838	5273
841.975	5273
842.112	5296
842.249	5147
842.385	5140
842.522	5391
842.659	5170
842.796	5155
842.933	5265
843.069	5136
843.206	5155
843.343	5318
843.479	5307
843.616	5311
843.752	5102
843.889	5037
844.025	5227
844.162	5045
844.298	5189
844.435	5147
844.571	5056
844.708	5258
844.844	5376
844.98	5391
845.117	5330
845.253	5178
845.389	5090
845.525	5178
845.661	5220
845.798	5109
845.934	5140
846.07	5060
846.206	5246
846.342	5318
846.478	5193
846.614	5037
846.75	5041
846.886	4980
847.022	5136
847.158	5052
847.294	5132
847.429	5113
847.565	5041
847.701	5360
847.837	4892
847.972	4839
848.108	4999
848.244	4904
848.379	4812
848.515	4725
848.65	4801
848.786	4778
848.921	4801
849.057	4892
849.192	4942
849.328	4828
849.463	4908
849.598	4793
849.734	4858
849.869	4782
850.004	4679
850.14	4725
850.275	4679
850.41	4535
850.545	4584
850.68	4611
850.815	4672
850.95	4687
851.085	4843
851.22	4801
851.355	4702
851.49	4660
851.625	4641
851.76	4668
851.895	4622
852.03	4565
852.165	4637
852.299	4812
852.434	4767
852.569	4771
852.703	4824
852.838	4915
852.973	5003
853.107	4915
853.242	4752
853.376	4706
853.511	4580
853.645	4645
853.78	4885
853.914	4691
854.048	4744
854.183	4694
854.317	4763
854.451	4900
854.585	4717
854.72	4668
854.854	4774
854.988	4637
855.122	4691
855.256	4535
855.39	4721
855.524	4786
855.658	4725
855.792	4767
855.926	4672
856.06	4812
856.194	4870
856.327	4679
856.461	4615
856.595	4672
856.729	4664
856.862	4801
856.996	4744
857.13	4767
857.263	4748
857.397	4854
857.53	4687
857.664	4714
857.797	4774
857.931	4824
858.064	4706
858.197	4771
858.331	4599
858.464	4675
858.597	4531
858.731	4656
858.864	4664
858.997	4637
859.13	4721
859.263	4683
859.396	4706
859.529	4645
859.662	4577
859.795	4569
859.928	4630
860.061	4759
860.194	4782
860.327	4637
860.46	4630
860.592	4740
860.725	4721
860.858	4733
860.99	4630
861.123	4580
861.256	4622
861.388	4672
861.521	5235
861.653	4538
861.786	4497
861.918	4459
862.05	4523
862.183	4577
862.315	4691
862.447	4679
862.58	4550
862.712	4413
862.844	4402
862.976	4451
863.108	4481
863.24	4942
863.372	4394
863.504	4481
863.636	4417
863.768	4462
863.9	4402
864.032	4409
864.164	4443
864.296	4512
864.428	4546
864.559	4618
864.691	4569
864.823	4558
864.954	4489
865.086	4550
865.217	4493
865.349	4436
865.48	4470
865.612	4508
865.743	4580
865.875	4466
866.006	4459
866.137	4512
866.269	4508
866.4	4466
866.531	4440
866.662	4405
866.793	4451
866.924	4451
867.055	4504
867.186	4489
867.317	4424
867.448	4371
867.579	4386
867.71	4413
867.841	4379
867.972	4500
868.103	4474
868.233	4489
868.364	4531
868.495	4497
868.625	4710
868.756	4797
868.886	4622
869.017	4675
869.147	4801
869.278	4778
869.408	4725
869.539	4660
869.669	4725
869.799	4687
869.929	4782
870.06	4748
870.19	4987
870.32	4934
870.45	4953
870.58	5029
870.71	5151
870.84	5132
870.97	4995
871.1	4953
871.23	5132
871.36	5102
871.489	5056
871.619	5098
871.749	5136
871.879	5151
872.008	5231
872.138	5086
872.267	5010
872.397	4942
872.526	4839
872.656	4752
872.785	4828
872.915	4976
873.044	5048
873.173	4995
873.303	4999
873.432	4987
873.561	4965
873.69	4927
873.819	4877
873.948	4911
874.077	4854
874.206	4782
874.335	4820
874.464	4938
874.593	5075
874.722	4968
874.851	5143
874.979	5071
875.108	5041
875.237	4904
875.365	4892
875.494	4900
875.623	4957
875.751	4870
875.88	4877
876.008	5029
876.136	5094
876.265	5220
876.393	5337
876.521	5280
876.65	5254
876.778	5170
876.906	5056
877.034	5052
877.162	5071
877.29	5037
877.418	5067
877.546	5075
877.674	5052
877.802	5018
877.93	4995
878.058	4953
878.185	4839
878.313	4984
878.441	4968
878.568	4858
878.696	4862
878.824	5060
878.951	5075
879.079	5170
879.206	5299
879.333	5132
879.461	5022
879.588	5037
879.715	5151
879.842	5254
879.97	5037
880.097	4835
880.224	4782
880.351	4843
880.478	4877
880.605	4881
880.732	4782
880.859	5056
880.986	4930
881.112	4980
881.239	4824
881.366	4717
881.493	4561
881.619	4588
881.746	4675
881.872	4694
881.999	4656
882.125	4729
882.252	4839
882.378	4839
882.505	4968
882.631	4831
882.757	4679
882.883	4755
883.01	4694
883.136	4626
883.262	4611
883.388	4615
883.514	4885
883.64	4870
883.766	4801
883.892	4717
884.018	4721
884.143	4911
884.269	4999
884.395	4683
884.52	4698
884.646	4649
884.772	4580
884.897	4622
885.023	4679
885.148	4820
885.274	4892
885.399	4824
885.524	4736
885.65	4725
885.775	4763
885.9	4714
886.025	4908
886.15	4831
886.275	4702
886.4	4694
886.525	4748
886.65	4771
886.775	4672
886.9	4923
887.025	5075
887.149	4782
887.274	4683
887.399	4588
887.523	4607
887.648	4645
887.773	4626
887.897	4752
888.021	4805
888.146	4744
888.27	4866
888.395	4919
888.519	4763
888.643	4831
888.767	4816
888.891	4702
889.015	4596
889.139	4664
889.263	4656
889.387	4805
889.511	4885
889.635	4843
889.759	4660
889.883	4672
890.006	4714
890.13	4892
890.254	4653
890.377	4714
890.501	4588
890.624	4573
890.748	4668
890.871	4527
890.995	4451
891.118	4341
891.241	4584
891.364	4561
891.488	4656
891.611	4455
891.734	4596
891.857	4626
891.98	4542
892.103	4641
892.226	4592
892.349	4580
892.471	4470
892.594	4580
892.717	4596
892.839	4565
892.962	4561
893.085	4687
893.207	4626
893.33	4462
893.452	4550
893.575	4679
893.697	4580
893.819	4793
893.941	4843
894.064	4744
894.186	4550
894.308	4561
894.43	4755
894.552	4828
894.674	4725
894.796	4531
894.918	4569
895.04	4618
895.161	4736
895.283	4664
895.405	4630
895.526	4679
895.648	4710
895.769	4733
895.891	4740
896.012	4748
896.134	4763
896.255	4721
896.376	4672
896.498	4584
896.619	4714
896.74	4611
896.861	4675
896.982	4957
897.103	5121
897.224	4843
897.345	4729
897.466	4683
897.587	4736
897.708	4835
897.828	4793
897.949	4694
898.07	4550
898.19	4660
898.311	4828
898.431	4694
898.552	4759
898.672	4843
898.792	4843
898.913	4782
899.033	4649
899.153	4508
899.273	4451
899.393	4512
899.513	4519
899.633	4546
899.753	4580
899.873	4508
899.993	4569
900.113	4561
900.232	4626
900.352	4546
900.472	4546
900.591	4428
900.711	4516
900.83	4436
900.95	4577
901.069	4679
901.189	4531
901.308	4363
901.427	4344
901.546	4409
901.665	4497
901.784	4573
901.904	4379
902.023	4322
902.141	4192
902.26	4192
902.379	4348
902.498	4242
902.617	4246
902.735	4348
902.854	4375
902.973	4303
903.091	4196
903.21	4261
903.328	4348
903.446	4261
903.565	4246
903.683	4333
903.801	4276
903.919	4394
904.038	4421
904.156	4299
904.274	4443
904.392	4417
904.51	4436
904.627	4451
904.745	4622
904.863	4660
904.981	4428
905.098	4322
905.216	4379
905.334	4413
905.451	4421
905.569	4451
905.686	4611
905.803	4596
905.921	4405
906.038	4535
906.155	4481
906.272	4394
906.389	4436
906.506	4352
906.623	4409
906.74	4394
906.857	4360
906.974	4409
907.091	4573
907.208	4675
907.324	4588
907.441	4470
907.557	4310
907.674	4371
907.79	4280
907.907	4428
908.023	4478
908.139	4519
908.256	4436
908.372	4470
908.488	4470
908.604	4402
908.72	4352
908.836	4390
908.952	4375
909.068	4405
909.184	4554
909.3	4500
909.415	4607
909.531	4588
909.647	4337
909.762	4432
909.878	4344
909.993	4455
910.108	4462
910.224	4409
910.339	4531
910.454	4386
910.57	4341
910.685	4337
910.8	4687
910.915	4630
911.03	4500
911.145	4344
911.259	4333
911.374	4383
911.489	4344
911.604	4276
911.718	4185
911.833	4200
911.947	4120
912.062	3998
912.176	4257
912.291	4234
912.405	4234
912.519	4466
912.633	4519
912.748	4371
912.862	4303
912.976	4211
913.09	4109
913.204	4177
913.318	4253
913.431	4436
913.545	4383
913.659	4459
913.772	4375
913.886	4287
914	4238
914.113	4405
914.226	4402
914.34	4363
914.453	4227
914.566	4409
914.68	4303
914.793	4306
914.906	4181
915.019	4169
915.132	4074
915.245	4227
915.358	4196
915.47	4246
915.583	4280
915.696	4314
915.809	4402
915.921	4451
916.034	4257
916.146	4276
916.259	4249
916.371	4383
916.483	4367
916.595	4265
916.708	4303
916.82	4318
916.932	4371
917.044	4352
917.156	4363
917.268	4249
917.38	4257
917.491	4318
917.603	4318
917.715	4398
917.826	4466
917.938	4375
918.049	4215
918.161	4409
918.272	4535
918.384	4523
918.495	4470
918.606	4238
918.717	4238
918.828	4329
918.939	4390
919.05	4295
919.161	4272
919.272	4105
919.383	4227
919.494	4436
919.604	4630
919.715	4451
919.826	4344
919.936	4428
920.047	4546
920.157	4462
920.267	4717
920.378	4542
920.488	4474
920.598	4752
920.708	4923
920.818	4744
920.928	4717
921.038	4961
921.148	4908
921.258	4626
921.368	4531
921.477	4493
921.587	4455
921.697	4398
921.806	4542
921.916	4390
922.025	4280
922.134	4265
922.244	4211
922.353	4352
922.462	4166
922.571	4177
922.68	4025
922.789	3979
922.898	4036
923.007	3972
923.116	4143
923.224	4109
923.333	4063
923.442	3979
923.55	4002
923.659	4032
923.767	4025
923.876	3998
923.984	4112
924.092	3983
924.201	4128
924.309	4120
924.417	4124
924.525	4067
924.633	4131
924.741	4908
924.849	3930
924.956	4143
925.064	3979
925.172	3922
925.279	3987
925.387	4059
925.494	4044
925.602	4192
925.709	4162
925.816	4036
925.924	4105
926.031	4265
926.138	4219
926.245	4246
926.352	4063
926.459	4268
926.566	4303
926.673	4188
926.779	4082
926.886	4078
926.993	3972
927.099	3953
927.206	3949
927.312	3937
927.419	4040
927.525	4013
927.631	4078
927.737	3956
927.843	3941
927.95	3876
928.056	3949
928.162	3956
928.267	4032
928.373	4634
928.479	4116
928.585	3869
928.69	4036
928.796	4074
928.901	3987
929.007	3823
929.112	3987
929.218	3991
929.323	3941
929.428	3937
929.533	4150
929.638	3911
929.743	3945
929.848	4063
929.953	4013
930.058	3896
930.163	3774
930.267	3819
930.372	3998
930.477	3800
930.581	4074
930.685	3953
930.79	3797
930.894	3899
930.998	3907
931.103	4010
931.207	3736
931.311	3713
931.415	3671
931.519	3515
931.623	3507
