Data from test_V78500241_1247.txt Node
Date: Fri Mar 25 16:57:40 CST 2022
User: usil
Spectrometer: V785-0024
Trigger mode: 0
Integration Time (sec): 4.000000E-1
Scans to average: 1
Nonlinearity correction enabled: false
Boxcar width: 0
Storing dark spectrum: false
XAxis mode: Wavelengths
Number of Pixels in Spectrum: 1024
>>>>>Begin Spectral Data<<<<<
801.071	8058
801.214	8073
801.356	7951
801.499	7841
801.641	7795
801.783	7856
801.926	7925
802.068	7970
802.211	8008
802.353	8024
802.496	7837
802.638	7879
802.78	7989
802.923	7928
803.065	7921
803.208	7852
803.35	7940
803.492	8035
803.635	8157
803.777	8024
803.919	8111
804.061	8480
804.204	8202
804.346	8119
804.488	7967
804.63	8092
804.773	8027
804.915	8142
805.057	8328
805.199	8123
805.341	8218
805.483	8347
805.626	8240
805.768	8153
805.91	8259
806.052	8263
806.194	8103
806.336	8328
806.478	8119
806.62	8008
806.762	8191
806.904	8206
807.046	8457
807.188	8423
807.33	8282
807.472	8313
807.614	8126
807.756	8172
807.898	7951
808.04	7932
808.182	7890
808.324	7860
808.465	7947
808.607	8077
808.749	8123
808.891	8195
809.033	8282
809.174	8168
809.316	8077
809.458	8043
809.6	8039
809.741	7978
809.883	8039
810.025	8058
810.166	8084
810.308	8035
810.45	8054
810.591	7970
810.733	7738
810.875	7708
811.016	7578
811.158	7472
811.299	7616
811.441	7696
811.582	7742
811.724	7601
811.865	7544
812.007	7567
812.148	7537
812.29	7662
812.431	7795
812.573	7898
812.714	8043
812.855	8145
812.997	8237
813.138	8347
813.279	8210
813.421	8176
813.562	8035
813.703	7830
813.845	7761
813.986	7464
814.127	7282
814.268	7270
814.41	7213
814.551	7171
814.692	7255
814.833	7057
814.974	7137
815.115	7110
815.256	7004
815.397	6924
815.539	6954
815.68	6814
815.821	6894
815.962	6897
816.103	6795
816.244	6749
816.385	6616
816.526	6589
816.666	6513
816.807	6300
816.948	6437
817.089	6506
817.23	6433
817.371	6327
817.512	6353
817.653	6395
817.793	6376
817.934	6365
818.075	6490
818.216	6414
818.356	6361
818.497	6243
818.638	6068
818.778	6129
818.919	6155
819.06	6167
819.2	6296
819.341	6361
819.481	6395
819.622	6540
819.762	6787
819.903	6703
820.043	6601
820.184	6555
820.324	6597
820.465	6707
820.605	6738
820.746	6673
820.886	6479
821.026	6658
821.167	6726
821.307	6802
821.447	6749
821.588	6722
821.728	6578
821.868	6486
822.008	6292
822.149	6441
822.289	6365
822.429	6106
822.569	6095
822.709	6041
822.849	5954
822.99	5939
823.13	5931
823.27	5912
823.41	5756
823.55	5885
823.69	5710
823.83	5840
823.97	5615
824.11	5505
824.25	5554
824.389	5562
824.529	5604
824.669	5558
824.809	5634
824.949	5703
825.089	5634
825.228	5554
825.368	5440
825.508	5315
825.648	5402
825.787	5326
825.927	5349
826.067	5258
826.206	5303
826.346	5345
826.485	5398
826.625	5353
826.765	5570
826.904	5512
827.044	5315
827.183	5204
827.323	5140
827.462	5212
827.601	5178
827.741	5185
827.88	5250
828.02	5136
828.159	5258
828.298	5273
828.437	5364
828.577	5273
828.716	5493
828.855	5357
828.994	5151
829.134	5113
829.273	5155
829.412	5159
829.551	5178
829.69	5113
829.829	5269
829.968	5337
830.107	5250
830.246	5242
830.385	5216
830.524	5147
830.663	5029
830.802	4995
830.941	4923
831.08	4900
831.219	4972
831.357	5006
831.496	5170
831.635	4938
831.774	4828
831.913	4812
832.051	4752
832.19	4793
832.329	4831
832.467	4687
832.606	4672
832.744	4733
832.883	4782
833.022	4744
833.16	4790
833.299	4843
833.437	4797
833.576	4835
833.714	4870
833.852	4908
833.991	4930
834.129	4957
834.267	4949
834.406	4972
834.544	4965
834.682	4968
834.821	4946
834.959	5128
835.097	5003
835.235	5117
835.373	5094
835.511	5102
835.65	5010
835.788	4987
835.926	4923
836.064	4896
836.202	4927
836.34	5174
836.478	5193
836.615	5155
836.753	5258
836.891	5242
837.029	5269
837.167	5178
837.305	5143
837.443	5102
837.58	5018
837.718	5220
837.856	5208
837.993	5132
838.131	5254
838.269	5151
838.406	5227
838.544	5102
838.681	5067
838.819	5067
838.956	4930
839.094	4889
839.231	4987
839.369	5079
839.506	5410
839.643	5322
839.781	5045
839.918	5018
840.055	5102
840.193	5075
840.33	5083
840.467	5121
840.604	5113
840.742	5417
840.879	5090
841.016	5083
841.153	5197
841.29	5364
841.427	5292
841.564	5292
841.701	5360
841.838	5269
841.975	5223
842.112	5254
842.249	5109
842.385	5136
842.522	5307
842.659	5132
842.796	5128
842.933	5189
843.069	5185
843.206	5143
843.343	5303
843.479	5216
843.616	5318
843.752	5041
843.889	4991
844.025	5220
844.162	4984
844.298	5216
844.435	5086
844.571	5025
844.708	5166
844.844	5357
844.98	5315
845.117	5292
845.253	5178
845.389	5048
845.525	5197
845.661	5178
845.798	5022
845.934	5086
846.07	5056
846.206	5212
846.342	5296
846.478	5121
846.614	5045
846.75	4908
846.886	4961
847.022	5162
847.158	5041
847.294	5060
847.429	5147
847.565	5045
847.701	5315
847.837	4854
847.972	4744
848.108	4987
848.244	4938
848.379	4752
848.515	4763
848.65	4752
848.786	4725
848.921	4763
849.057	4858
849.192	4866
849.328	4786
849.463	4793
849.598	4801
849.734	4797
849.869	4714
850.004	4611
850.14	4641
850.275	4596
850.41	4531
850.545	4577
850.68	4615
850.815	4565
850.95	4653
851.085	4835
851.22	4797
851.355	4660
851.49	4611
851.625	4630
851.76	4626
851.895	4538
852.03	4500
852.165	4611
852.299	4729
852.434	4767
852.569	4744
852.703	4733
852.838	4904
852.973	4900
853.107	4911
853.242	4771
853.376	4622
853.511	4584
853.645	4645
853.78	4801
853.914	4710
854.048	4637
854.183	4675
854.317	4630
854.451	4862
854.585	4679
854.72	4653
854.854	4714
854.988	4607
855.122	4622
855.256	4493
855.39	4637
855.524	4778
855.658	4691
855.792	4694
855.926	4729
856.06	4752
856.194	4801
856.327	4679
856.461	4580
856.595	4626
856.729	4668
856.862	4714
856.996	4729
857.13	4717
857.263	4790
857.397	4774
857.53	4653
857.664	4706
857.797	4801
857.931	4812
858.064	4691
858.197	4733
858.331	4656
858.464	4588
858.597	4489
858.731	4626
858.864	4675
858.997	4618
859.13	4618
859.263	4679
859.396	4683
859.529	4573
859.662	4516
859.795	4538
859.928	4565
860.061	4733
860.194	4820
860.327	4615
860.46	4599
860.592	4767
860.725	4736
860.858	4736
860.99	4615
861.123	4512
861.256	4481
861.388	4607
861.521	5258
861.653	4508
861.786	4451
861.918	4466
862.05	4531
862.183	4466
862.315	4626
862.447	4634
862.58	4527
862.712	4356
862.844	4291
862.976	4432
863.108	4459
863.24	4866
863.372	4367
863.504	4474
863.636	4394
863.768	4474
863.9	4462
864.032	4303
864.164	4375
864.296	4478
864.428	4516
864.559	4573
864.691	4531
864.823	4531
864.954	4493
865.086	4485
865.217	4459
865.349	4421
865.48	4451
865.612	4493
865.743	4645
865.875	4440
866.006	4413
866.137	4447
866.269	4436
866.4	4386
866.531	4390
866.662	4337
866.793	4421
866.924	4424
867.055	4500
867.186	4432
867.317	4379
867.448	4405
867.579	4417
867.71	4383
867.841	4329
867.972	4440
868.103	4447
868.233	4451
868.364	4394
868.495	4493
868.625	4596
868.756	4710
868.886	4561
869.017	4592
869.147	4767
869.278	4790
869.408	4668
869.539	4649
869.669	4691
869.799	4691
869.929	4714
870.06	4744
870.19	4972
870.32	4927
870.45	4911
870.58	5052
870.71	5071
870.84	5056
870.97	4965
871.1	4805
871.23	5159
871.36	5124
871.489	5086
871.619	5029
871.749	5094
871.879	5098
872.008	5178
872.138	5067
872.267	4965
872.397	4843
872.526	4790
872.656	4706
872.785	4820
872.915	4946
873.044	5018
873.173	4968
873.303	4949
873.432	4946
873.561	4961
873.69	4847
873.819	4850
873.948	4824
874.077	4805
874.206	4763
874.335	4797
874.464	4915
874.593	5029
874.722	4976
874.851	5098
874.979	5086
875.108	5025
875.237	4919
875.365	4908
875.494	4854
875.623	4942
875.751	4809
875.88	4877
876.008	4957
876.136	5010
876.265	5178
876.393	5353
876.521	5288
876.65	5204
876.778	5216
876.906	5052
877.034	5014
877.162	5029
877.29	5010
877.418	5067
877.546	5037
877.674	5075
877.802	5056
877.93	4976
878.058	4934
878.185	4904
878.313	4949
878.441	4938
878.568	4843
878.696	4854
878.824	4972
878.951	4980
879.079	5105
879.206	5303
879.333	5056
879.461	4949
879.588	4972
879.715	5151
879.842	5166
879.97	5006
880.097	4797
880.224	4721
880.351	4850
880.478	4778
880.605	4793
880.732	4786
880.859	5064
880.986	4908
881.112	4911
881.239	4717
881.366	4702
881.493	4592
881.619	4637
881.746	4675
881.872	4664
881.999	4618
882.125	4687
882.252	4725
882.378	4790
882.505	4949
882.631	4809
882.757	4675
882.883	4740
883.01	4725
883.136	4653
883.262	4603
883.388	4611
883.514	4816
883.64	4843
883.766	4763
883.892	4645
884.018	4664
884.143	4873
884.269	4968
884.395	4656
884.52	4637
884.646	4622
884.772	4554
884.897	4538
885.023	4679
885.148	4774
885.274	4885
885.399	4786
885.524	4656
885.65	4691
885.775	4729
885.9	4714
886.025	4858
886.15	4763
886.275	4714
886.4	4691
886.525	4649
886.65	4679
886.775	4668
886.9	4934
887.025	5014
887.149	4854
887.274	4668
887.399	4573
887.523	4584
887.648	4573
887.773	4565
887.897	4694
888.021	4790
888.146	4672
888.27	4805
888.395	4881
888.519	4763
888.643	4801
888.767	4809
888.891	4649
889.015	4615
889.139	4596
889.263	4573
889.387	4729
889.511	4873
889.635	4786
889.759	4603
889.883	4615
890.006	4763
890.13	4820
890.254	4580
890.377	4634
890.501	4554
890.624	4504
890.748	4664
890.871	4523
890.995	4455
891.118	4379
891.241	4497
891.364	4516
891.488	4645
891.611	4474
891.734	4554
891.857	4603
891.98	4550
892.103	4626
892.226	4550
892.349	4558
892.471	4462
892.594	4573
892.717	4565
892.839	4558
892.962	4596
893.085	4649
893.207	4596
893.33	4421
893.452	4447
893.575	4611
893.697	4554
893.819	4763
893.941	4828
894.064	4755
894.186	4546
894.308	4603
894.43	4755
894.552	4816
894.674	4736
894.796	4558
894.918	4622
895.04	4577
895.161	4656
895.283	4694
895.405	4565
895.526	4664
895.648	4653
895.769	4664
895.891	4702
896.012	4736
896.134	4672
896.255	4668
896.376	4641
896.498	4607
896.619	4679
896.74	4580
896.861	4637
896.982	4911
897.103	5079
897.224	4759
897.345	4755
897.466	4668
897.587	4721
897.708	4858
897.828	4729
897.949	4664
898.07	4538
898.19	4637
898.311	4843
898.431	4664
898.552	4725
898.672	4820
898.792	4816
898.913	4771
899.033	4561
899.153	4527
899.273	4470
899.393	4455
899.513	4478
899.633	4531
899.753	4512
899.873	4527
899.993	4542
900.113	4527
900.232	4584
900.352	4504
900.472	4417
900.591	4409
900.711	4485
900.83	4443
900.95	4569
901.069	4656
901.189	4554
901.308	4367
901.427	4318
901.546	4337
901.665	4440
901.784	4516
901.904	4363
902.023	4325
902.141	4131
902.26	4158
902.379	4325
902.498	4253
902.617	4173
902.735	4306
902.854	4367
902.973	4306
903.091	4166
903.21	4215
903.328	4284
903.446	4257
903.565	4223
903.683	4329
903.801	4265
903.919	4371
904.038	4398
904.156	4333
904.274	4459
904.392	4428
904.51	4451
904.627	4462
904.745	4603
904.863	4641
904.981	4383
905.098	4299
905.216	4318
905.334	4421
905.451	4432
905.569	4417
905.686	4500
905.803	4538
905.921	4360
906.038	4554
906.155	4440
906.272	4390
906.389	4493
906.506	4383
906.623	4375
906.74	4428
906.857	4287
906.974	4371
907.091	4550
907.208	4672
907.324	4630
907.441	4485
907.557	4306
907.674	4318
907.79	4287
907.907	4341
908.023	4470
908.139	4493
908.256	4432
908.372	4470
908.488	4504
908.604	4360
908.72	4314
908.836	4424
908.952	4367
909.068	4398
909.184	4569
909.3	4474
909.415	4596
909.531	4565
909.647	4310
909.762	4360
909.878	4322
909.993	4451
910.108	4432
910.224	4417
910.339	4466
910.454	4432
910.57	4337
910.685	4318
910.8	4618
910.915	4653
911.03	4440
911.145	4367
911.259	4348
911.374	4363
911.489	4303
911.604	4280
911.718	4154
911.833	4211
911.947	4074
912.062	4086
912.176	4234
912.291	4227
912.405	4265
912.519	4440
912.633	4508
912.748	4379
912.862	4314
912.976	4185
913.09	4120
913.204	4158
913.318	4246
913.431	4360
913.545	4367
913.659	4481
913.772	4303
913.886	4223
914	4230
914.113	4348
914.226	4455
914.34	4383
914.453	4261
914.566	4413
914.68	4310
914.793	4341
914.906	4131
915.019	4169
915.132	4048
915.245	4173
915.358	4200
915.47	4242
915.583	4276
915.696	4299
915.809	4443
915.921	4417
916.034	4261
916.146	4276
916.259	4223
916.371	4386
916.483	4344
916.595	4257
916.708	4325
916.82	4325
916.932	4261
917.044	4337
917.156	4299
917.268	4242
917.38	4246
917.491	4265
917.603	4314
917.715	4443
917.826	4428
917.938	4360
918.049	4204
918.161	4390
918.272	4512
918.384	4535
918.495	4481
918.606	4325
918.717	4249
918.828	4337
918.939	4360
919.05	4246
919.161	4325
919.272	4200
919.383	4265
919.494	4455
919.604	4599
919.715	4440
919.826	4348
919.936	4348
920.047	4542
920.157	4447
920.267	4672
920.378	4519
920.488	4497
920.598	4717
920.708	4866
920.818	4733
920.928	4790
921.038	4934
921.148	4923
921.258	4622
921.368	4550
921.477	4493
921.587	4497
921.697	4371
921.806	4497
921.916	4398
922.025	4257
922.134	4276
922.244	4253
922.353	4337
922.462	4154
922.571	4090
922.68	3998
922.789	3991
922.898	4044
923.007	3994
923.116	4074
923.224	4025
923.333	4067
923.442	3956
923.55	3994
923.659	4002
923.767	4055
923.876	3987
923.984	4135
924.092	3994
924.201	4048
924.309	4143
924.417	4078
924.525	4055
924.633	4067
924.741	5033
924.849	3960
924.956	4128
925.064	3975
925.172	3884
925.279	3983
925.387	4082
925.494	4120
925.602	4188
925.709	4185
925.816	4051
925.924	4105
926.031	4196
926.138	4158
926.245	4242
926.352	4078
926.459	4249
926.566	4295
926.673	4143
926.779	4074
926.886	4055
926.993	3968
927.099	3945
927.206	3930
927.312	3991
927.419	4044
927.525	4090
927.631	4059
927.737	3979
927.843	3975
927.95	3846
928.056	3941
928.162	3949
928.267	4059
928.373	4717
928.479	4112
928.585	3884
928.69	4010
928.796	4120
928.901	3930
929.007	3819
929.112	3983
929.218	3991
929.323	3922
929.428	3956
929.533	4124
929.638	3930
929.743	3964
929.848	4067
929.953	3945
930.058	3926
930.163	3781
930.267	3846
930.372	3945
930.477	3835
930.581	4032
930.685	3945
930.79	3808
930.894	3896
930.998	3842
931.103	4017
931.207	3686
931.311	3644
931.415	3656
931.519	3534
931.623	3553
