Data from test_V78500241_256.txt Node
Date: Fri Mar 25 16:50:46 CST 2022
User: usil
Spectrometer: V785-0024
Trigger mode: 0
Integration Time (sec): 4.000000E-1
Scans to average: 1
Nonlinearity correction enabled: false
Boxcar width: 0
Storing dark spectrum: false
XAxis mode: Wavelengths
Number of Pixels in Spectrum: 1024
>>>>>Begin Spectral Data<<<<<
801.071	8069
801.214	8077
801.356	7898
801.499	7868
801.641	7803
801.783	7852
801.926	7947
802.068	7986
802.211	7978
802.353	8054
802.496	7906
802.638	7921
802.78	7932
802.923	7978
803.065	7909
803.208	7856
803.35	7974
803.492	8096
803.635	8088
803.777	7986
803.919	8054
804.061	8476
804.204	8164
804.346	8069
804.488	7970
804.63	8130
804.773	8046
804.915	8100
805.057	8317
805.199	8153
805.341	8145
805.483	8305
805.626	8191
805.768	8142
805.91	8187
806.052	8176
806.194	8092
806.336	8328
806.478	8142
806.62	8084
806.762	8157
806.904	8240
807.046	8434
807.188	8389
807.33	8320
807.472	8385
807.614	8119
807.756	8119
807.898	7982
808.04	7879
808.182	7989
808.324	7925
808.465	7906
808.607	8100
808.749	8077
808.891	8240
809.033	8374
809.174	8256
809.316	8096
809.458	8088
809.6	8035
809.741	8031
809.883	8039
810.025	8054
810.166	8115
810.308	8103
810.45	8050
810.591	7875
810.733	7746
810.875	7620
811.016	7556
811.158	7499
811.299	7620
811.441	7712
811.582	7651
811.724	7563
811.865	7613
812.007	7609
812.148	7582
812.29	7632
812.431	7742
812.573	7917
812.714	7921
812.855	8092
812.997	8240
813.138	8313
813.279	8142
813.421	8130
813.562	7989
813.703	7928
813.845	7765
813.986	7449
814.127	7343
814.268	7247
814.41	7228
814.551	7175
814.692	7168
814.833	7053
814.974	7065
815.115	7084
815.256	6977
815.397	6966
815.539	6989
815.68	6825
815.821	6856
815.962	6909
816.103	6894
816.244	6760
816.385	6650
816.526	6696
816.666	6544
816.807	6350
816.948	6391
817.089	6475
817.23	6429
817.371	6399
817.512	6361
817.653	6475
817.793	6331
817.934	6388
818.075	6429
818.216	6486
818.356	6403
818.497	6235
818.638	6087
818.778	6125
818.919	6152
819.06	6155
819.2	6380
819.341	6277
819.481	6342
819.622	6528
819.762	6719
819.903	6700
820.043	6551
820.184	6570
820.324	6544
820.465	6654
820.605	6673
820.746	6639
820.886	6532
821.026	6688
821.167	6669
821.307	6814
821.447	6764
821.588	6722
821.728	6559
821.868	6498
822.008	6327
822.149	6380
822.289	6388
822.429	6136
822.569	6125
822.709	6133
822.849	5912
822.99	5935
823.13	5939
823.27	5969
823.41	5828
823.55	5802
823.69	5813
823.83	5836
823.97	5714
824.11	5554
824.25	5558
824.389	5554
824.529	5589
824.669	5535
824.809	5653
824.949	5695
825.089	5581
825.228	5543
825.368	5436
825.508	5349
825.648	5364
825.787	5368
825.927	5433
826.067	5353
826.206	5349
826.346	5372
826.485	5383
826.625	5379
826.765	5528
826.904	5486
827.044	5242
827.183	5170
827.323	5124
827.462	5261
827.601	5193
827.741	5174
827.88	5220
828.02	5178
828.159	5261
828.298	5334
828.437	5398
828.577	5280
828.716	5493
828.855	5398
828.994	5174
829.134	5159
829.273	5239
829.412	5181
829.551	5170
829.69	5227
829.829	5292
829.968	5334
830.107	5303
830.246	5307
830.385	5216
830.524	5162
830.663	5064
830.802	5010
830.941	4923
831.08	4889
831.219	5006
831.357	4961
831.496	5227
831.635	4911
831.774	4892
831.913	4835
832.051	4767
832.19	4763
832.329	4847
832.467	4683
832.606	4618
832.744	4767
832.883	4729
833.022	4740
833.16	4812
833.299	4801
833.437	4854
833.576	4870
833.714	4850
833.852	4866
833.991	4915
834.129	4965
834.267	4938
834.406	4904
834.544	4987
834.682	4961
834.821	5018
834.959	5155
835.097	5014
835.235	5170
835.373	5124
835.511	5098
835.65	5033
835.788	5037
835.926	4904
836.064	4881
836.202	4930
836.34	5181
836.478	5227
836.615	5098
836.753	5261
836.891	5292
837.029	5303
837.167	5181
837.305	5151
837.443	5136
837.58	5056
837.718	5258
837.856	5193
837.993	5155
838.131	5261
838.269	5254
838.406	5277
838.544	5212
838.681	5041
838.819	4995
838.956	4873
839.094	4946
839.231	5048
839.369	5098
839.506	5482
839.643	5269
839.781	5113
839.918	5037
840.055	5090
840.193	5064
840.33	5117
840.467	5151
840.604	5166
840.742	5467
840.879	5105
841.016	5090
841.153	5174
841.29	5391
841.427	5330
841.564	5376
841.701	5364
841.838	5284
841.975	5220
842.112	5277
842.249	5143
842.385	5185
842.522	5349
842.659	5216
842.796	5162
842.933	5197
843.069	5166
843.206	5178
843.343	5303
843.479	5246
843.616	5360
843.752	5029
843.889	5048
844.025	5189
844.162	5010
844.298	5250
844.435	5098
844.571	5052
844.708	5220
844.844	5311
844.98	5307
845.117	5288
845.253	5098
845.389	5128
845.525	5181
845.661	5170
845.798	5071
845.934	5090
846.07	5060
846.206	5223
846.342	5292
846.478	5197
846.614	5006
846.75	4953
846.886	4980
847.022	5136
847.158	5045
847.294	5037
847.429	5109
847.565	5045
847.701	5326
847.837	4843
847.972	4778
848.108	4961
848.244	4949
848.379	4793
848.515	4736
848.65	4725
848.786	4744
848.921	4801
849.057	4881
849.192	4911
849.328	4820
849.463	4889
849.598	4797
849.734	4771
849.869	4698
850.004	4645
850.14	4691
850.275	4592
850.41	4481
850.545	4569
850.68	4603
850.815	4615
850.95	4630
851.085	4831
851.22	4782
851.355	4698
851.49	4634
851.625	4660
851.76	4634
851.895	4596
852.03	4561
852.165	4683
852.299	4740
852.434	4763
852.569	4755
852.703	4774
852.838	4854
852.973	4915
853.107	4908
853.242	4763
853.376	4653
853.511	4569
853.645	4607
853.78	4850
853.914	4729
854.048	4641
854.183	4710
854.317	4706
854.451	4809
854.585	4675
854.72	4653
854.854	4740
854.988	4634
855.122	4656
855.256	4546
855.39	4656
855.524	4774
855.658	4767
855.792	4679
855.926	4812
856.06	4759
856.194	4809
856.327	4706
856.461	4596
856.595	4634
856.729	4656
856.862	4763
856.996	4683
857.13	4725
857.263	4759
857.397	4767
857.53	4653
857.664	4774
857.797	4771
857.931	4812
858.064	4694
858.197	4736
858.331	4649
858.464	4645
858.597	4561
858.731	4698
858.864	4656
858.997	4615
859.13	4668
859.263	4679
859.396	4725
859.529	4588
859.662	4569
859.795	4615
859.928	4622
860.061	4790
860.194	4767
860.327	4622
860.46	4546
860.592	4691
860.725	4706
860.858	4767
860.99	4542
861.123	4565
861.256	4561
861.388	4588
861.521	5429
861.653	4481
861.786	4428
861.918	4451
862.05	4554
862.183	4561
862.315	4607
862.447	4611
862.58	4546
862.712	4413
862.844	4322
862.976	4436
863.108	4481
863.24	4877
863.372	4363
863.504	4443
863.636	4440
863.768	4500
863.9	4424
864.032	4375
864.164	4413
864.296	4516
864.428	4531
864.559	4565
864.691	4546
864.823	4462
864.954	4497
865.086	4538
865.217	4428
865.349	4402
865.48	4466
865.612	4516
865.743	4626
865.875	4504
866.006	4443
866.137	4466
866.269	4405
866.4	4462
866.531	4470
866.662	4409
866.793	4417
866.924	4447
867.055	4519
867.186	4489
867.317	4367
867.448	4379
867.579	4417
867.71	4417
867.841	4409
867.972	4527
868.103	4493
868.233	4516
868.364	4459
868.495	4508
868.625	4683
868.756	4736
868.886	4580
869.017	4698
869.147	4771
869.278	4771
869.408	4714
869.539	4683
869.669	4733
869.799	4672
869.929	4778
870.06	4748
870.19	4957
870.32	4870
870.45	4946
870.58	5045
870.71	5143
870.84	5025
870.97	4892
871.1	4889
871.23	5162
871.36	5121
871.489	5037
871.619	5056
871.749	5064
871.879	5056
872.008	5185
872.138	5033
872.267	4957
872.397	4854
872.526	4831
872.656	4725
872.785	4824
872.915	4987
873.044	5022
873.173	4953
873.303	4968
873.432	4987
873.561	4976
873.69	4873
873.819	4835
873.948	4934
874.077	4820
874.206	4778
874.335	4831
874.464	4957
874.593	5071
874.722	4980
874.851	5113
874.979	5098
875.108	5083
875.237	4911
875.365	4881
875.494	4927
875.623	4999
875.751	4812
875.88	4892
876.008	4991
876.136	5052
876.265	5193
876.393	5296
876.521	5254
876.65	5223
876.778	5178
876.906	5056
877.034	4987
877.162	5006
877.29	5006
877.418	5041
877.546	5056
877.674	5006
877.802	5064
877.93	5010
878.058	4946
878.185	4862
878.313	4965
878.441	4976
878.568	4843
878.696	4873
878.824	4995
878.951	5003
879.079	5159
879.206	5303
879.333	5075
879.461	4957
879.588	5006
879.715	5086
879.842	5204
879.97	5006
880.097	4774
880.224	4733
880.351	4843
880.478	4816
880.605	4858
880.732	4828
880.859	5174
880.986	4911
881.112	4896
881.239	4740
881.366	4656
881.493	4611
881.619	4592
881.746	4649
881.872	4653
881.999	4675
882.125	4672
882.252	4790
882.378	4820
882.505	4984
882.631	4824
882.757	4683
882.883	4744
883.01	4736
883.136	4694
883.262	4626
883.388	4615
883.514	4790
883.64	4854
883.766	4801
883.892	4664
884.018	4725
884.143	4919
884.269	4976
884.395	4668
884.52	4611
884.646	4721
884.772	4565
884.897	4596
885.023	4733
885.148	4816
885.274	4854
885.399	4824
885.524	4702
885.65	4702
885.775	4721
885.9	4721
886.025	4862
886.15	4812
886.275	4725
886.4	4694
886.525	4752
886.65	4721
886.775	4706
886.9	4953
887.025	5014
887.149	4774
887.274	4626
887.399	4637
887.523	4626
887.648	4603
887.773	4630
887.897	4805
888.021	4790
888.146	4675
888.27	4866
888.395	4927
888.519	4797
888.643	4850
888.767	4854
888.891	4679
889.015	4603
889.139	4668
889.263	4592
889.387	4786
889.511	4870
889.635	4835
889.759	4660
889.883	4664
890.006	4736
890.13	4805
890.254	4596
890.377	4653
890.501	4546
890.624	4508
890.748	4649
890.871	4512
890.995	4371
891.118	4413
891.241	4542
891.364	4554
891.488	4637
891.611	4542
891.734	4535
891.857	4622
891.98	4550
892.103	4687
892.226	4611
892.349	4493
892.471	4424
892.594	4558
892.717	4596
892.839	4577
892.962	4607
893.085	4675
893.207	4584
893.33	4504
893.452	4523
893.575	4653
893.697	4519
893.819	4831
893.941	4805
894.064	4778
894.186	4584
894.308	4504
894.43	4702
894.552	4828
894.674	4755
894.796	4542
894.918	4588
895.04	4607
895.161	4668
895.283	4664
895.405	4561
895.526	4634
895.648	4679
895.769	4668
895.891	4733
896.012	4759
896.134	4729
896.255	4679
896.376	4672
896.498	4664
896.619	4641
896.74	4599
896.861	4611
896.982	4949
897.103	5098
897.224	4835
897.345	4736
897.466	4714
897.587	4733
897.708	4862
897.828	4763
897.949	4687
898.07	4577
898.19	4645
898.311	4831
898.431	4714
898.552	4721
898.672	4824
898.792	4850
898.913	4687
899.033	4596
899.153	4531
899.273	4466
899.393	4474
899.513	4561
899.633	4588
899.753	4588
899.873	4535
899.993	4618
900.113	4599
900.232	4580
900.352	4508
900.472	4523
900.591	4405
900.711	4504
900.83	4443
900.95	4596
901.069	4672
901.189	4538
901.308	4428
901.427	4360
901.546	4413
901.665	4493
901.784	4531
901.904	4367
902.023	4284
902.141	4230
902.26	4177
902.379	4325
902.498	4287
902.617	4223
902.735	4413
902.854	4367
902.973	4356
903.091	4280
903.21	4230
903.328	4284
903.446	4299
903.565	4238
903.683	4367
903.801	4272
903.919	4352
904.038	4432
904.156	4341
904.274	4478
904.392	4421
904.51	4481
904.627	4489
904.745	4561
904.863	4630
904.981	4424
905.098	4284
905.216	4379
905.334	4398
905.451	4383
905.569	4451
905.686	4592
905.803	4561
905.921	4371
906.038	4535
906.155	4470
906.272	4409
906.389	4489
906.506	4390
906.623	4379
906.74	4344
906.857	4299
906.974	4432
907.091	4573
907.208	4691
907.324	4618
907.441	4558
907.557	4386
907.674	4402
907.79	4344
907.907	4390
908.023	4481
908.139	4485
908.256	4383
908.372	4459
908.488	4474
908.604	4322
908.72	4329
908.836	4417
908.952	4379
909.068	4398
909.184	4550
909.3	4481
909.415	4535
909.531	4542
909.647	4394
909.762	4394
909.878	4344
909.993	4402
910.108	4367
910.224	4413
910.339	4489
910.454	4424
910.57	4356
910.685	4348
910.8	4672
910.915	4561
911.03	4485
911.145	4329
911.259	4291
911.374	4417
911.489	4295
911.604	4310
911.718	4177
911.833	4192
911.947	4074
912.062	4036
912.176	4234
912.291	4272
912.405	4276
912.519	4386
912.633	4512
912.748	4413
912.862	4322
912.976	4242
913.09	4105
913.204	4150
913.318	4284
913.431	4386
913.545	4329
913.659	4466
913.772	4405
913.886	4223
914	4272
914.113	4367
914.226	4421
914.34	4367
914.453	4253
914.566	4421
914.68	4306
914.793	4318
914.906	4150
915.019	4158
915.132	4078
915.245	4162
915.358	4234
915.47	4204
915.583	4303
915.696	4371
915.809	4462
915.921	4474
916.034	4238
916.146	4272
916.259	4242
916.371	4413
916.483	4363
916.595	4253
916.708	4310
916.82	4344
916.932	4314
917.044	4371
917.156	4310
917.268	4169
917.38	4299
917.491	4261
917.603	4325
917.715	4394
917.826	4417
917.938	4383
918.049	4234
918.161	4428
918.272	4558
918.384	4470
918.495	4428
918.606	4318
918.717	4238
918.828	4371
918.939	4333
919.05	4223
919.161	4337
919.272	4135
919.383	4227
919.494	4436
919.604	4615
919.715	4413
919.826	4352
919.936	4390
920.047	4523
920.157	4508
920.267	4725
920.378	4561
920.488	4500
920.598	4733
920.708	4881
920.818	4763
920.928	4725
921.038	4972
921.148	4915
921.258	4637
921.368	4588
921.477	4485
921.587	4481
921.697	4386
921.806	4569
921.916	4424
922.025	4284
922.134	4238
922.244	4253
922.353	4295
922.462	4147
922.571	4143
922.68	3972
922.789	3994
922.898	4021
923.007	3972
923.116	4105
923.224	4109
923.333	4082
923.442	4029
923.55	4002
923.659	4017
923.767	4090
923.876	3994
923.984	4131
924.092	3987
924.201	4067
924.309	4105
924.417	4116
924.525	4086
924.633	4090
924.741	5105
924.849	3937
924.956	4147
925.064	3968
925.172	3899
925.279	3972
925.387	4071
925.494	4051
925.602	4185
925.709	4215
925.816	4059
925.924	4116
926.031	4261
926.138	4196
926.245	4223
926.352	4078
926.459	4295
926.566	4276
926.673	4169
926.779	4109
926.886	4097
926.993	3979
927.099	3937
927.206	3915
927.312	3960
927.419	4093
927.525	4032
927.631	4124
927.737	4021
927.843	3926
927.95	3835
928.056	4010
928.162	4002
928.267	4040
928.373	4615
928.479	4116
928.585	3899
928.69	4006
928.796	4055
928.901	3975
929.007	3865
929.112	3983
929.218	3991
929.323	3960
929.428	3934
929.533	4131
929.638	3915
929.743	3926
929.848	4078
929.953	4032
930.058	3994
930.163	3770
930.267	3816
930.372	3941
930.477	3850
930.581	4036
930.685	3972
930.79	3846
930.894	3842
930.998	3857
931.103	4074
931.207	3713
931.311	3717
931.415	3671
931.519	3542
931.623	3553
