Data from test_V78500241_537.txt Node
Date: Fri Mar 25 16:52:44 CST 2022
User: usil
Spectrometer: V785-0024
Trigger mode: 0
Integration Time (sec): 4.000000E-1
Scans to average: 1
Nonlinearity correction enabled: false
Boxcar width: 0
Storing dark spectrum: false
XAxis mode: Wavelengths
Number of Pixels in Spectrum: 1024
>>>>>Begin Spectral Data<<<<<
801.071	8008
801.214	8031
801.356	7890
801.499	7792
801.641	7780
801.783	7868
801.926	7959
802.068	7963
802.211	7967
802.353	8046
802.496	7940
802.638	7879
802.78	7883
802.923	7906
803.065	7807
803.208	7814
803.35	7951
803.492	8012
803.635	8172
803.777	8027
803.919	8065
804.061	8415
804.204	8153
804.346	8016
804.488	7928
804.63	8069
804.773	7986
804.915	8168
805.057	8294
805.199	8225
805.341	8202
805.483	8195
805.626	8218
805.768	8035
805.91	8145
806.052	8221
806.194	8130
806.336	8294
806.478	8096
806.62	8161
806.762	8164
806.904	8229
807.046	8476
807.188	8339
807.33	8267
807.472	8290
807.614	8130
807.756	8145
807.898	8035
808.04	7887
808.182	7932
808.324	7871
808.465	7940
808.607	8084
808.749	8180
808.891	8294
809.033	8240
809.174	8191
809.316	8058
809.458	8027
809.6	7986
809.741	8001
809.883	8062
810.025	8149
810.166	8081
810.308	8005
810.45	7951
810.591	7841
810.733	7742
810.875	7696
811.016	7601
811.158	7491
811.299	7674
811.441	7689
811.582	7647
811.724	7594
811.865	7559
812.007	7609
812.148	7601
812.29	7700
812.431	7727
812.573	7849
812.714	8054
812.855	8176
812.997	8240
813.138	8400
813.279	8210
813.421	8142
813.562	7989
813.703	7913
813.845	7750
813.986	7582
814.127	7320
814.268	7297
814.41	7282
814.551	7209
814.692	7187
814.833	7065
814.974	7126
815.115	7095
815.256	6935
815.397	6920
815.539	6989
815.68	6810
815.821	6825
815.962	6920
816.103	6867
816.244	6806
816.385	6639
816.526	6642
816.666	6525
816.807	6308
816.948	6471
817.089	6445
817.23	6407
817.371	6418
817.512	6403
817.653	6418
817.793	6338
817.934	6388
818.075	6471
818.216	6494
818.356	6380
818.497	6289
818.638	6095
818.778	6133
818.919	6155
819.06	6125
819.2	6304
819.341	6277
819.481	6338
819.622	6513
819.762	6734
819.903	6741
820.043	6612
820.184	6582
820.324	6578
820.465	6662
820.605	6669
820.746	6646
820.886	6471
821.026	6665
821.167	6696
821.307	6791
821.447	6745
821.588	6662
821.728	6525
821.868	6464
822.008	6334
822.149	6429
822.289	6319
822.429	6125
822.569	6068
822.709	6140
822.849	5927
822.99	5931
823.13	5916
823.27	5942
823.41	5756
823.55	5771
823.69	5794
823.83	5809
823.97	5680
824.11	5535
824.25	5573
824.389	5558
824.529	5581
824.669	5535
824.809	5619
824.949	5680
825.089	5615
825.228	5505
825.368	5410
825.508	5349
825.648	5387
825.787	5364
825.927	5372
826.067	5322
826.206	5288
826.346	5379
826.485	5402
826.625	5429
826.765	5566
826.904	5440
827.044	5242
827.183	5193
827.323	5132
827.462	5220
827.601	5178
827.741	5216
827.88	5288
828.02	5147
828.159	5216
828.298	5360
828.437	5376
828.577	5296
828.716	5497
828.855	5337
828.994	5151
829.134	5162
829.273	5181
829.412	5162
829.551	5151
829.69	5189
829.829	5292
829.968	5357
830.107	5307
830.246	5227
830.385	5185
830.524	5105
830.663	5064
830.802	4987
830.941	4892
831.08	4915
831.219	4980
831.357	4991
831.496	5227
831.635	4976
831.774	4847
831.913	4915
832.051	4714
832.19	4752
832.329	4850
832.467	4683
832.606	4653
832.744	4687
832.883	4710
833.022	4702
833.16	4748
833.299	4835
833.437	4782
833.576	4809
833.714	4828
833.852	4892
833.991	4896
834.129	5025
834.267	4961
834.406	4885
834.544	4965
834.682	5003
834.821	4984
834.959	5189
835.097	4949
835.235	5181
835.373	5067
835.511	5151
835.65	5029
835.788	5010
835.926	4885
836.064	4854
836.202	4908
836.34	5105
836.478	5254
836.615	5113
836.753	5174
836.891	5254
837.029	5261
837.167	5239
837.305	5143
837.443	5189
837.58	5067
837.718	5315
837.856	5170
837.993	5113
838.131	5212
838.269	5220
838.406	5231
838.544	5220
838.681	5006
838.819	5006
838.956	4938
839.094	4980
839.231	4961
839.369	5067
839.506	5387
839.643	5258
839.781	5060
839.918	5014
840.055	5121
840.193	5117
840.33	5102
840.467	5109
840.604	5208
840.742	5421
840.879	5045
841.016	5094
841.153	5212
841.29	5410
841.427	5376
841.564	5353
841.701	5372
841.838	5261
841.975	5269
842.112	5292
842.249	5189
842.385	5105
842.522	5379
842.659	5174
842.796	5170
842.933	5212
843.069	5216
843.206	5170
843.343	5288
843.479	5242
843.616	5341
843.752	5018
843.889	4984
844.025	5227
844.162	5048
844.298	5223
844.435	5090
844.571	5090
844.708	5140
844.844	5292
844.98	5387
845.117	5337
845.253	5124
845.389	5071
845.525	5162
845.661	5185
845.798	5029
845.934	5113
846.07	5041
846.206	5197
846.342	5307
846.478	5162
846.614	4991
846.75	4961
846.886	4976
847.022	5128
847.158	5041
847.294	5067
847.429	5090
847.565	5029
847.701	5269
847.837	4820
847.972	4809
848.108	4923
848.244	4957
848.379	4774
848.515	4725
848.65	4706
848.786	4759
848.921	4778
849.057	4877
849.192	4896
849.328	4824
849.463	4858
849.598	4752
849.734	4774
849.869	4702
850.004	4618
850.14	4664
850.275	4637
850.41	4569
850.545	4531
850.68	4637
850.815	4649
850.95	4615
851.085	4854
851.22	4778
851.355	4641
851.49	4637
851.625	4649
851.76	4634
851.895	4565
852.03	4497
852.165	4630
852.299	4733
852.434	4774
852.569	4763
852.703	4759
852.838	4843
852.973	4942
853.107	4972
853.242	4759
853.376	4691
853.511	4550
853.645	4637
853.78	4797
853.914	4672
854.048	4687
854.183	4618
854.317	4736
854.451	4896
854.585	4691
854.72	4664
854.854	4721
854.988	4656
855.122	4615
855.256	4485
855.39	4679
855.524	4744
855.658	4752
855.792	4744
855.926	4736
856.06	4748
856.194	4797
856.327	4748
856.461	4599
856.595	4607
856.729	4649
856.862	4744
856.996	4675
857.13	4748
857.263	4763
857.397	4797
857.53	4656
857.664	4729
857.797	4782
857.931	4774
858.064	4721
858.197	4694
858.331	4645
858.464	4603
858.597	4531
858.731	4641
858.864	4588
858.997	4626
859.13	4691
859.263	4641
859.396	4721
859.529	4569
859.662	4565
859.795	4573
859.928	4630
860.061	4820
860.194	4744
860.327	4637
860.46	4599
860.592	4694
860.725	4721
860.858	4744
860.99	4580
861.123	4508
861.256	4550
861.388	4615
861.521	5448
861.653	4500
861.786	4402
861.918	4481
862.05	4500
862.183	4561
862.315	4596
862.447	4710
862.58	4558
862.712	4417
862.844	4306
862.976	4485
863.108	4478
863.24	4881
863.372	4337
863.504	4443
863.636	4470
863.768	4493
863.9	4455
864.032	4432
864.164	4413
864.296	4413
864.428	4592
864.559	4577
864.691	4535
864.823	4527
864.954	4512
865.086	4558
865.217	4443
865.349	4424
865.48	4451
865.612	4470
865.743	4668
865.875	4402
866.006	4455
866.137	4489
866.269	4428
866.4	4451
866.531	4455
866.662	4447
866.793	4432
866.924	4489
867.055	4500
867.186	4489
867.317	4375
867.448	4371
867.579	4402
867.71	4405
867.841	4383
867.972	4481
868.103	4474
868.233	4459
868.364	4443
868.495	4481
868.625	4656
868.756	4752
868.886	4561
869.017	4634
869.147	4763
869.278	4774
869.408	4668
869.539	4664
869.669	4710
869.799	4710
869.929	4733
870.06	4691
870.19	4919
870.32	4938
870.45	4942
870.58	5048
870.71	5056
870.84	5128
870.97	4984
871.1	4900
871.23	5121
871.36	5105
871.489	5037
871.619	5025
871.749	5147
871.879	5147
872.008	5239
872.138	5071
872.267	4968
872.397	4839
872.526	4774
872.656	4706
872.785	4793
872.915	4919
873.044	4995
873.173	4957
873.303	4984
873.432	4900
873.561	4930
873.69	4850
873.819	4835
873.948	4911
874.077	4793
874.206	4774
874.335	4820
874.464	4881
874.593	5079
874.722	4961
874.851	5033
874.979	5064
875.108	5090
875.237	4946
875.365	4866
875.494	4919
875.623	4957
875.751	4820
875.88	4870
876.008	5018
876.136	5041
876.265	5216
876.393	5334
876.521	5235
876.65	5220
876.778	5181
876.906	5003
877.034	5003
877.162	5010
877.29	5014
877.418	5064
877.546	5041
877.674	5014
877.802	5056
877.93	4987
878.058	4972
878.185	4885
878.313	4961
878.441	4995
878.568	4801
878.696	4862
878.824	4942
878.951	5022
879.079	5128
879.206	5284
879.333	5025
879.461	4949
879.588	4980
879.715	5128
879.842	5212
879.97	4991
880.097	4786
880.224	4755
880.351	4812
880.478	4847
880.605	4790
880.732	4805
880.859	5075
880.986	4904
881.112	4942
881.239	4786
881.366	4698
881.493	4561
881.619	4584
881.746	4599
881.872	4634
881.999	4664
882.125	4733
882.252	4797
882.378	4835
882.505	4900
882.631	4843
882.757	4656
882.883	4740
883.01	4771
883.136	4691
883.262	4607
883.388	4588
883.514	4858
883.64	4866
883.766	4801
883.892	4637
884.018	4755
884.143	4873
884.269	5014
884.395	4653
884.52	4615
884.646	4694
884.772	4573
884.897	4573
885.023	4653
885.148	4774
885.274	4919
885.399	4740
885.524	4675
885.65	4687
885.775	4755
885.9	4691
886.025	4877
886.15	4740
886.275	4714
886.4	4622
886.525	4694
886.65	4698
886.775	4675
886.9	4877
887.025	5048
887.149	4759
887.274	4656
887.399	4588
887.523	4611
887.648	4565
887.773	4584
887.897	4729
888.021	4759
888.146	4679
888.27	4828
888.395	4934
888.519	4828
888.643	4801
888.767	4835
888.891	4645
889.015	4634
889.139	4649
889.263	4611
889.387	4714
889.511	4839
889.635	4782
889.759	4607
889.883	4649
890.006	4714
890.13	4812
890.254	4603
890.377	4683
890.501	4519
890.624	4508
890.748	4645
890.871	4527
890.995	4417
891.118	4398
891.241	4523
891.364	4497
891.488	4607
891.611	4519
891.734	4535
891.857	4622
891.98	4519
892.103	4611
892.226	4588
892.349	4554
892.471	4402
892.594	4508
892.717	4615
892.839	4596
892.962	4588
893.085	4687
893.207	4569
893.33	4451
893.452	4512
893.575	4653
893.697	4611
893.819	4782
893.941	4801
894.064	4767
894.186	4611
894.308	4580
894.43	4755
894.552	4820
894.674	4771
894.796	4565
894.918	4527
895.04	4569
895.161	4687
895.283	4630
895.405	4592
895.526	4584
895.648	4683
895.769	4691
895.891	4679
896.012	4698
896.134	4752
896.255	4634
896.376	4637
896.498	4615
896.619	4691
896.74	4596
896.861	4637
896.982	4938
897.103	5098
897.224	4828
897.345	4793
897.466	4649
897.587	4725
897.708	4892
897.828	4774
897.949	4702
898.07	4577
898.19	4710
898.311	4820
898.431	4645
898.552	4755
898.672	4824
898.792	4797
898.913	4733
899.033	4592
899.153	4546
899.273	4470
899.393	4497
899.513	4573
899.633	4478
899.753	4569
899.873	4497
899.993	4577
900.113	4519
900.232	4558
900.352	4531
900.472	4497
900.591	4386
900.711	4523
900.83	4478
900.95	4565
901.069	4675
901.189	4538
901.308	4409
901.427	4322
901.546	4375
901.665	4440
901.784	4485
901.904	4421
902.023	4344
902.141	4215
902.26	4158
902.379	4333
902.498	4219
902.617	4234
902.735	4390
902.854	4386
902.973	4363
903.091	4227
903.21	4215
903.328	4276
903.446	4280
903.565	4268
903.683	4341
903.801	4310
903.919	4424
904.038	4432
904.156	4314
904.274	4474
904.392	4390
904.51	4337
904.627	4470
904.745	4592
904.863	4611
904.981	4352
905.098	4360
905.216	4398
905.334	4424
905.451	4394
905.569	4447
905.686	4538
905.803	4573
905.921	4394
906.038	4538
906.155	4489
906.272	4402
906.389	4436
906.506	4398
906.623	4405
906.74	4383
906.857	4310
906.974	4409
907.091	4519
907.208	4691
907.324	4542
907.441	4504
907.557	4356
907.674	4322
907.79	4360
907.907	4333
908.023	4500
908.139	4481
908.256	4466
908.372	4500
908.488	4390
908.604	4390
908.72	4314
908.836	4390
908.952	4409
909.068	4402
909.184	4615
909.3	4447
909.415	4554
909.531	4573
909.647	4386
909.762	4405
909.878	4363
909.993	4455
910.108	4405
910.224	4432
910.339	4531
910.454	4413
910.57	4352
910.685	4318
910.8	4653
910.915	4607
911.03	4466
911.145	4257
911.259	4360
911.374	4375
911.489	4287
911.604	4322
911.718	4135
911.833	4196
911.947	4067
912.062	4032
912.176	4192
912.291	4223
912.405	4238
912.519	4489
912.633	4535
912.748	4341
912.862	4314
912.976	4166
913.09	4055
913.204	4162
913.318	4242
913.431	4322
913.545	4360
913.659	4436
913.772	4383
913.886	4257
914	4253
914.113	4394
914.226	4451
914.34	4383
914.453	4219
914.566	4413
914.68	4299
914.793	4367
914.906	4101
915.019	4154
915.132	4097
915.245	4200
915.358	4230
915.47	4223
915.583	4276
915.696	4318
915.809	4424
915.921	4413
916.034	4287
916.146	4276
916.259	4192
916.371	4443
916.483	4352
916.595	4219
916.708	4333
916.82	4325
916.932	4303
917.044	4352
917.156	4291
917.268	4177
917.38	4268
917.491	4295
917.603	4386
917.715	4443
917.826	4390
917.938	4356
918.049	4230
918.161	4462
918.272	4523
918.384	4565
918.495	4409
918.606	4325
918.717	4257
918.828	4306
918.939	4367
919.05	4276
919.161	4306
919.272	4131
919.383	4162
919.494	4436
919.604	4615
919.715	4447
919.826	4375
919.936	4402
920.047	4485
920.157	4497
920.267	4767
920.378	4577
920.488	4504
920.598	4717
920.708	4911
920.818	4774
920.928	4767
921.038	4957
921.148	4889
921.258	4637
921.368	4596
921.477	4478
921.587	4432
921.697	4318
921.806	4550
921.916	4489
922.025	4310
922.134	4257
922.244	4192
922.353	4371
922.462	4185
922.571	4105
922.68	3998
922.789	3991
922.898	4032
923.007	3987
923.116	4116
923.224	4090
923.333	4090
923.442	3968
923.55	4029
923.659	4051
923.767	4135
923.876	3998
923.984	4101
924.092	3979
924.201	4078
924.309	4112
924.417	4169
924.525	4063
924.633	4082
924.741	5045
924.849	3873
924.956	4162
925.064	3968
925.172	3918
925.279	3937
925.387	4074
925.494	4051
925.602	4230
925.709	4154
925.816	4029
925.924	4112
926.031	4200
926.138	4185
926.245	4192
926.352	4105
926.459	4261
926.566	4314
926.673	4105
926.779	4097
926.886	4147
926.993	4017
927.099	3972
927.206	3930
927.312	3956
927.419	4067
927.525	4032
927.631	4040
927.737	3968
927.843	3937
927.95	3857
928.056	3968
928.162	3987
928.267	4082
928.373	4660
928.479	4090
928.585	3838
928.69	4048
928.796	4048
928.901	3979
929.007	3819
929.112	4017
929.218	3983
929.323	3968
929.428	3949
929.533	4067
929.638	3937
929.743	3964
929.848	4078
929.953	4002
930.058	3953
930.163	3762
930.267	3827
930.372	3975
930.477	3823
930.581	4086
930.685	3907
930.79	3861
930.894	3934
930.998	3861
931.103	4078
931.207	3736
931.311	3660
931.415	3679
931.519	3526
931.623	3549
