Data from test_V78500241_848.txt Node
Date: Fri Mar 25 16:54:53 CST 2022
User: usil
Spectrometer: V785-0024
Trigger mode: 0
Integration Time (sec): 4.000000E-1
Scans to average: 1
Nonlinearity correction enabled: false
Boxcar width: 0
Storing dark spectrum: false
XAxis mode: Wavelengths
Number of Pixels in Spectrum: 1024
>>>>>Begin Spectral Data<<<<<
801.071	7951
801.214	8096
801.356	7845
801.499	7894
801.641	7814
801.783	7826
801.926	7993
802.068	7978
802.211	7944
802.353	7909
802.496	7837
802.638	7997
802.78	7947
802.923	7887
803.065	7837
803.208	7883
803.35	8058
803.492	8111
803.635	8172
803.777	8077
803.919	8035
804.061	8431
804.204	8092
804.346	8092
804.488	8016
804.63	8092
804.773	8024
804.915	8077
805.057	8218
805.199	8126
805.341	8218
805.483	8168
805.626	8183
805.768	8107
805.91	8187
806.052	8183
806.194	8031
806.336	8290
806.478	8050
806.62	8050
806.762	8115
806.904	8256
807.046	8412
807.188	8317
807.33	8248
807.472	8263
807.614	8142
807.756	8103
807.898	7925
808.04	7799
808.182	7898
808.324	7879
808.465	7894
808.607	8001
808.749	8024
808.891	8206
809.033	8339
809.174	8237
809.316	8081
809.458	8054
809.6	7947
809.741	8012
809.883	8043
810.025	8138
810.166	8077
810.308	8084
810.45	8073
810.591	7921
810.733	7696
810.875	7639
811.016	7510
811.158	7472
811.299	7548
811.441	7704
811.582	7651
811.724	7537
811.865	7499
812.007	7575
812.148	7563
812.29	7628
812.431	7670
812.573	7784
812.714	7898
812.855	8077
812.997	8172
813.138	8332
813.279	8138
813.421	8043
813.562	8008
813.703	7811
813.845	7814
813.986	7460
814.127	7274
814.268	7190
814.41	7160
814.551	7061
814.692	7118
814.833	7053
814.974	7076
815.115	7042
815.256	6939
815.397	6913
815.539	6932
815.68	6863
815.821	6802
815.962	6741
816.103	6840
816.244	6688
816.385	6646
816.526	6646
816.666	6506
816.807	6228
816.948	6407
817.089	6437
817.23	6407
817.371	6407
817.512	6361
817.653	6429
817.793	6327
817.934	6441
818.075	6418
818.216	6445
818.356	6331
818.497	6163
818.638	6102
818.778	6148
818.919	6144
819.06	6178
819.2	6319
819.341	6243
819.481	6346
819.622	6540
819.762	6726
819.903	6654
820.043	6589
820.184	6490
820.324	6570
820.465	6662
820.605	6707
820.746	6623
820.886	6536
821.026	6650
821.167	6608
821.307	6795
821.447	6722
821.588	6620
821.728	6513
821.868	6513
822.008	6308
822.149	6395
822.289	6331
822.429	6148
822.569	6133
822.709	6079
822.849	5847
822.99	5889
823.13	5885
823.27	5954
823.41	5752
823.55	5783
823.69	5737
823.83	5764
823.97	5665
824.11	5535
824.25	5512
824.389	5528
824.529	5566
824.669	5543
824.809	5604
824.949	5718
825.089	5592
825.228	5562
825.368	5345
825.508	5372
825.648	5368
825.787	5376
825.927	5406
826.067	5299
826.206	5280
826.346	5391
826.485	5360
826.625	5429
826.765	5486
826.904	5436
827.044	5246
827.183	5185
827.323	5117
827.462	5193
827.601	5204
827.741	5197
827.88	5155
828.02	5140
828.159	5242
828.298	5303
828.437	5345
828.577	5288
828.716	5497
828.855	5273
828.994	5136
829.134	5128
829.273	5140
829.412	5128
829.551	5094
829.69	5117
829.829	5231
829.968	5296
830.107	5216
830.246	5258
830.385	5174
830.524	5128
830.663	5067
830.802	4965
830.941	4881
831.08	4862
831.219	4965
831.357	4980
831.496	5121
831.635	4904
831.774	4812
831.913	4805
832.051	4706
832.19	4729
832.329	4809
832.467	4672
832.606	4596
832.744	4710
832.883	4717
833.022	4656
833.16	4752
833.299	4763
833.437	4881
833.576	4812
833.714	4839
833.852	4885
833.991	4881
834.129	4972
834.267	4938
834.406	4915
834.544	4930
834.682	4942
834.821	4938
834.959	5162
835.097	4968
835.235	5159
835.373	4999
835.511	5105
835.65	5010
835.788	5006
835.926	4873
836.064	4900
836.202	4889
836.34	5151
836.478	5220
836.615	5124
836.753	5220
836.891	5307
837.029	5227
837.167	5208
837.305	5155
837.443	5155
837.58	5083
837.718	5258
837.856	5159
837.993	5094
838.131	5193
838.269	5170
838.406	5227
838.544	5174
838.681	4976
838.819	4984
838.956	4862
839.094	4908
839.231	4957
839.369	5098
839.506	5387
839.643	5239
839.781	5041
839.918	5018
840.055	5086
840.193	5067
840.33	5033
840.467	5117
840.604	5124
840.742	5402
840.879	5079
841.016	5113
841.153	5174
841.29	5364
841.427	5326
841.564	5273
841.701	5326
841.838	5269
841.975	5220
842.112	5258
842.249	5166
842.385	5079
842.522	5292
842.659	5140
842.796	5128
842.933	5208
843.069	5151
843.206	5140
843.343	5322
843.479	5273
843.616	5277
843.752	4999
843.889	4999
844.025	5204
844.162	5037
844.298	5193
844.435	5090
844.571	5025
844.708	5151
844.844	5273
844.98	5311
845.117	5307
845.253	5166
845.389	5033
845.525	5174
845.661	5208
845.798	5041
845.934	5102
846.07	5052
846.206	5208
846.342	5265
846.478	5159
846.614	4949
846.75	4961
846.886	4885
847.022	5132
847.158	4961
847.294	4999
847.429	5094
847.565	5064
847.701	5277
847.837	4805
847.972	4805
848.108	4938
848.244	4957
848.379	4748
848.515	4748
848.65	4717
848.786	4763
848.921	4759
849.057	4820
849.192	4835
849.328	4828
849.463	4847
849.598	4797
849.734	4740
849.869	4698
850.004	4611
850.14	4599
850.275	4596
850.41	4500
850.545	4611
850.68	4592
850.815	4584
850.95	4599
851.085	4835
851.22	4725
851.355	4672
851.49	4626
851.625	4649
851.76	4622
851.895	4527
852.03	4535
852.165	4653
852.299	4698
852.434	4736
852.569	4740
852.703	4767
852.838	4809
852.973	4927
853.107	4885
853.242	4733
853.376	4634
853.511	4561
853.645	4641
853.78	4752
853.914	4634
854.048	4672
854.183	4588
854.317	4710
854.451	4801
854.585	4687
854.72	4675
854.854	4725
854.988	4577
855.122	4618
855.256	4485
855.39	4641
855.524	4771
855.658	4679
855.792	4672
855.926	4733
856.06	4736
856.194	4759
856.327	4664
856.461	4542
856.595	4603
856.729	4622
856.862	4733
856.996	4653
857.13	4675
857.263	4698
857.397	4801
857.53	4645
857.664	4698
857.797	4755
857.931	4729
858.064	4683
858.197	4767
858.331	4660
858.464	4607
858.597	4577
858.731	4622
858.864	4618
858.997	4580
859.13	4668
859.263	4687
859.396	4691
859.529	4584
859.662	4573
859.795	4474
859.928	4641
860.061	4694
860.194	4729
860.327	4596
860.46	4565
860.592	4698
860.725	4710
860.858	4698
860.99	4584
861.123	4440
861.256	4558
861.388	4561
861.521	5311
861.653	4459
861.786	4478
861.918	4436
862.05	4508
862.183	4558
862.315	4561
862.447	4630
862.58	4573
862.712	4417
862.844	4314
862.976	4455
863.108	4424
863.24	4733
863.372	4360
863.504	4432
863.636	4409
863.768	4478
863.9	4447
864.032	4398
864.164	4398
864.296	4462
864.428	4542
864.559	4531
864.691	4527
864.823	4493
864.954	4493
865.086	4462
865.217	4481
865.349	4409
865.48	4462
865.612	4466
865.743	4622
865.875	4436
866.006	4409
866.137	4398
866.269	4394
866.4	4447
866.531	4424
866.662	4356
866.793	4367
866.924	4470
867.055	4474
867.186	4405
867.317	4428
867.448	4360
867.579	4333
867.71	4375
867.841	4303
867.972	4459
868.103	4421
868.233	4375
868.364	4497
868.495	4455
868.625	4618
868.756	4733
868.886	4573
869.017	4584
869.147	4782
869.278	4809
869.408	4637
869.539	4622
869.669	4687
869.799	4660
869.929	4721
870.06	4733
870.19	4949
870.32	4930
870.45	4866
870.58	4995
870.71	5045
870.84	5041
870.97	4911
871.1	4885
871.23	5090
871.36	5090
871.489	5052
871.619	5071
871.749	5060
871.879	5094
872.008	5155
872.138	5056
872.267	4938
872.397	4850
872.526	4786
872.656	4706
872.785	4748
872.915	4965
873.044	5014
873.173	4942
873.303	4972
873.432	4942
873.561	4900
873.69	4889
873.819	4847
873.948	4885
874.077	4843
874.206	4774
874.335	4793
874.464	4968
874.593	5067
874.722	4957
874.851	5098
874.979	5018
875.108	5083
875.237	4930
875.365	4831
875.494	4870
875.623	4927
875.751	4786
875.88	4919
876.008	4980
876.136	5025
876.265	5143
876.393	5341
876.521	5223
876.65	5246
876.778	5140
876.906	5052
877.034	5033
877.162	5033
877.29	4965
877.418	5109
877.546	5041
877.674	5045
877.802	4999
877.93	4949
878.058	4870
878.185	4904
878.313	4949
878.441	4953
878.568	4759
878.696	4881
878.824	4934
878.951	5037
879.079	5121
879.206	5246
879.333	5090
879.461	4946
879.588	4965
879.715	5147
879.842	5189
879.97	4995
880.097	4740
880.224	4725
880.351	4805
880.478	4805
880.605	4801
880.732	4786
880.859	5041
880.986	4900
881.112	4911
881.239	4767
881.366	4656
881.493	4607
881.619	4607
881.746	4599
881.872	4611
881.999	4599
882.125	4672
882.252	4786
882.378	4771
882.505	4953
882.631	4778
882.757	4660
882.883	4706
883.01	4740
883.136	4656
883.262	4596
883.388	4675
883.514	4778
883.64	4854
883.766	4820
883.892	4649
884.018	4740
884.143	4839
884.269	5018
884.395	4687
884.52	4569
884.646	4634
884.772	4645
884.897	4538
885.023	4630
885.148	4778
885.274	4797
885.399	4812
885.524	4698
885.65	4691
885.775	4774
885.9	4752
886.025	4835
886.15	4767
886.275	4698
886.4	4649
886.525	4744
886.65	4672
886.775	4702
886.9	4919
887.025	5033
887.149	4812
887.274	4664
887.399	4569
887.523	4577
887.648	4535
887.773	4558
887.897	4755
888.021	4774
888.146	4691
888.27	4816
888.395	4828
888.519	4801
888.643	4812
888.767	4774
888.891	4626
889.015	4577
889.139	4656
889.263	4599
889.387	4733
889.511	4812
889.635	4733
889.759	4599
889.883	4683
890.006	4755
890.13	4809
890.254	4607
890.377	4645
890.501	4531
890.624	4538
890.748	4649
890.871	4466
890.995	4421
891.118	4360
891.241	4516
891.364	4538
891.488	4607
891.611	4500
891.734	4577
891.857	4561
891.98	4542
892.103	4645
892.226	4615
892.349	4478
892.471	4432
892.594	4569
892.717	4573
892.839	4596
892.962	4565
893.085	4649
893.207	4622
893.33	4421
893.452	4485
893.575	4641
893.697	4577
893.819	4748
893.941	4801
894.064	4786
894.186	4622
894.308	4508
894.43	4755
894.552	4873
894.674	4698
894.796	4546
894.918	4588
895.04	4573
895.161	4736
895.283	4653
895.405	4580
895.526	4607
895.648	4675
895.769	4694
895.891	4683
896.012	4717
896.134	4675
896.255	4645
896.376	4596
896.498	4634
896.619	4675
896.74	4596
896.861	4668
896.982	4965
897.103	5105
897.224	4824
897.345	4706
897.466	4672
897.587	4702
897.708	4847
897.828	4752
897.949	4637
898.07	4516
898.19	4630
898.311	4862
898.431	4694
898.552	4698
898.672	4767
898.792	4717
898.913	4725
899.033	4630
899.153	4504
899.273	4421
899.393	4493
899.513	4535
899.633	4535
899.753	4546
899.873	4512
899.993	4565
900.113	4508
900.232	4569
900.352	4523
900.472	4447
900.591	4455
900.711	4432
900.83	4474
900.95	4584
901.069	4637
901.189	4527
901.308	4329
901.427	4322
901.546	4394
901.665	4421
901.784	4508
901.904	4371
902.023	4295
902.141	4169
902.26	4116
902.379	4280
902.498	4291
902.617	4219
902.735	4371
902.854	4367
902.973	4360
903.091	4177
903.21	4242
903.328	4280
903.446	4306
903.565	4246
903.683	4375
903.801	4249
903.919	4371
904.038	4409
904.156	4261
904.274	4409
904.392	4405
904.51	4459
904.627	4455
904.745	4577
904.863	4573
904.981	4322
905.098	4344
905.216	4314
905.334	4424
905.451	4466
905.569	4432
905.686	4550
905.803	4550
905.921	4402
906.038	4531
906.155	4500
906.272	4375
906.389	4428
906.506	4322
906.623	4344
906.74	4398
906.857	4276
906.974	4363
907.091	4500
907.208	4664
907.324	4561
907.441	4485
907.557	4322
907.674	4344
907.79	4310
907.907	4352
908.023	4447
908.139	4497
908.256	4421
908.372	4466
908.488	4428
908.604	4386
908.72	4333
908.836	4390
908.952	4386
909.068	4398
909.184	4588
909.3	4538
909.415	4550
909.531	4558
909.647	4348
909.762	4375
909.878	4363
909.993	4440
910.108	4390
910.224	4417
910.339	4459
910.454	4352
910.57	4367
910.685	4314
910.8	4683
910.915	4546
911.03	4466
911.145	4329
911.259	4341
911.374	4398
911.489	4306
911.604	4280
911.718	4143
911.833	4230
911.947	4074
912.062	4002
912.176	4162
912.291	4265
912.405	4215
912.519	4489
912.633	4466
912.748	4386
912.862	4314
912.976	4207
913.09	4135
913.204	4131
913.318	4261
913.431	4314
913.545	4363
913.659	4413
913.772	4360
913.886	4261
914	4234
914.113	4352
914.226	4451
914.34	4341
914.453	4242
914.566	4447
914.68	4318
914.793	4318
914.906	4166
915.019	4093
915.132	4082
915.245	4192
915.358	4268
915.47	4238
915.583	4284
915.696	4272
915.809	4413
915.921	4402
916.034	4268
916.146	4234
916.259	4200
916.371	4421
916.483	4356
916.595	4272
916.708	4295
916.82	4318
916.932	4253
917.044	4284
917.156	4318
917.268	4257
917.38	4211
917.491	4272
917.603	4344
917.715	4409
917.826	4405
917.938	4318
918.049	4249
918.161	4440
918.272	4531
918.384	4577
918.495	4478
918.606	4314
918.717	4204
918.828	4341
918.939	4398
919.05	4234
919.161	4329
919.272	4124
919.383	4162
919.494	4428
919.604	4580
919.715	4413
919.826	4363
919.936	4417
920.047	4466
920.157	4542
920.267	4714
920.378	4565
920.488	4485
920.598	4694
920.708	4889
920.818	4725
920.928	4771
921.038	4942
921.148	4850
921.258	4611
921.368	4538
921.477	4447
921.587	4497
921.697	4371
921.806	4531
921.916	4447
922.025	4268
922.134	4253
922.244	4204
922.353	4333
922.462	4223
922.571	4154
922.68	4002
922.789	4006
922.898	4048
923.007	3964
923.116	4082
923.224	4082
923.333	4063
923.442	3922
923.55	3983
923.659	4006
923.767	4120
923.876	3987
923.984	4105
924.092	3994
924.201	4063
924.309	4082
924.417	4097
924.525	3998
924.633	4097
924.741	4908
924.849	3937
924.956	4078
925.064	3941
925.172	3888
925.279	3968
925.387	4074
925.494	4032
925.602	4219
925.709	4185
925.816	4013
925.924	4147
926.031	4257
926.138	4169
926.245	4215
926.352	4067
926.459	4249
926.566	4276
926.673	4154
926.779	4071
926.886	4048
926.993	4013
927.099	3972
927.206	3934
927.312	3941
927.419	4059
927.525	4006
927.631	4074
927.737	3930
927.843	3964
927.95	3850
928.056	3918
928.162	3991
928.267	4093
928.373	4679
928.479	4067
928.585	3854
928.69	4025
928.796	4029
928.901	3949
929.007	3838
929.112	3987
929.218	3983
929.323	3915
929.428	3941
929.533	4063
929.638	3907
929.743	3956
929.848	4036
929.953	4055
930.058	3934
930.163	3732
930.267	3838
930.372	3941
930.477	3850
930.581	4093
930.685	3941
930.79	3827
930.894	3903
930.998	3846
931.103	4051
931.207	3686
931.311	3690
931.415	3660
931.519	3481
931.623	3545
