Data from test_V78500241_418.txt Node
Date: Fri Mar 25 16:51:54 CST 2022
User: usil
Spectrometer: V785-0024
Trigger mode: 0
Integration Time (sec): 4.000000E-1
Scans to average: 1
Nonlinearity correction enabled: false
Boxcar width: 0
Storing dark spectrum: false
XAxis mode: Wavelengths
Number of Pixels in Spectrum: 1024
>>>>>Begin Spectral Data<<<<<
801.071	8043
801.214	8065
801.356	7932
801.499	7955
801.641	7818
801.783	7818
801.926	8012
802.068	8012
802.211	8035
802.353	8020
802.496	7830
802.638	7890
802.78	7909
802.923	7963
803.065	7875
803.208	7883
803.35	7947
803.492	8024
803.635	8081
803.777	8024
803.919	8050
804.061	8503
804.204	8161
804.346	8088
804.488	7955
804.63	8111
804.773	8050
804.915	8153
805.057	8343
805.199	8142
805.341	8138
805.483	8248
805.626	8206
805.768	8046
805.91	8164
806.052	8183
806.194	8050
806.336	8347
806.478	8149
806.62	8119
806.762	8176
806.904	8263
807.046	8499
807.188	8396
807.33	8252
807.472	8343
807.614	8145
807.756	8183
807.898	8111
808.04	8008
808.182	7986
808.324	7947
808.465	7970
808.607	8050
808.749	8119
808.891	8229
809.033	8256
809.174	8229
809.316	8111
809.458	8096
809.6	8012
809.741	8138
809.883	8069
810.025	8153
810.166	8176
810.308	8103
810.45	8016
810.591	7936
810.733	7784
810.875	7590
811.016	7540
811.158	7518
811.299	7651
811.441	7765
811.582	7719
811.724	7643
811.865	7586
812.007	7712
812.148	7647
812.29	7639
812.431	7814
812.573	7936
812.714	8054
812.855	8138
812.997	8370
813.138	8366
813.279	8214
813.421	8195
813.562	8084
813.703	7887
813.845	7799
813.986	7529
814.127	7407
814.268	7327
814.41	7305
814.551	7175
814.692	7221
814.833	7114
814.974	7076
815.115	7129
815.256	6996
815.397	6966
815.539	6932
815.68	6882
815.821	6772
815.962	6894
816.103	6798
816.244	6818
816.385	6673
816.526	6658
816.666	6536
816.807	6350
816.948	6502
817.089	6566
817.23	6418
817.371	6410
817.512	6403
817.653	6429
817.793	6437
817.934	6399
818.075	6452
818.216	6467
818.356	6441
818.497	6273
818.638	6178
818.778	6190
818.919	6148
819.06	6152
819.2	6315
819.341	6315
819.481	6369
819.622	6471
819.762	6795
819.903	6715
820.043	6688
820.184	6589
820.324	6589
820.465	6760
820.605	6703
820.746	6601
820.886	6536
821.026	6627
821.167	6719
821.307	6795
821.447	6818
821.588	6662
821.728	6608
821.868	6521
822.008	6380
822.149	6357
822.289	6414
822.429	6186
822.569	6133
822.709	6163
822.849	5920
822.99	5863
823.13	5980
823.27	5958
823.41	5805
823.55	5836
823.69	5794
823.83	5824
823.97	5710
824.11	5581
824.25	5539
824.389	5570
824.529	5657
824.669	5486
824.809	5691
824.949	5718
825.089	5619
825.228	5535
825.368	5395
825.508	5391
825.648	5353
825.787	5429
825.927	5379
826.067	5326
826.206	5337
826.346	5429
826.485	5387
826.625	5467
826.765	5520
826.904	5539
827.044	5254
827.183	5235
827.323	5181
827.462	5216
827.601	5181
827.741	5181
827.88	5235
828.02	5105
828.159	5277
828.298	5284
828.437	5353
828.577	5280
828.716	5509
828.855	5341
828.994	5212
829.134	5189
829.273	5193
829.412	5136
829.551	5109
829.69	5170
829.829	5269
829.968	5391
830.107	5242
830.246	5330
830.385	5220
830.524	5140
830.663	5113
830.802	5010
830.941	4892
831.08	4896
831.219	4984
831.357	4949
831.496	5174
831.635	4911
831.774	4873
831.913	4892
832.051	4797
832.19	4790
832.329	4858
832.467	4725
832.606	4653
832.744	4778
832.883	4763
833.022	4717
833.16	4797
833.299	4824
833.437	4843
833.576	4900
833.714	4908
833.852	4892
833.991	4915
834.129	4999
834.267	4938
834.406	4870
834.544	4961
834.682	5064
834.821	5029
834.959	5155
835.097	4965
835.235	5166
835.373	5064
835.511	5105
835.65	5090
835.788	4991
835.926	4862
836.064	4949
836.202	4904
836.34	5159
836.478	5208
836.615	5143
836.753	5185
836.891	5284
837.029	5235
837.167	5201
837.305	5132
837.443	5132
837.58	5052
837.718	5220
837.856	5189
837.993	5162
838.131	5242
838.269	5254
838.406	5174
838.544	5147
838.681	5025
838.819	5056
838.956	4927
839.094	4938
839.231	5010
839.369	5075
839.506	5417
839.643	5273
839.781	5071
839.918	4972
840.055	5067
840.193	5121
840.33	5132
840.467	5140
840.604	5159
840.742	5497
840.879	5067
841.016	5124
841.153	5166
841.29	5395
841.427	5398
841.564	5326
841.701	5395
841.838	5261
841.975	5265
842.112	5326
842.249	5113
842.385	5109
842.522	5296
842.659	5143
842.796	5136
842.933	5189
843.069	5128
843.206	5201
843.343	5315
843.479	5288
843.616	5299
843.752	5010
843.889	5018
844.025	5170
844.162	5090
844.298	5189
844.435	5113
844.571	5056
844.708	5216
844.844	5288
844.98	5330
845.117	5296
845.253	5151
845.389	5105
845.525	5124
845.661	5174
845.798	5117
845.934	5151
846.07	5056
846.206	5277
846.342	5265
846.478	5235
846.614	5041
846.75	4972
846.886	4984
847.022	5140
847.158	5041
847.294	5071
847.429	5086
847.565	5083
847.701	5334
847.837	4866
847.972	4763
848.108	4942
848.244	4953
848.379	4812
848.515	4763
848.65	4729
848.786	4752
848.921	4786
849.057	4930
849.192	4904
849.328	4812
849.463	4896
849.598	4843
849.734	4763
849.869	4721
850.004	4641
850.14	4672
850.275	4611
850.41	4561
850.545	4569
850.68	4584
850.815	4618
850.95	4634
851.085	4854
851.22	4733
851.355	4645
851.49	4649
851.625	4618
851.76	4668
851.895	4508
852.03	4546
852.165	4706
852.299	4736
852.434	4793
852.569	4763
852.703	4790
852.838	4885
852.973	4934
853.107	4938
853.242	4717
853.376	4664
853.511	4550
853.645	4630
853.78	4820
853.914	4634
854.048	4641
854.183	4630
854.317	4691
854.451	4839
854.585	4744
854.72	4611
854.854	4767
854.988	4588
855.122	4672
855.256	4584
855.39	4634
855.524	4809
855.658	4733
855.792	4687
855.926	4752
856.06	4816
856.194	4767
856.327	4683
856.461	4645
856.595	4634
856.729	4592
856.862	4771
856.996	4691
857.13	4694
857.263	4778
857.397	4812
857.53	4618
857.664	4729
857.797	4744
857.931	4809
858.064	4733
858.197	4763
858.331	4668
858.464	4599
858.597	4535
858.731	4630
858.864	4626
858.997	4626
859.13	4645
859.263	4683
859.396	4694
859.529	4599
859.662	4626
859.795	4516
859.928	4618
860.061	4771
860.194	4790
860.327	4656
860.46	4607
860.592	4752
860.725	4675
860.858	4683
860.99	4596
861.123	4512
861.256	4535
861.388	4558
861.521	5421
861.653	4504
861.786	4504
861.918	4462
862.05	4546
862.183	4565
862.315	4584
862.447	4691
862.58	4516
862.712	4417
862.844	4322
862.976	4516
863.108	4500
863.24	4774
863.372	4371
863.504	4421
863.636	4383
863.768	4519
863.9	4443
864.032	4390
864.164	4394
864.296	4466
864.428	4523
864.559	4546
864.691	4554
864.823	4542
864.954	4554
865.086	4508
865.217	4432
865.349	4455
865.48	4478
865.612	4462
865.743	4645
865.875	4531
866.006	4459
866.137	4478
866.269	4462
866.4	4428
866.531	4455
866.662	4375
866.793	4405
866.924	4409
867.055	4493
867.186	4421
867.317	4394
867.448	4424
867.579	4386
867.71	4413
867.841	4356
867.972	4455
868.103	4421
868.233	4440
868.364	4497
868.495	4489
868.625	4615
868.756	4778
868.886	4580
869.017	4675
869.147	4763
869.278	4755
869.408	4679
869.539	4634
869.669	4721
869.799	4710
869.929	4714
870.06	4752
870.19	5010
870.32	4938
870.45	4915
870.58	4972
870.71	5102
870.84	5079
870.97	4930
871.1	4885
871.23	5121
871.36	5181
871.489	5041
871.619	5056
871.749	5140
871.879	5128
872.008	5181
872.138	5064
872.267	5033
872.397	4866
872.526	4873
872.656	4721
872.785	4805
872.915	4991
873.044	5064
873.173	4957
873.303	4968
873.432	5022
873.561	4965
873.69	4877
873.819	4908
873.948	4896
874.077	4767
874.206	4812
874.335	4831
874.464	4938
874.593	5086
874.722	4968
874.851	5128
874.979	5060
875.108	5079
875.237	4953
875.365	4911
875.494	4908
875.623	4972
875.751	4847
875.88	4889
876.008	5018
876.136	4987
876.265	5273
876.393	5349
876.521	5280
876.65	5277
876.778	5204
876.906	5090
877.034	5052
877.162	5033
877.29	4995
877.418	5105
877.546	5014
877.674	5067
877.802	5033
877.93	5003
878.058	4972
878.185	4839
878.313	4923
878.441	4957
878.568	4850
878.696	4889
878.824	4980
878.951	4972
879.079	5155
879.206	5277
879.333	5113
879.461	5022
879.588	4972
879.715	5166
879.842	5250
879.97	5037
880.097	4763
880.224	4736
880.351	4786
880.478	4809
880.605	4790
880.732	4763
880.859	5155
880.986	4896
881.112	4900
881.239	4755
881.366	4660
881.493	4596
881.619	4603
881.746	4637
881.872	4675
881.999	4637
882.125	4706
882.252	4805
882.378	4816
882.505	4938
882.631	4809
882.757	4706
882.883	4782
883.01	4778
883.136	4702
883.262	4637
883.388	4630
883.514	4828
883.64	4892
883.766	4790
883.892	4672
884.018	4706
884.143	4911
884.269	5018
884.395	4687
884.52	4634
884.646	4584
884.772	4592
884.897	4535
885.023	4691
885.148	4797
885.274	4877
885.399	4763
885.524	4744
885.65	4683
885.775	4778
885.9	4763
886.025	4877
886.15	4763
886.275	4698
886.4	4687
886.525	4752
886.65	4698
886.775	4687
886.9	4908
887.025	5010
887.149	4790
887.274	4691
887.399	4580
887.523	4626
887.648	4603
887.773	4630
887.897	4759
888.021	4786
888.146	4622
888.27	4820
888.395	4908
888.519	4790
888.643	4816
888.767	4831
888.891	4717
889.015	4607
889.139	4637
889.263	4596
889.387	4733
889.511	4889
889.635	4786
889.759	4618
889.883	4596
890.006	4797
890.13	4824
890.254	4649
890.377	4679
890.501	4535
890.624	4497
890.748	4611
890.871	4531
890.995	4451
891.118	4394
891.241	4508
891.364	4527
891.488	4649
891.611	4474
891.734	4542
891.857	4592
891.98	4588
892.103	4679
892.226	4603
892.349	4535
892.471	4383
892.594	4485
892.717	4611
892.839	4592
892.962	4615
893.085	4607
893.207	4565
893.33	4474
893.452	4561
893.575	4679
893.697	4596
893.819	4774
893.941	4835
894.064	4740
894.186	4584
894.308	4599
894.43	4717
894.552	4793
894.674	4786
894.796	4519
894.918	4599
895.04	4584
895.161	4691
895.283	4660
895.405	4596
895.526	4618
895.648	4668
895.769	4672
895.891	4717
896.012	4698
896.134	4710
896.255	4645
896.376	4675
896.498	4683
896.619	4710
896.74	4577
896.861	4630
896.982	4949
897.103	5079
897.224	4862
897.345	4740
897.466	4687
897.587	4755
897.708	4870
897.828	4816
897.949	4675
898.07	4550
898.19	4656
898.311	4778
898.431	4668
898.552	4736
898.672	4820
898.792	4771
898.913	4744
899.033	4683
899.153	4508
899.273	4413
899.393	4500
899.513	4519
899.633	4538
899.753	4546
899.873	4485
899.993	4630
900.113	4569
900.232	4641
900.352	4599
900.472	4504
900.591	4413
900.711	4527
900.83	4432
900.95	4649
901.069	4618
901.189	4584
901.308	4386
901.427	4363
901.546	4363
901.665	4470
901.784	4531
901.904	4371
902.023	4287
902.141	4188
902.26	4181
902.379	4322
902.498	4219
902.617	4204
902.735	4383
902.854	4405
902.973	4371
903.091	4215
903.21	4204
903.328	4344
903.446	4276
903.565	4234
903.683	4390
903.801	4318
903.919	4409
904.038	4451
904.156	4348
904.274	4413
904.392	4428
904.51	4432
904.627	4481
904.745	4588
904.863	4645
904.981	4402
905.098	4318
905.216	4421
905.334	4447
905.451	4489
905.569	4493
905.686	4535
905.803	4588
905.921	4436
906.038	4577
906.155	4500
906.272	4386
906.389	4432
906.506	4367
906.623	4413
906.74	4394
906.857	4299
906.974	4383
907.091	4573
907.208	4679
907.324	4573
907.441	4485
907.557	4356
907.674	4360
907.79	4348
907.907	4390
908.023	4504
908.139	4508
908.256	4413
908.372	4500
908.488	4436
908.604	4356
908.72	4386
908.836	4348
908.952	4371
909.068	4459
909.184	4596
909.3	4504
909.415	4596
909.531	4565
909.647	4333
909.762	4383
909.878	4375
909.993	4493
910.108	4409
910.224	4363
910.339	4455
910.454	4409
910.57	4360
910.685	4329
910.8	4710
910.915	4622
911.03	4459
911.145	4325
911.259	4314
911.374	4314
911.489	4310
911.604	4295
911.718	4177
911.833	4223
911.947	4086
912.062	4063
912.176	4242
912.291	4287
912.405	4246
912.519	4493
912.633	4497
912.748	4344
912.862	4310
912.976	4223
913.09	4086
913.204	4177
913.318	4249
913.431	4325
913.545	4363
913.659	4455
913.772	4367
913.886	4238
914	4227
914.113	4447
914.226	4405
914.34	4409
914.453	4261
914.566	4428
914.68	4310
914.793	4337
914.906	4169
915.019	4147
915.132	4112
915.245	4177
915.358	4219
915.47	4242
915.583	4303
915.696	4310
915.809	4459
915.921	4379
916.034	4215
916.146	4261
916.259	4204
916.371	4398
916.483	4356
916.595	4253
916.708	4314
916.82	4284
916.932	4325
917.044	4322
917.156	4299
917.268	4257
917.38	4291
917.491	4284
917.603	4348
917.715	4428
917.826	4470
917.938	4363
918.049	4265
918.161	4402
918.272	4561
918.384	4504
918.495	4470
918.606	4337
918.717	4253
918.828	4409
918.939	4371
919.05	4276
919.161	4329
919.272	4116
919.383	4219
919.494	4489
919.604	4611
919.715	4421
919.826	4356
919.936	4394
920.047	4523
920.157	4481
920.267	4691
920.378	4561
920.488	4497
920.598	4702
920.708	4881
920.818	4714
920.928	4736
921.038	4850
921.148	4938
921.258	4630
921.368	4618
921.477	4478
921.587	4459
921.697	4352
921.806	4550
921.916	4436
922.025	4276
922.134	4284
922.244	4246
922.353	4325
922.462	4185
922.571	4135
922.68	4002
922.789	3964
922.898	4029
923.007	4010
923.116	4143
923.224	4082
923.333	4067
923.442	4025
923.55	3991
923.659	4048
923.767	4128
923.876	3991
923.984	4131
924.092	3975
924.201	4032
924.309	4154
924.417	4166
924.525	4044
924.633	4116
924.741	5041
924.849	3915
924.956	4116
925.064	4013
925.172	3865
925.279	3987
925.387	4025
925.494	4109
925.602	4188
925.709	4188
925.816	4048
925.924	4120
926.031	4249
926.138	4147
926.245	4246
926.352	4116
926.459	4276
926.566	4341
926.673	4185
926.779	4101
926.886	4097
926.993	3964
927.099	3998
927.206	3991
927.312	3949
927.419	4093
927.525	4063
927.631	4093
927.737	3975
927.843	3956
927.95	3835
928.056	3949
928.162	4013
928.267	4044
928.373	4668
928.479	4131
928.585	3888
928.69	4059
928.796	4109
928.901	3991
929.007	3831
929.112	4013
929.218	4013
929.323	3968
929.428	3945
929.533	4078
929.638	3899
929.743	3930
929.848	4017
929.953	3975
930.058	3907
930.163	3785
930.267	3831
930.372	4010
930.477	3827
930.581	4143
930.685	3949
930.79	3850
930.894	3876
930.998	3861
931.103	4029
931.207	3709
931.311	3629
931.415	3671
931.519	3526
931.623	3534
