Data from test_V78500241_1393.txt Node
Date: Fri Mar 25 16:58:41 CST 2022
User: usil
Spectrometer: V785-0024
Trigger mode: 0
Integration Time (sec): 4.000000E-1
Scans to average: 1
Nonlinearity correction enabled: false
Boxcar width: 0
Storing dark spectrum: false
XAxis mode: Wavelengths
Number of Pixels in Spectrum: 1024
>>>>>Begin Spectral Data<<<<<
801.071	7982
801.214	7986
801.356	7860
801.499	7845
801.641	7772
801.783	7746
801.926	7928
802.068	7909
802.211	8016
802.353	7986
802.496	7852
802.638	7871
802.78	7902
802.923	7936
803.065	7940
803.208	7803
803.35	7959
803.492	7989
803.635	8138
803.777	8039
803.919	8199
804.061	8450
804.204	8153
804.346	8043
804.488	7967
804.63	8031
804.773	8035
804.915	8084
805.057	8286
805.199	8206
805.341	8218
805.483	8279
805.626	8191
805.768	8161
805.91	8123
806.052	8271
806.194	8134
806.336	8286
806.478	8115
806.62	8092
806.762	8126
806.904	8275
807.046	8568
807.188	8320
807.33	8275
807.472	8336
807.614	8142
807.756	8126
807.898	8001
808.04	7906
808.182	7898
808.324	7906
808.465	7925
808.607	8111
808.749	8191
808.891	8191
809.033	8279
809.174	8237
809.316	8062
809.458	8081
809.6	7993
809.741	7997
809.883	7993
810.025	8149
810.166	8081
810.308	8031
810.45	8088
810.591	7822
810.733	7666
810.875	7647
811.016	7548
811.158	7506
811.299	7632
811.441	7738
811.582	7746
811.724	7605
811.865	7544
812.007	7605
812.148	7525
812.29	7677
812.431	7719
812.573	7894
812.714	7978
812.855	8069
812.997	8225
813.138	8347
813.279	8218
813.421	8111
813.562	7970
813.703	7818
813.845	7734
813.986	7495
814.127	7274
814.268	7228
814.41	7183
814.551	7175
814.692	7209
814.833	7129
814.974	7103
815.115	7057
815.256	7023
815.397	6989
815.539	6947
815.68	6802
815.821	6818
815.962	6886
816.103	6844
816.244	6730
816.385	6616
816.526	6551
816.666	6513
816.807	6308
816.948	6399
817.089	6460
817.23	6426
817.371	6304
817.512	6391
817.653	6429
817.793	6300
817.934	6372
818.075	6506
818.216	6391
818.356	6372
818.497	6224
818.638	6159
818.778	6194
818.919	6125
819.06	6106
819.2	6281
819.341	6395
819.481	6365
819.622	6585
819.762	6745
819.903	6711
820.043	6570
820.184	6559
820.324	6608
820.465	6669
820.605	6745
820.746	6646
820.886	6517
821.026	6669
821.167	6681
821.307	6764
821.447	6730
821.588	6665
821.728	6585
821.868	6422
822.008	6346
822.149	6410
822.289	6331
822.429	6091
822.569	6087
822.709	6102
822.849	5897
822.99	5874
823.13	5870
823.27	5931
823.41	5809
823.55	5756
823.69	5752
823.83	5752
823.97	5684
824.11	5520
824.25	5535
824.389	5585
824.529	5570
824.669	5505
824.809	5596
824.949	5665
825.089	5611
825.228	5543
825.368	5395
825.508	5311
825.648	5353
825.787	5421
825.927	5345
826.067	5288
826.206	5296
826.346	5360
826.485	5391
826.625	5406
826.765	5520
826.904	5444
827.044	5280
827.183	5162
827.323	5132
827.462	5258
827.601	5132
827.741	5155
827.88	5235
828.02	5083
828.159	5239
828.298	5288
828.437	5330
828.577	5288
828.716	5482
828.855	5311
828.994	5208
829.134	5140
829.273	5147
829.412	5151
829.551	5109
829.69	5166
829.829	5235
829.968	5364
830.107	5242
830.246	5227
830.385	5170
830.524	5132
830.663	5041
830.802	4999
830.941	4949
831.08	4885
831.219	4927
831.357	4946
831.496	5124
831.635	4953
831.774	4790
831.913	4870
832.051	4752
832.19	4752
832.329	4835
832.467	4698
832.606	4668
832.744	4702
832.883	4710
833.022	4729
833.16	4816
833.299	4873
833.437	4847
833.576	4824
833.714	4881
833.852	4828
833.991	4885
834.129	4946
834.267	4957
834.406	4961
834.544	4965
834.682	4976
834.821	4968
834.959	5143
835.097	4987
835.235	5162
835.373	5132
835.511	5121
835.65	5083
835.788	4976
835.926	4892
836.064	4870
836.202	4881
836.34	5151
836.478	5189
836.615	5151
836.753	5258
836.891	5292
837.029	5261
837.167	5208
837.305	5185
837.443	5102
837.58	5083
837.718	5223
837.856	5174
837.993	5166
838.131	5185
838.269	5220
838.406	5227
838.544	5155
838.681	5025
838.819	5033
838.956	4904
839.094	4904
839.231	4927
839.369	5083
839.506	5395
839.643	5254
839.781	5098
839.918	5041
840.055	5086
840.193	5113
840.33	5121
840.467	5147
840.604	5197
840.742	5471
840.879	5098
841.016	5056
841.153	5212
841.29	5353
841.427	5357
841.564	5360
841.701	5341
841.838	5254
841.975	5254
842.112	5212
842.249	5109
842.385	5086
842.522	5330
842.659	5185
842.796	5143
842.933	5204
843.069	5170
843.206	5124
843.343	5265
843.479	5189
843.616	5254
843.752	5018
843.889	5006
844.025	5189
844.162	5029
844.298	5166
844.435	5105
844.571	5033
844.708	5174
844.844	5280
844.98	5292
845.117	5273
845.253	5151
845.389	5048
845.525	5121
845.661	5102
845.798	5056
845.934	5151
846.07	5056
846.206	5143
846.342	5288
846.478	5128
846.614	5022
846.75	4968
846.886	4930
847.022	5159
847.158	5003
847.294	5060
847.429	5105
847.565	5048
847.701	5311
847.837	4908
847.972	4809
848.108	4930
848.244	4957
848.379	4782
848.515	4706
848.65	4660
848.786	4656
848.921	4759
849.057	4858
849.192	4900
849.328	4835
849.463	4866
849.598	4790
849.734	4771
849.869	4710
850.004	4596
850.14	4641
850.275	4615
850.41	4527
850.545	4531
850.68	4656
850.815	4618
850.95	4622
851.085	4816
851.22	4801
851.355	4664
851.49	4546
851.625	4599
851.76	4626
851.895	4573
852.03	4531
852.165	4672
852.299	4687
852.434	4801
852.569	4755
852.703	4706
852.838	4862
852.973	4915
853.107	4927
853.242	4759
853.376	4634
853.511	4550
853.645	4599
853.78	4816
853.914	4653
854.048	4653
854.183	4649
854.317	4714
854.451	4839
854.585	4637
854.72	4702
854.854	4721
854.988	4611
855.122	4622
855.256	4531
855.39	4679
855.524	4725
855.658	4668
855.792	4668
855.926	4687
856.06	4755
856.194	4782
856.327	4679
856.461	4599
856.595	4596
856.729	4596
856.862	4755
856.996	4664
857.13	4714
857.263	4725
857.397	4793
857.53	4611
857.664	4714
857.797	4702
857.931	4774
858.064	4664
858.197	4691
858.331	4641
858.464	4580
858.597	4504
858.731	4656
858.864	4645
858.997	4615
859.13	4630
859.263	4630
859.396	4710
859.529	4542
859.662	4531
859.795	4561
859.928	4656
860.061	4782
860.194	4771
860.327	4603
860.46	4550
860.592	4698
860.725	4641
860.858	4694
860.99	4584
861.123	4554
861.256	4474
861.388	4622
861.521	5395
861.653	4455
861.786	4440
861.918	4436
862.05	4478
862.183	4577
862.315	4634
862.447	4637
862.58	4538
862.712	4348
862.844	4314
862.976	4478
863.108	4443
863.24	4820
863.372	4306
863.504	4462
863.636	4383
863.768	4478
863.9	4443
864.032	4341
864.164	4440
864.296	4432
864.428	4538
864.559	4554
864.691	4523
864.823	4516
864.954	4542
865.086	4531
865.217	4474
865.349	4402
865.48	4466
865.612	4474
865.743	4622
865.875	4497
866.006	4386
866.137	4462
866.269	4421
866.4	4451
866.531	4413
866.662	4383
866.793	4352
866.924	4371
867.055	4443
867.186	4405
867.317	4455
867.448	4356
867.579	4344
867.71	4413
867.841	4424
867.972	4440
868.103	4561
868.233	4443
868.364	4386
868.495	4485
868.625	4634
868.756	4721
868.886	4542
869.017	4607
869.147	4782
869.278	4714
869.408	4622
869.539	4637
869.669	4683
869.799	4626
869.929	4748
870.06	4755
870.19	4923
870.32	4889
870.45	4934
870.58	4987
870.71	5079
870.84	5105
870.97	4942
871.1	4847
871.23	5113
871.36	5098
871.489	5018
871.619	5121
871.749	5041
871.879	5140
872.008	5124
872.138	5014
872.267	4957
872.397	4858
872.526	4778
872.656	4691
872.785	4755
872.915	4908
873.044	5010
873.173	4919
873.303	4911
873.432	4968
873.561	4942
873.69	4843
873.819	4854
873.948	4911
874.077	4831
874.206	4778
874.335	4809
874.464	4881
874.593	5025
874.722	4934
874.851	5086
874.979	5045
875.108	5029
875.237	4904
875.365	4885
875.494	4873
875.623	4942
875.751	4793
875.88	4866
876.008	4968
876.136	5067
876.265	5174
876.393	5318
876.521	5235
876.65	5181
876.778	5166
876.906	5037
877.034	5014
877.162	5033
877.29	4987
877.418	5045
877.546	5033
877.674	5003
877.802	5025
877.93	5018
878.058	4949
878.185	4881
878.313	4984
878.441	4908
878.568	4805
878.696	4904
878.824	4923
878.951	4968
879.079	5170
879.206	5280
879.333	5075
879.461	4984
879.588	5003
879.715	5109
879.842	5197
879.97	5010
880.097	4774
880.224	4736
880.351	4797
880.478	4797
880.605	4744
880.732	4782
880.859	5060
880.986	4900
881.112	4881
881.239	4778
881.366	4664
881.493	4603
881.619	4542
881.746	4603
881.872	4630
881.999	4611
882.125	4694
882.252	4801
882.378	4835
882.505	4942
882.631	4816
882.757	4672
882.883	4706
883.01	4771
883.136	4584
883.262	4607
883.388	4569
883.514	4774
883.64	4885
883.766	4812
883.892	4649
884.018	4679
884.143	4896
884.269	4999
884.395	4683
884.52	4672
884.646	4637
884.772	4565
884.897	4516
885.023	4649
885.148	4740
885.274	4790
885.399	4805
885.524	4649
885.65	4691
885.775	4748
885.9	4698
886.025	4816
886.15	4812
886.275	4687
886.4	4656
886.525	4694
886.65	4729
886.775	4687
886.9	4858
887.025	5022
887.149	4862
887.274	4641
887.399	4618
887.523	4546
887.648	4535
887.773	4550
887.897	4790
888.021	4767
888.146	4721
888.27	4797
888.395	4919
888.519	4809
888.643	4778
888.767	4733
888.891	4679
889.015	4603
889.139	4615
889.263	4599
889.387	4752
889.511	4820
889.635	4782
889.759	4577
889.883	4637
890.006	4710
890.13	4847
890.254	4565
890.377	4694
890.501	4546
890.624	4546
890.748	4637
890.871	4470
890.995	4390
891.118	4398
891.241	4466
891.364	4577
891.488	4645
891.611	4512
891.734	4561
891.857	4596
891.98	4535
892.103	4634
892.226	4588
892.349	4523
892.471	4432
892.594	4523
892.717	4535
892.839	4580
892.962	4516
893.085	4637
893.207	4565
893.33	4443
893.452	4538
893.575	4656
893.697	4538
893.819	4790
893.941	4809
894.064	4767
894.186	4599
894.308	4542
894.43	4710
894.552	4812
894.674	4736
894.796	4512
894.918	4535
895.04	4531
895.161	4672
895.283	4637
895.405	4554
895.526	4611
895.648	4668
895.769	4698
895.891	4660
896.012	4736
896.134	4725
896.255	4672
896.376	4599
896.498	4603
896.619	4679
896.74	4611
896.861	4634
896.982	4885
897.103	5048
897.224	4858
897.345	4698
897.466	4656
897.587	4725
897.708	4839
897.828	4767
897.949	4710
898.07	4558
898.19	4653
898.311	4828
898.431	4634
898.552	4717
898.672	4797
898.792	4763
898.913	4710
899.033	4653
899.153	4527
899.273	4417
899.393	4478
899.513	4531
899.633	4527
899.753	4516
899.873	4497
899.993	4588
900.113	4478
900.232	4607
900.352	4558
900.472	4500
900.591	4455
900.711	4493
900.83	4443
900.95	4618
901.069	4653
901.189	4508
901.308	4299
901.427	4318
901.546	4367
901.665	4451
901.784	4481
901.904	4390
902.023	4272
902.141	4166
902.26	4158
902.379	4306
902.498	4223
902.617	4150
902.735	4329
902.854	4421
902.973	4360
903.091	4181
903.21	4169
903.328	4325
903.446	4272
903.565	4238
903.683	4333
903.801	4310
903.919	4348
904.038	4440
904.156	4348
904.274	4398
904.392	4356
904.51	4405
904.627	4443
904.745	4603
904.863	4615
904.981	4398
905.098	4265
905.216	4413
905.334	4409
905.451	4424
905.569	4409
905.686	4523
905.803	4615
905.921	4379
906.038	4558
906.155	4508
906.272	4363
906.389	4405
906.506	4325
906.623	4367
906.74	4394
906.857	4310
906.974	4413
907.091	4561
907.208	4656
907.324	4546
907.441	4485
907.557	4287
907.674	4352
907.79	4249
907.907	4337
908.023	4481
908.139	4485
908.256	4466
908.372	4451
908.488	4413
908.604	4333
908.72	4348
908.836	4398
908.952	4379
909.068	4424
909.184	4584
909.3	4466
909.415	4573
909.531	4535
909.647	4318
909.762	4363
909.878	4356
909.993	4417
910.108	4398
910.224	4390
910.339	4508
910.454	4375
910.57	4360
910.685	4284
910.8	4656
910.915	4542
911.03	4440
911.145	4303
911.259	4314
911.374	4352
911.489	4299
911.604	4272
911.718	4177
911.833	4192
911.947	4063
912.062	4021
912.176	4192
912.291	4238
912.405	4242
912.519	4478
912.633	4466
912.748	4383
912.862	4333
912.976	4196
913.09	4112
913.204	4177
913.318	4238
913.431	4360
913.545	4333
913.659	4443
913.772	4383
913.886	4238
914	4185
914.113	4375
914.226	4409
914.34	4428
914.453	4227
914.566	4394
914.68	4344
914.793	4318
914.906	4166
915.019	4154
915.132	4101
915.245	4154
915.358	4207
915.47	4200
915.583	4284
915.696	4253
915.809	4413
915.921	4459
916.034	4253
916.146	4227
916.259	4219
916.371	4375
916.483	4344
916.595	4280
916.708	4356
916.82	4363
916.932	4306
917.044	4329
917.156	4318
917.268	4219
917.38	4234
917.491	4219
917.603	4341
917.715	4402
917.826	4398
917.938	4379
918.049	4253
918.161	4348
918.272	4531
918.384	4504
918.495	4432
918.606	4306
918.717	4249
918.828	4344
918.939	4371
919.05	4215
919.161	4272
919.272	4143
919.383	4188
919.494	4421
919.604	4637
919.715	4459
919.826	4310
919.936	4447
920.047	4523
920.157	4523
920.267	4656
920.378	4580
920.488	4481
920.598	4694
920.708	4885
920.818	4736
920.928	4725
921.038	4904
921.148	4911
921.258	4634
921.368	4542
921.477	4474
921.587	4462
921.697	4348
921.806	4546
921.916	4405
922.025	4253
922.134	4268
922.244	4185
922.353	4337
922.462	4143
922.571	4173
922.68	4051
922.789	3979
922.898	4036
923.007	3972
923.116	4097
923.224	4071
923.333	4044
923.442	3968
923.55	3934
923.659	3998
923.767	4105
923.876	3975
923.984	4120
924.092	4010
924.201	4071
924.309	4059
924.417	4128
924.525	4074
924.633	4112
924.741	5041
924.849	3907
924.956	4116
925.064	3930
925.172	3911
925.279	3964
925.387	4055
925.494	4059
925.602	4162
925.709	4185
925.816	4055
925.924	4147
926.031	4211
926.138	4181
926.245	4154
926.352	4090
926.459	4246
926.566	4306
926.673	4139
926.779	4074
926.886	4067
926.993	4002
927.099	3949
927.206	3903
927.312	3922
927.419	4013
927.525	4059
927.631	4139
927.737	3953
927.843	3945
927.95	3827
928.056	3945
928.162	3949
928.267	4055
928.373	4717
928.479	4128
928.585	3888
928.69	4013
928.796	4086
928.901	3979
929.007	3831
929.112	3991
929.218	3983
929.323	3922
929.428	3941
929.533	4143
929.638	3945
929.743	3953
929.848	4036
929.953	4010
930.058	3884
930.163	3774
930.267	3816
930.372	3987
930.477	3842
930.581	4090
930.685	3975
930.79	3823
930.894	3873
930.998	3819
931.103	4055
931.207	3740
931.311	3717
931.415	3675
931.519	3545
931.623	3523
