Data from test_V78500241_350.txt Node
Date: Fri Mar 25 16:51:26 CST 2022
User: usil
Spectrometer: V785-0024
Trigger mode: 0
Integration Time (sec): 4.000000E-1
Scans to average: 1
Nonlinearity correction enabled: false
Boxcar width: 0
Storing dark spectrum: false
XAxis mode: Wavelengths
Number of Pixels in Spectrum: 1024
>>>>>Begin Spectral Data<<<<<
801.071	8115
801.214	8088
801.356	7944
801.499	7894
801.641	7864
801.783	7849
801.926	7978
802.068	7963
802.211	7951
802.353	8008
802.496	7849
802.638	7951
802.78	7951
802.923	7986
803.065	7868
803.208	7868
803.35	7955
803.492	8050
803.635	8077
803.777	7947
803.919	8130
804.061	8419
804.204	8180
804.346	8077
804.488	7909
804.63	8096
804.773	8046
804.915	8092
805.057	8290
805.199	8214
805.341	8267
805.483	8164
805.626	8161
805.768	8111
805.91	8191
806.052	8221
806.194	8142
806.336	8256
806.478	8130
806.62	8145
806.762	8199
806.904	8229
807.046	8495
807.188	8336
807.33	8263
807.472	8343
807.614	8161
807.756	8123
807.898	8077
808.04	7928
808.182	7928
808.324	7925
808.465	7955
808.607	8126
808.749	8130
808.891	8202
809.033	8279
809.174	8168
809.316	8054
809.458	8062
809.6	7959
809.741	8035
809.883	8008
810.025	8119
810.166	8073
810.308	8058
810.45	8005
810.591	7890
810.733	7738
810.875	7666
811.016	7525
811.158	7597
811.299	7670
811.441	7818
811.582	7719
811.724	7609
811.865	7594
812.007	7647
812.148	7613
812.29	7727
812.431	7769
812.573	7890
812.714	7978
812.855	8100
812.997	8134
813.138	8259
813.279	8221
813.421	8103
813.562	8043
813.703	7879
813.845	7792
813.986	7449
814.127	7285
814.268	7293
814.41	7244
814.551	7164
814.692	7213
814.833	7118
814.974	7152
815.115	7164
815.256	7015
815.397	6954
815.539	6954
815.68	6814
815.821	6783
815.962	6905
816.103	6848
816.244	6814
816.385	6662
816.526	6608
816.666	6509
816.807	6296
816.948	6509
817.089	6502
817.23	6471
817.371	6384
817.512	6418
817.653	6407
817.793	6369
817.934	6452
818.075	6483
818.216	6460
818.356	6456
818.497	6292
818.638	6102
818.778	6133
818.919	6155
819.06	6148
819.2	6266
819.341	6270
819.481	6365
819.622	6551
819.762	6688
819.903	6726
820.043	6631
820.184	6528
820.324	6574
820.465	6741
820.605	6711
820.746	6616
820.886	6585
821.026	6608
821.167	6700
821.307	6814
821.447	6722
821.588	6677
821.728	6650
821.868	6540
822.008	6350
822.149	6311
822.289	6399
822.429	6140
822.569	6117
822.709	6144
822.849	5897
822.99	6019
823.13	5950
823.27	5927
823.41	5832
823.55	5817
823.69	5756
823.83	5771
823.97	5703
824.11	5543
824.25	5516
824.389	5589
824.529	5608
824.669	5482
824.809	5604
824.949	5638
825.089	5619
825.228	5589
825.368	5425
825.508	5379
825.648	5299
825.787	5395
825.927	5364
826.067	5330
826.206	5334
826.346	5345
826.485	5383
826.625	5379
826.765	5528
826.904	5478
827.044	5250
827.183	5166
827.323	5147
827.462	5269
827.601	5185
827.741	5223
827.88	5242
828.02	5117
828.159	5273
828.298	5280
828.437	5341
828.577	5273
828.716	5455
828.855	5330
828.994	5170
829.134	5094
829.273	5178
829.412	5140
829.551	5178
829.69	5143
829.829	5220
829.968	5372
830.107	5258
830.246	5299
830.385	5174
830.524	5155
830.663	5052
830.802	4995
830.941	4881
831.08	4934
831.219	4961
831.357	4999
831.496	5166
831.635	4900
831.774	4850
831.913	4812
832.051	4748
832.19	4782
832.329	4877
832.467	4664
832.606	4656
832.744	4752
832.883	4748
833.022	4729
833.16	4763
833.299	4801
833.437	4824
833.576	4816
833.714	4831
833.852	4896
833.991	4915
834.129	4972
834.267	4965
834.406	4889
834.544	4957
834.682	4968
834.821	4976
834.959	5162
835.097	4972
835.235	5204
835.373	5086
835.511	5102
835.65	5048
835.788	5010
835.926	4934
836.064	4892
836.202	4942
836.34	5178
836.478	5246
836.615	5128
836.753	5189
836.891	5318
837.029	5269
837.167	5201
837.305	5136
837.443	5151
837.58	5117
837.718	5227
837.856	5170
837.993	5143
838.131	5227
838.269	5220
838.406	5258
838.544	5155
838.681	5060
838.819	5056
838.956	4862
839.094	4942
839.231	4923
839.369	5094
839.506	5421
839.643	5239
839.781	5098
839.918	5060
840.055	5121
840.193	5090
840.33	5109
840.467	5159
840.604	5193
840.742	5425
840.879	5052
841.016	5121
841.153	5208
841.29	5417
841.427	5368
841.564	5368
841.701	5307
841.838	5296
841.975	5265
842.112	5284
842.249	5174
842.385	5045
842.522	5334
842.659	5201
842.796	5067
842.933	5227
843.069	5109
843.206	5162
843.343	5364
843.479	5231
843.616	5269
843.752	5033
843.889	5060
844.025	5178
844.162	5025
844.298	5216
844.435	5094
844.571	4991
844.708	5227
844.844	5364
844.98	5372
845.117	5296
845.253	5098
845.389	5048
845.525	5204
845.661	5208
845.798	5075
845.934	5181
846.07	5033
846.206	5231
846.342	5258
846.478	5193
846.614	5056
846.75	4995
846.886	4934
847.022	5170
847.158	5025
847.294	5086
847.429	5166
847.565	5022
847.701	5299
847.837	4843
847.972	4820
848.108	4919
848.244	4930
848.379	4786
848.515	4702
848.65	4736
848.786	4763
848.921	4778
849.057	4854
849.192	4934
849.328	4805
849.463	4839
849.598	4839
849.734	4752
849.869	4691
850.004	4660
850.14	4679
850.275	4634
850.41	4546
850.545	4546
850.68	4626
850.815	4687
850.95	4626
851.085	4790
851.22	4774
851.355	4683
851.49	4656
851.625	4653
851.76	4622
851.895	4512
852.03	4516
852.165	4668
852.299	4702
852.434	4763
852.569	4752
852.703	4797
852.838	4885
852.973	4877
853.107	4930
853.242	4771
853.376	4683
853.511	4603
853.645	4622
853.78	4801
853.914	4672
854.048	4698
854.183	4626
854.317	4733
854.451	4820
854.585	4729
854.72	4615
854.854	4748
854.988	4588
855.122	4664
855.256	4519
855.39	4691
855.524	4790
855.658	4763
855.792	4649
855.926	4721
856.06	4771
856.194	4839
856.327	4698
856.461	4634
856.595	4599
856.729	4656
856.862	4755
856.996	4694
857.13	4733
857.263	4752
857.397	4850
857.53	4714
857.664	4736
857.797	4797
857.931	4763
858.064	4721
858.197	4725
858.331	4611
858.464	4592
858.597	4531
858.731	4615
858.864	4679
858.997	4596
859.13	4694
859.263	4706
859.396	4668
859.529	4577
859.662	4573
859.795	4584
859.928	4660
860.061	4733
860.194	4774
860.327	4618
860.46	4592
860.592	4683
860.725	4729
860.858	4702
860.99	4580
861.123	4527
861.256	4565
861.388	4565
861.521	5284
861.653	4481
861.786	4402
861.918	4481
862.05	4554
862.183	4550
862.315	4626
862.447	4668
862.58	4599
862.712	4379
862.844	4329
862.976	4470
863.108	4413
863.24	4763
863.372	4299
863.504	4428
863.636	4363
863.768	4440
863.9	4428
864.032	4333
864.164	4398
864.296	4436
864.428	4577
864.559	4546
864.691	4523
864.823	4504
864.954	4481
865.086	4542
865.217	4421
865.349	4375
865.48	4577
865.612	4485
865.743	4641
865.875	4478
866.006	4432
866.137	4474
866.269	4459
866.4	4462
866.531	4436
866.662	4394
866.793	4352
866.924	4481
867.055	4474
867.186	4474
867.317	4421
867.448	4379
867.579	4413
867.71	4421
867.841	4371
867.972	4516
868.103	4493
868.233	4466
868.364	4421
868.495	4512
868.625	4630
868.756	4702
868.886	4558
869.017	4584
869.147	4786
869.278	4782
869.408	4672
869.539	4649
869.669	4759
869.799	4641
869.929	4771
870.06	4748
870.19	4972
870.32	4946
870.45	4919
870.58	5014
870.71	5136
870.84	5060
870.97	4930
871.1	4892
871.23	5124
871.36	5113
871.489	5075
871.619	5060
871.749	5102
871.879	5090
872.008	5208
872.138	5022
872.267	4980
872.397	4805
872.526	4843
872.656	4706
872.785	4759
872.915	5025
873.044	5029
873.173	4961
873.303	4938
873.432	4987
873.561	4987
873.69	4870
873.819	4858
873.948	4984
874.077	4805
874.206	4748
874.335	4820
874.464	4949
874.593	5083
874.722	4957
874.851	5090
874.979	5124
875.108	4995
875.237	4930
875.365	4873
875.494	4908
875.623	4987
875.751	4877
875.88	4873
876.008	4957
876.136	5014
876.265	5204
876.393	5357
876.521	5208
876.65	5254
876.778	5174
876.906	5071
877.034	5048
877.162	5045
877.29	5029
877.418	5045
877.546	5041
877.674	5022
877.802	5010
877.93	5014
878.058	4965
878.185	4911
878.313	4961
878.441	5010
878.568	4797
878.696	4850
878.824	4980
878.951	4972
879.079	5086
879.206	5299
879.333	5132
879.461	5018
879.588	4942
879.715	5113
879.842	5258
879.97	4957
880.097	4752
880.224	4736
880.351	4824
880.478	4816
880.605	4831
880.732	4782
880.859	5113
880.986	4847
881.112	4938
881.239	4801
881.366	4656
881.493	4645
881.619	4584
881.746	4641
881.872	4668
881.999	4672
882.125	4698
882.252	4774
882.378	4797
882.505	4957
882.631	4824
882.757	4702
882.883	4717
883.01	4733
883.136	4672
883.262	4584
883.388	4618
883.514	4831
883.64	4850
883.766	4812
883.892	4672
884.018	4774
884.143	4866
884.269	5071
884.395	4733
884.52	4618
884.646	4645
884.772	4573
884.897	4546
885.023	4675
885.148	4752
885.274	4843
885.399	4797
885.524	4694
885.65	4698
885.775	4744
885.9	4687
886.025	4881
886.15	4740
886.275	4664
886.4	4656
886.525	4717
886.65	4691
886.775	4687
886.9	4900
887.025	5003
887.149	4771
887.274	4637
887.399	4573
887.523	4634
887.648	4649
887.773	4611
887.897	4824
888.021	4771
888.146	4702
888.27	4812
888.395	4908
888.519	4850
888.643	4839
888.767	4835
888.891	4672
889.015	4618
889.139	4607
889.263	4577
889.387	4778
889.511	4835
889.635	4816
889.759	4622
889.883	4634
890.006	4797
890.13	4881
890.254	4603
890.377	4710
890.501	4558
890.624	4558
890.748	4641
890.871	4538
890.995	4455
891.118	4390
891.241	4531
891.364	4569
891.488	4660
891.611	4466
891.734	4516
891.857	4637
891.98	4577
892.103	4683
892.226	4573
892.349	4508
892.471	4436
892.594	4542
892.717	4596
892.839	4584
892.962	4607
893.085	4653
893.207	4603
893.33	4523
893.452	4516
893.575	4714
893.697	4596
893.819	4793
893.941	4809
894.064	4805
894.186	4592
894.308	4584
894.43	4714
894.552	4816
894.674	4782
894.796	4596
894.918	4626
895.04	4603
895.161	4672
895.283	4660
895.405	4580
895.526	4641
895.648	4687
895.769	4675
895.891	4714
896.012	4771
896.134	4736
896.255	4645
896.376	4630
896.498	4641
896.619	4702
896.74	4626
896.861	4626
896.982	4911
897.103	5060
897.224	4816
897.345	4748
897.466	4691
897.587	4710
897.708	4831
897.828	4771
897.949	4691
898.07	4588
898.19	4637
898.311	4839
898.431	4664
898.552	4774
898.672	4839
898.792	4858
898.913	4714
899.033	4656
899.153	4493
899.273	4462
899.393	4516
899.513	4535
899.633	4519
899.753	4561
899.873	4535
899.993	4596
900.113	4516
900.232	4622
900.352	4558
900.472	4538
900.591	4379
900.711	4550
900.83	4432
900.95	4603
901.069	4672
901.189	4588
901.308	4341
901.427	4310
901.546	4371
901.665	4462
901.784	4512
901.904	4417
902.023	4337
902.141	4215
902.26	4166
902.379	4276
902.498	4261
902.617	4242
902.735	4386
902.854	4432
902.973	4443
903.091	4177
903.21	4211
903.328	4295
903.446	4284
903.565	4291
903.683	4356
903.801	4261
903.919	4443
904.038	4474
904.156	4337
904.274	4398
904.392	4386
904.51	4455
904.627	4493
904.745	4603
904.863	4622
904.981	4421
905.098	4318
905.216	4356
905.334	4436
905.451	4474
905.569	4443
905.686	4588
905.803	4615
905.921	4386
906.038	4569
906.155	4466
906.272	4424
906.389	4436
906.506	4386
906.623	4367
906.74	4367
906.857	4325
906.974	4371
907.091	4523
907.208	4656
907.324	4645
907.441	4497
907.557	4352
907.674	4303
907.79	4268
907.907	4375
908.023	4504
908.139	4497
908.256	4478
908.372	4451
908.488	4493
908.604	4341
908.72	4310
908.836	4375
908.952	4356
909.068	4398
909.184	4580
909.3	4523
909.415	4584
909.531	4546
909.647	4375
909.762	4348
909.878	4371
909.993	4440
910.108	4394
910.224	4443
910.339	4489
910.454	4432
910.57	4352
910.685	4341
910.8	4622
910.915	4634
911.03	4474
911.145	4329
911.259	4310
911.374	4402
911.489	4329
911.604	4265
911.718	4242
911.833	4242
911.947	4135
912.062	4021
912.176	4215
912.291	4230
912.405	4230
912.519	4474
912.633	4538
912.748	4367
912.862	4306
912.976	4242
913.09	4185
913.204	4223
913.318	4291
913.431	4341
913.545	4409
913.659	4478
913.772	4341
913.886	4261
914	4227
914.113	4398
914.226	4398
914.34	4386
914.453	4215
914.566	4375
914.68	4363
914.793	4337
914.906	4166
915.019	4166
915.132	4086
915.245	4196
915.358	4257
915.47	4253
915.583	4322
915.696	4303
915.809	4405
915.921	4413
916.034	4230
916.146	4287
916.259	4257
916.371	4413
916.483	4360
916.595	4272
916.708	4344
916.82	4310
916.932	4352
917.044	4333
917.156	4360
917.268	4246
917.38	4303
917.491	4299
917.603	4329
917.715	4417
917.826	4459
917.938	4344
918.049	4242
918.161	4432
918.272	4538
918.384	4588
918.495	4459
918.606	4314
918.717	4246
918.828	4325
918.939	4333
919.05	4280
919.161	4295
919.272	4131
919.383	4299
919.494	4474
919.604	4622
919.715	4409
919.826	4379
919.936	4413
920.047	4538
920.157	4459
920.267	4717
920.378	4603
920.488	4538
920.598	4721
920.708	4908
920.818	4725
920.928	4801
921.038	4923
921.148	4911
921.258	4660
921.368	4592
921.477	4478
921.587	4516
921.697	4413
921.806	4554
921.916	4394
922.025	4306
922.134	4280
922.244	4253
922.353	4371
922.462	4204
922.571	4086
922.68	4010
922.789	4002
922.898	4013
923.007	3972
923.116	4131
923.224	4074
923.333	4086
923.442	3975
923.55	3975
923.659	4105
923.767	4109
923.876	4032
923.984	4101
924.092	4021
924.201	4143
924.309	4124
924.417	4128
924.525	4051
924.633	4093
924.741	4820
924.849	3918
924.956	4116
925.064	3979
925.172	3941
925.279	3968
925.387	4029
925.494	4078
925.602	4196
925.709	4169
925.816	4063
925.924	4139
926.031	4249
926.138	4169
926.245	4219
926.352	4071
926.459	4238
926.566	4295
926.673	4204
926.779	4097
926.886	4074
926.993	3975
927.099	3945
927.206	3930
927.312	3949
927.419	4036
927.525	4017
927.631	4059
927.737	3949
927.843	3896
927.95	3857
928.056	3956
928.162	3994
928.267	4071
928.373	4664
928.479	4109
928.585	3899
928.69	4051
928.796	4097
928.901	3994
929.007	3831
929.112	4002
929.218	3994
929.323	3937
929.428	3975
929.533	4082
929.638	3918
929.743	4006
929.848	4029
929.953	4010
930.058	3960
930.163	3755
930.267	3838
930.372	3994
930.477	3804
930.581	4074
930.685	4002
930.79	3835
930.894	3918
930.998	3861
931.103	3994
931.207	3698
931.311	3701
931.415	3641
931.519	3553
931.623	3545
