Data from test_V78500241_1071.txt Node
Date: Fri Mar 25 16:56:26 CST 2022
User: usil
Spectrometer: V785-0024
Trigger mode: 0
Integration Time (sec): 4.000000E-1
Scans to average: 1
Nonlinearity correction enabled: false
Boxcar width: 0
Storing dark spectrum: false
XAxis mode: Wavelengths
Number of Pixels in Spectrum: 1024
>>>>>Begin Spectral Data<<<<<
801.071	8084
801.214	8062
801.356	7906
801.499	7811
801.641	7845
801.783	7776
801.926	8012
802.068	7906
802.211	7967
802.353	8020
802.496	7757
802.638	7883
802.78	7970
802.923	7894
803.065	7887
803.208	7822
803.35	7932
803.492	8096
803.635	8172
803.777	8024
803.919	8123
804.061	8423
804.204	8161
804.346	8119
804.488	7982
804.63	8107
804.773	7986
804.915	8073
805.057	8298
805.199	8191
805.341	8172
805.483	8301
805.626	8229
805.768	8103
805.91	8229
806.052	8115
806.194	8096
806.336	8271
806.478	8111
806.62	8111
806.762	8145
806.904	8271
807.046	8457
807.188	8313
807.33	8298
807.472	8317
807.614	8153
807.756	8126
807.898	7970
808.04	7879
808.182	7845
808.324	7860
808.465	7936
808.607	8123
808.749	8157
808.891	8176
809.033	8259
809.174	8214
809.316	8069
809.458	8027
809.6	8016
809.741	8005
809.883	8050
810.025	8073
810.166	7989
810.308	8012
810.45	7959
810.591	7864
810.733	7677
810.875	7609
811.016	7521
811.158	7537
811.299	7578
811.441	7662
811.582	7647
811.724	7605
811.865	7540
812.007	7544
812.148	7616
812.29	7647
812.431	7753
812.573	7917
812.714	7944
812.855	8115
812.997	8119
813.138	8282
813.279	8153
813.421	8081
813.562	7947
813.703	7879
813.845	7753
813.986	7457
814.127	7217
814.268	7183
814.41	7190
814.551	7061
814.692	7149
814.833	7076
814.974	7038
815.115	7069
815.256	6939
815.397	6943
815.539	6844
815.68	6867
815.821	6814
815.962	6871
816.103	6776
816.244	6711
816.385	6627
816.526	6635
816.666	6471
816.807	6277
816.948	6464
817.089	6414
817.23	6426
817.371	6384
817.512	6369
817.653	6395
817.793	6346
817.934	6384
818.075	6391
818.216	6414
818.356	6357
818.497	6251
818.638	6095
818.778	6175
818.919	6106
819.06	6133
819.2	6311
819.341	6296
819.481	6433
819.622	6563
819.762	6700
819.903	6715
820.043	6658
820.184	6506
820.324	6570
820.465	6726
820.605	6612
820.746	6608
820.886	6498
821.026	6669
821.167	6726
821.307	6753
821.447	6753
821.588	6635
821.728	6597
821.868	6513
822.008	6353
822.149	6353
822.289	6372
822.429	6136
822.569	6060
822.709	6091
822.849	5893
822.99	5942
823.13	5965
823.27	5942
823.41	5821
823.55	5828
823.69	5805
823.83	5836
823.97	5665
824.11	5562
824.25	5573
824.389	5512
824.529	5592
824.669	5539
824.809	5646
824.949	5710
825.089	5634
825.228	5611
825.368	5398
825.508	5433
825.648	5391
825.787	5398
825.927	5398
826.067	5334
826.206	5318
826.346	5448
826.485	5452
826.625	5482
826.765	5615
826.904	5482
827.044	5265
827.183	5201
827.323	5162
827.462	5303
827.601	5258
827.741	5239
827.88	5246
828.02	5151
828.159	5303
828.298	5303
828.437	5368
828.577	5303
828.716	5596
828.855	5364
828.994	5174
829.134	5204
829.273	5212
829.412	5174
829.551	5174
829.69	5242
829.829	5280
829.968	5364
830.107	5303
830.246	5284
830.385	5193
830.524	5197
830.663	5094
830.802	4984
830.941	4892
831.08	4911
831.219	5041
831.357	5022
831.496	5151
831.635	4949
831.774	4797
831.913	4892
832.051	4797
832.19	4782
832.329	4854
832.467	4706
832.606	4649
832.744	4771
832.883	4725
833.022	4725
833.16	4816
833.299	4858
833.437	4854
833.576	4854
833.714	4904
833.852	4892
833.991	4923
834.129	5014
834.267	4957
834.406	4915
834.544	4976
834.682	4995
834.821	4991
834.959	5208
835.097	5022
835.235	5151
835.373	5071
835.511	5086
835.65	5064
835.788	4991
835.926	4892
836.064	4892
836.202	4938
836.34	5166
836.478	5216
836.615	5140
836.753	5242
836.891	5341
837.029	5223
837.167	5147
837.305	5181
837.443	5189
837.58	5083
837.718	5261
837.856	5178
837.993	5204
838.131	5242
838.269	5201
838.406	5265
838.544	5235
838.681	5094
838.819	5010
838.956	4930
839.094	4919
839.231	5018
839.369	5136
839.506	5429
839.643	5284
839.781	5079
839.918	5090
840.055	5098
840.193	5121
840.33	5105
840.467	5170
840.604	5216
840.742	5474
840.879	5105
841.016	5151
841.153	5181
841.29	5341
841.427	5387
841.564	5337
841.701	5326
841.838	5250
841.975	5250
842.112	5318
842.249	5212
842.385	5105
842.522	5307
842.659	5174
842.796	5162
842.933	5185
843.069	5201
843.206	5166
843.343	5303
843.479	5223
843.616	5273
843.752	5045
843.889	4987
844.025	5201
844.162	5003
844.298	5216
844.435	5098
844.571	5067
844.708	5242
844.844	5334
844.98	5280
845.117	5307
845.253	5147
845.389	5052
845.525	5128
845.661	5117
845.798	5045
845.934	5136
846.07	5018
846.206	5223
846.342	5288
846.478	5223
846.614	5060
846.75	4946
846.886	4949
847.022	5132
847.158	4999
847.294	5102
847.429	5067
847.565	5079
847.701	5330
847.837	4904
847.972	4816
848.108	5006
848.244	4911
848.379	4786
848.515	4805
848.65	4664
848.786	4786
848.921	4805
849.057	4873
849.192	4934
849.328	4847
849.463	4892
849.598	4820
849.734	4771
849.869	4660
850.004	4645
850.14	4710
850.275	4615
850.41	4542
850.545	4577
850.68	4637
850.815	4615
850.95	4660
851.085	4839
851.22	4767
851.355	4668
851.49	4645
851.625	4634
851.76	4645
851.895	4538
852.03	4565
852.165	4641
852.299	4729
852.434	4847
852.569	4816
852.703	4767
852.838	4816
852.973	4972
853.107	4976
853.242	4748
853.376	4706
853.511	4618
853.645	4668
853.78	4885
853.914	4649
854.048	4664
854.183	4710
854.317	4740
854.451	4820
854.585	4691
854.72	4679
854.854	4736
854.988	4630
855.122	4649
855.256	4527
855.39	4675
855.524	4782
855.658	4782
855.792	4714
855.926	4771
856.06	4790
856.194	4793
856.327	4694
856.461	4637
856.595	4672
856.729	4675
856.862	4771
856.996	4706
857.13	4725
857.263	4763
857.397	4820
857.53	4675
857.664	4763
857.797	4797
857.931	4801
858.064	4683
858.197	4744
858.331	4675
858.464	4603
858.597	4588
858.731	4656
858.864	4664
858.997	4599
859.13	4664
859.263	4729
859.396	4698
859.529	4577
859.662	4622
859.795	4554
859.928	4634
860.061	4736
860.194	4786
860.327	4561
860.46	4580
860.592	4706
860.725	4736
860.858	4725
860.99	4584
861.123	4531
861.256	4500
861.388	4634
861.521	5357
861.653	4485
861.786	4493
861.918	4508
862.05	4558
862.183	4546
862.315	4626
862.447	4653
862.58	4603
862.712	4421
862.844	4337
862.976	4493
863.108	4459
863.24	4873
863.372	4371
863.504	4409
863.636	4421
863.768	4481
863.9	4447
864.032	4360
864.164	4417
864.296	4466
864.428	4558
864.559	4622
864.691	4573
864.823	4516
864.954	4478
865.086	4535
865.217	4478
865.349	4470
865.48	4493
865.612	4466
865.743	4622
865.875	4470
866.006	4478
866.137	4474
866.269	4478
866.4	4462
866.531	4455
866.662	4428
866.793	4386
866.924	4447
867.055	4489
867.186	4497
867.317	4413
867.448	4383
867.579	4417
867.71	4405
867.841	4356
867.972	4481
868.103	4447
868.233	4440
868.364	4447
868.495	4512
868.625	4664
868.756	4763
868.886	4538
869.017	4634
869.147	4797
869.278	4816
869.408	4706
869.539	4664
869.669	4675
869.799	4649
869.929	4729
870.06	4729
870.19	4938
870.32	4896
870.45	4942
870.58	5025
870.71	5094
870.84	5098
870.97	4934
871.1	4908
871.23	5147
871.36	5132
871.489	5056
871.619	5174
871.749	5128
871.879	5155
872.008	5143
872.138	5067
872.267	5022
872.397	4866
872.526	4805
872.656	4729
872.785	4805
872.915	4972
873.044	5037
873.173	4957
873.303	4980
873.432	4923
873.561	4999
873.69	4934
873.819	4850
873.948	4927
874.077	4824
874.206	4763
874.335	4782
874.464	4957
874.593	5045
874.722	4991
874.851	5064
874.979	5075
875.108	5094
875.237	4919
875.365	4889
875.494	4919
875.623	4972
875.751	4858
875.88	4915
876.008	4957
876.136	5041
876.265	5216
876.393	5311
876.521	5235
876.65	5273
876.778	5105
876.906	5113
877.034	4980
877.162	5045
877.29	5018
877.418	5048
877.546	5014
877.674	5060
877.802	5052
877.93	5090
878.058	4927
878.185	4930
878.313	4953
878.441	4927
878.568	4790
878.696	4862
878.824	4961
878.951	4980
879.079	5121
879.206	5280
879.333	5083
879.461	4949
879.588	4965
879.715	5170
879.842	5193
879.97	5006
880.097	4767
880.224	4767
880.351	4820
880.478	4790
880.605	4774
880.732	4816
880.859	5090
880.986	4908
881.112	4953
881.239	4835
881.366	4660
881.493	4618
881.619	4626
881.746	4656
881.872	4649
881.999	4664
882.125	4668
882.252	4763
882.378	4843
882.505	4938
882.631	4858
882.757	4664
882.883	4752
883.01	4752
883.136	4615
883.262	4618
883.388	4622
883.514	4862
883.64	4835
883.766	4740
883.892	4683
884.018	4740
884.143	4854
884.269	4987
884.395	4706
884.52	4573
884.646	4637
884.772	4577
884.897	4615
885.023	4702
885.148	4771
885.274	4801
885.399	4828
885.524	4668
885.65	4721
885.775	4710
885.9	4691
886.025	4831
886.15	4733
886.275	4717
886.4	4698
886.525	4725
886.65	4714
886.775	4679
886.9	4889
887.025	4984
887.149	4805
887.274	4615
887.399	4603
887.523	4611
887.648	4588
887.773	4637
887.897	4759
888.021	4828
888.146	4660
888.27	4835
888.395	4946
888.519	4809
888.643	4839
888.767	4831
888.891	4679
889.015	4603
889.139	4672
889.263	4573
889.387	4793
889.511	4866
889.635	4828
889.759	4607
889.883	4630
890.006	4714
890.13	4816
890.254	4603
890.377	4717
890.501	4554
890.624	4519
890.748	4634
890.871	4485
890.995	4421
891.118	4413
891.241	4523
891.364	4500
891.488	4683
891.611	4512
891.734	4546
891.857	4523
891.98	4538
892.103	4599
892.226	4596
892.349	4508
892.471	4417
892.594	4588
892.717	4565
892.839	4558
892.962	4596
893.085	4660
893.207	4599
893.33	4474
893.452	4527
893.575	4649
893.697	4637
893.819	4797
893.941	4801
894.064	4706
894.186	4596
894.308	4611
894.43	4717
894.552	4839
894.674	4771
894.796	4558
894.918	4603
895.04	4588
895.161	4634
895.283	4634
895.405	4607
895.526	4645
895.648	4687
895.769	4668
895.891	4752
896.012	4774
896.134	4759
896.255	4653
896.376	4637
896.498	4626
896.619	4694
896.74	4611
896.861	4653
896.982	4908
897.103	5105
897.224	4809
897.345	4740
897.466	4668
897.587	4763
897.708	4820
897.828	4755
897.949	4683
898.07	4546
898.19	4683
898.311	4839
898.431	4660
898.552	4767
898.672	4839
898.792	4809
898.913	4748
899.033	4599
899.153	4481
899.273	4421
899.393	4497
899.513	4592
899.633	4516
899.753	4558
899.873	4527
899.993	4569
900.113	4516
900.232	4607
900.352	4542
900.472	4459
900.591	4405
900.711	4478
900.83	4421
900.95	4588
901.069	4653
901.189	4577
901.308	4367
901.427	4299
901.546	4390
901.665	4481
901.784	4573
901.904	4375
902.023	4303
902.141	4230
902.26	4135
902.379	4291
902.498	4242
902.617	4230
902.735	4360
902.854	4443
902.973	4344
903.091	4211
903.21	4230
903.328	4287
903.446	4261
903.565	4284
903.683	4348
903.801	4268
903.919	4421
904.038	4421
904.156	4314
904.274	4462
904.392	4402
904.51	4421
904.627	4443
904.745	4607
904.863	4641
904.981	4383
905.098	4325
905.216	4363
905.334	4447
905.451	4436
905.569	4424
905.686	4580
905.803	4603
905.921	4447
906.038	4546
906.155	4489
906.272	4440
906.389	4470
906.506	4352
906.623	4356
906.74	4405
906.857	4314
906.974	4379
907.091	4519
907.208	4660
907.324	4599
907.441	4485
907.557	4322
907.674	4318
907.79	4329
907.907	4371
908.023	4470
908.139	4470
908.256	4481
908.372	4436
908.488	4451
908.604	4417
908.72	4352
908.836	4363
908.952	4337
909.068	4462
909.184	4546
909.3	4447
909.415	4577
909.531	4535
909.647	4375
909.762	4348
909.878	4314
909.993	4436
910.108	4417
910.224	4375
910.339	4485
910.454	4325
910.57	4383
910.685	4329
910.8	4698
910.915	4634
911.03	4500
911.145	4329
911.259	4280
911.374	4383
911.489	4299
911.604	4257
911.718	4154
911.833	4253
911.947	4101
912.062	4059
912.176	4169
912.291	4234
912.405	4268
912.519	4443
912.633	4500
912.748	4390
912.862	4303
912.976	4173
913.09	4082
913.204	4181
913.318	4219
913.431	4394
913.545	4371
913.659	4405
913.772	4325
913.886	4238
914	4230
914.113	4386
914.226	4417
914.34	4371
914.453	4253
914.566	4405
914.68	4291
914.793	4261
914.906	4101
915.019	4147
915.132	4090
915.245	4196
915.358	4196
915.47	4230
915.583	4234
915.696	4291
915.809	4394
915.921	4413
916.034	4253
916.146	4287
916.259	4238
916.371	4379
916.483	4394
916.595	4268
916.708	4329
916.82	4287
916.932	4295
917.044	4333
917.156	4257
917.268	4249
917.38	4329
917.491	4261
917.603	4329
917.715	4421
917.826	4451
917.938	4318
918.049	4280
918.161	4375
918.272	4527
918.384	4554
918.495	4481
918.606	4299
918.717	4227
918.828	4325
918.939	4363
919.05	4268
919.161	4306
919.272	4082
919.383	4223
919.494	4459
919.604	4596
919.715	4398
919.826	4318
919.936	4413
920.047	4519
920.157	4485
920.267	4679
920.378	4516
920.488	4462
920.598	4752
920.708	4923
920.818	4771
920.928	4729
921.038	4919
921.148	4904
921.258	4596
921.368	4554
921.477	4493
921.587	4459
921.697	4356
921.806	4519
921.916	4367
922.025	4253
922.134	4284
922.244	4211
922.353	4268
922.462	4169
922.571	4097
922.68	4010
922.789	3983
922.898	4051
923.007	3994
923.116	4112
923.224	4051
923.333	4025
923.442	3972
923.55	3964
923.659	3991
923.767	4150
923.876	3979
923.984	4128
924.092	4032
924.201	4082
924.309	4078
924.417	4086
924.525	4040
924.633	4074
924.741	5014
924.849	3922
924.956	4093
925.064	3941
925.172	3922
925.279	3915
925.387	4082
925.494	4101
925.602	4200
925.709	4166
925.816	4017
925.924	4128
926.031	4238
926.138	4158
926.245	4204
926.352	4093
926.459	4173
926.566	4295
926.673	4109
926.779	4040
926.886	4112
926.993	3975
927.099	3945
927.206	3941
927.312	3934
927.419	4067
927.525	4017
927.631	4048
927.737	3968
927.843	3926
927.95	3819
928.056	3979
928.162	3960
928.267	4048
928.373	4675
928.479	4116
928.585	3903
928.69	3979
928.796	4078
928.901	3964
929.007	3861
929.112	4002
929.218	3987
929.323	3964
929.428	3964
929.533	4124
929.638	3930
929.743	3941
929.848	4036
929.953	3956
930.058	3884
930.163	3759
930.267	3857
930.372	4006
930.477	3835
930.581	4097
930.685	3956
930.79	3823
930.894	3896
930.998	3835
931.103	4055
931.207	3732
931.311	3648
931.415	3682
931.519	3504
931.623	3599
