Data from test_V78500241_1464.txt Node
Date: Fri Mar 25 16:59:10 CST 2022
User: usil
Spectrometer: V785-0024
Trigger mode: 0
Integration Time (sec): 4.000000E-1
Scans to average: 1
Nonlinearity correction enabled: false
Boxcar width: 0
Storing dark spectrum: false
XAxis mode: Wavelengths
Number of Pixels in Spectrum: 1024
>>>>>Begin Spectral Data<<<<<
801.071	8024
801.214	8065
801.356	7772
801.499	7921
801.641	7807
801.783	7750
801.926	7940
802.068	7951
802.211	7970
802.353	8043
802.496	7849
802.638	7887
802.78	7909
802.923	7902
803.065	7868
803.208	7833
803.35	7989
803.492	8081
803.635	8126
803.777	8027
803.919	8172
804.061	8347
804.204	8134
804.346	8016
804.488	7944
804.63	8134
804.773	8035
804.915	8084
805.057	8309
805.199	8244
805.341	8252
805.483	8244
805.626	8202
805.768	8081
805.91	8126
806.052	8187
806.194	8107
806.336	8275
806.478	8123
806.62	8081
806.762	8180
806.904	8237
807.046	8480
807.188	8385
807.33	8256
807.472	8286
807.614	8168
807.756	8107
807.898	8050
808.04	7925
808.182	7936
808.324	7833
808.465	7868
808.607	8126
808.749	8073
808.891	8149
809.033	8305
809.174	8233
809.316	7993
809.458	8039
809.6	8050
809.741	7967
809.883	7936
810.025	8084
810.166	8039
810.308	8062
810.45	7970
810.591	7898
810.733	7715
810.875	7597
811.016	7499
811.158	7533
811.299	7582
811.441	7639
811.582	7704
811.724	7605
811.865	7521
812.007	7521
812.148	7590
812.29	7643
812.431	7712
812.573	7909
812.714	7951
812.855	8130
812.997	8240
813.138	8301
813.279	8145
813.421	8062
813.562	7963
813.703	7906
813.845	7738
813.986	7388
814.127	7324
814.268	7244
814.41	7213
814.551	7209
814.692	7137
814.833	7084
814.974	7110
815.115	7103
815.256	6920
815.397	6909
815.539	6954
815.68	6821
815.821	6821
815.962	6863
816.103	6833
816.244	6700
816.385	6597
816.526	6528
816.666	6429
816.807	6273
816.948	6433
817.089	6448
817.23	6418
817.371	6331
817.512	6414
817.653	6365
817.793	6399
817.934	6441
818.075	6471
818.216	6388
818.356	6426
818.497	6235
818.638	6053
818.778	6125
818.919	6178
819.06	6171
819.2	6338
819.341	6285
819.481	6369
819.622	6509
819.762	6734
819.903	6703
820.043	6559
820.184	6547
820.324	6559
820.465	6722
820.605	6681
820.746	6722
820.886	6540
821.026	6642
821.167	6700
821.307	6798
821.447	6760
821.588	6677
821.728	6517
821.868	6471
822.008	6319
822.149	6315
822.289	6372
822.429	6163
822.569	6133
822.709	6140
822.849	5874
822.99	5912
823.13	5885
823.27	5931
823.41	5783
823.55	5783
823.69	5767
823.83	5752
823.97	5611
824.11	5558
824.25	5471
824.389	5528
824.529	5596
824.669	5490
824.809	5619
824.949	5661
825.089	5642
825.228	5532
825.368	5448
825.508	5318
825.648	5337
825.787	5349
825.927	5368
826.067	5337
826.206	5261
826.346	5349
826.485	5402
826.625	5395
826.765	5551
826.904	5471
827.044	5239
827.183	5235
827.323	5155
827.462	5246
827.601	5132
827.741	5143
827.88	5181
828.02	5079
828.159	5216
828.298	5364
828.437	5345
828.577	5261
828.716	5455
828.855	5265
828.994	5216
829.134	5121
829.273	5197
829.412	5124
829.551	5132
829.69	5174
829.829	5193
829.968	5368
830.107	5277
830.246	5242
830.385	5143
830.524	5121
830.663	5048
830.802	4999
830.941	4892
831.08	4854
831.219	5003
831.357	4942
831.496	5189
831.635	4980
831.774	4790
831.913	4858
832.051	4706
832.19	4763
832.329	4816
832.467	4710
832.606	4653
832.744	4725
832.883	4698
833.022	4736
833.16	4820
833.299	4828
833.437	4805
833.576	4858
833.714	4816
833.852	4850
833.991	4873
834.129	4957
834.267	4923
834.406	4923
834.544	4965
834.682	4942
834.821	5010
834.959	5128
835.097	5029
835.235	5143
835.373	5109
835.511	5090
835.65	5006
835.788	5052
835.926	4896
836.064	4843
836.202	4862
836.34	5166
836.478	5181
836.615	5136
836.753	5181
836.891	5315
837.029	5246
837.167	5193
837.305	5140
837.443	5159
837.58	5079
837.718	5246
837.856	5178
837.993	5090
838.131	5246
838.269	5212
838.406	5227
838.544	5147
838.681	5033
838.819	4999
838.956	4870
839.094	4904
839.231	4976
839.369	5090
839.506	5368
839.643	5246
839.781	5056
839.918	5064
840.055	5086
840.193	5052
840.33	5117
840.467	5155
840.604	5143
840.742	5482
840.879	5083
841.016	5094
841.153	5227
841.29	5402
841.427	5307
841.564	5337
841.701	5353
841.838	5269
841.975	5284
842.112	5280
842.249	5128
842.385	5094
842.522	5326
842.659	5132
842.796	5147
842.933	5174
843.069	5159
843.206	5170
843.343	5280
843.479	5201
843.616	5216
843.752	5010
843.889	4991
844.025	5193
844.162	4995
844.298	5132
844.435	5041
844.571	5052
844.708	5174
844.844	5303
844.98	5345
845.117	5265
845.253	5117
845.389	5052
845.525	5140
845.661	5162
845.798	5041
845.934	5105
846.07	5041
846.206	5220
846.342	5269
846.478	5185
846.614	5003
846.75	4968
846.886	4930
847.022	5136
847.158	4999
847.294	5029
847.429	5048
847.565	5048
847.701	5345
847.837	4889
847.972	4816
848.108	4976
848.244	4949
848.379	4812
848.515	4763
848.65	4714
848.786	4736
848.921	4809
849.057	4885
849.192	4839
849.328	4835
849.463	4866
849.598	4744
849.734	4736
849.869	4744
850.004	4603
850.14	4618
850.275	4584
850.41	4516
850.545	4554
850.68	4580
850.815	4622
850.95	4611
851.085	4843
851.22	4717
851.355	4721
851.49	4618
851.625	4626
851.76	4603
851.895	4573
852.03	4527
852.165	4630
852.299	4733
852.434	4790
852.569	4733
852.703	4755
852.838	4831
852.973	4904
853.107	4877
853.242	4675
853.376	4698
853.511	4504
853.645	4561
853.78	4744
853.914	4668
854.048	4679
854.183	4649
854.317	4683
854.451	4862
854.585	4702
854.72	4603
854.854	4736
854.988	4618
855.122	4626
855.256	4516
855.39	4679
855.524	4767
855.658	4702
855.792	4672
855.926	4672
856.06	4763
856.194	4740
856.327	4672
856.461	4615
856.595	4645
856.729	4630
856.862	4736
856.996	4679
857.13	4740
857.263	4748
857.397	4801
857.53	4672
857.664	4710
857.797	4725
857.931	4736
858.064	4679
858.197	4752
858.331	4694
858.464	4596
858.597	4538
858.731	4622
858.864	4618
858.997	4607
859.13	4675
859.263	4675
859.396	4664
859.529	4550
859.662	4558
859.795	4558
859.928	4592
860.061	4824
860.194	4759
860.327	4637
860.46	4535
860.592	4736
860.725	4702
860.858	4721
860.99	4573
861.123	4497
861.256	4527
861.388	4599
861.521	5429
861.653	4489
861.786	4424
861.918	4489
862.05	4523
862.183	4542
862.315	4592
862.447	4656
862.58	4550
862.712	4360
862.844	4306
862.976	4421
863.108	4485
863.24	4831
863.372	4333
863.504	4428
863.636	4405
863.768	4527
863.9	4409
864.032	4344
864.164	4417
864.296	4466
864.428	4516
864.559	4561
864.691	4519
864.823	4489
864.954	4481
865.086	4489
865.217	4428
865.349	4402
865.48	4440
865.612	4478
865.743	4596
865.875	4455
866.006	4421
866.137	4474
866.269	4451
866.4	4440
866.531	4432
866.662	4386
866.793	4413
866.924	4432
867.055	4497
867.186	4409
867.317	4383
867.448	4325
867.579	4394
867.71	4344
867.841	4383
867.972	4440
868.103	4508
868.233	4462
868.364	4394
868.495	4432
868.625	4687
868.756	4752
868.886	4542
869.017	4645
869.147	4778
869.278	4790
869.408	4714
869.539	4622
869.669	4725
869.799	4668
869.929	4767
870.06	4733
870.19	4938
870.32	4877
870.45	4900
870.58	5010
870.71	5075
870.84	5045
870.97	4923
871.1	4911
871.23	5178
871.36	5174
871.489	5029
871.619	5003
871.749	5056
871.879	5083
872.008	5132
872.138	5052
872.267	4942
872.397	4843
872.526	4786
872.656	4774
872.785	4801
872.915	4980
873.044	5045
873.173	4946
873.303	4923
873.432	4961
873.561	4961
873.69	4900
873.819	4839
873.948	4889
874.077	4812
874.206	4729
874.335	4824
874.464	4923
874.593	5037
874.722	4953
874.851	5086
874.979	5086
875.108	5014
875.237	4927
875.365	4904
875.494	4900
875.623	4972
875.751	4812
875.88	4873
876.008	4949
876.136	5033
876.265	5204
876.393	5307
876.521	5239
876.65	5204
876.778	5159
876.906	5045
877.034	5041
877.162	5014
877.29	4991
877.418	5090
877.546	5090
877.674	5052
877.802	4965
877.93	5037
878.058	4957
878.185	4862
878.313	4904
878.441	5018
878.568	4831
878.696	4858
878.824	4949
878.951	4949
879.079	5071
879.206	5231
879.333	5056
879.461	4968
879.588	4961
879.715	5064
879.842	5231
879.97	5064
880.097	4835
880.224	4729
880.351	4831
880.478	4892
880.605	4793
880.732	4774
880.859	5045
880.986	4870
881.112	4843
881.239	4809
881.366	4634
881.493	4641
881.619	4584
881.746	4649
881.872	4672
881.999	4694
882.125	4664
882.252	4740
882.378	4744
882.505	5006
882.631	4778
882.757	4675
882.883	4706
883.01	4721
883.136	4645
883.262	4596
883.388	4668
883.514	4763
883.64	4904
883.766	4744
883.892	4717
884.018	4694
884.143	4885
884.269	4987
884.395	4672
884.52	4615
884.646	4622
884.772	4618
884.897	4554
885.023	4641
885.148	4786
885.274	4847
885.399	4839
885.524	4694
885.65	4675
885.775	4679
885.9	4691
886.025	4809
886.15	4752
886.275	4717
886.4	4630
886.525	4744
886.65	4675
886.775	4694
886.9	4915
887.025	5010
887.149	4801
887.274	4653
887.399	4577
887.523	4599
887.648	4580
887.773	4588
887.897	4698
888.021	4786
888.146	4641
888.27	4820
888.395	4866
888.519	4820
888.643	4755
888.767	4824
888.891	4630
889.015	4603
889.139	4630
889.263	4622
889.387	4698
889.511	4812
889.635	4801
889.759	4588
889.883	4607
890.006	4653
890.13	4809
890.254	4588
890.377	4649
890.501	4558
890.624	4527
890.748	4634
890.871	4527
890.995	4390
891.118	4386
891.241	4527
891.364	4554
891.488	4645
891.611	4474
891.734	4523
891.857	4538
891.98	4569
892.103	4645
892.226	4599
892.349	4535
892.471	4417
892.594	4554
892.717	4622
892.839	4573
892.962	4565
893.085	4599
893.207	4523
893.33	4455
893.452	4516
893.575	4687
893.697	4561
893.819	4740
893.941	4835
894.064	4809
894.186	4531
894.308	4603
894.43	4691
894.552	4824
894.674	4752
894.796	4500
894.918	4584
895.04	4580
895.161	4717
895.283	4584
895.405	4584
895.526	4607
895.648	4672
895.769	4683
895.891	4645
896.012	4725
896.134	4740
896.255	4649
896.376	4637
896.498	4558
896.619	4668
896.74	4561
896.861	4683
896.982	4904
897.103	5025
897.224	4816
897.345	4763
897.466	4630
897.587	4706
897.708	4816
897.828	4771
897.949	4626
898.07	4535
898.19	4626
898.311	4790
898.431	4630
898.552	4710
898.672	4786
898.792	4767
898.913	4759
899.033	4611
899.153	4462
899.273	4394
899.393	4516
899.513	4504
899.633	4474
899.753	4512
899.873	4478
899.993	4588
900.113	4538
900.232	4637
900.352	4558
900.472	4481
900.591	4428
900.711	4443
900.83	4436
900.95	4592
901.069	4641
901.189	4531
901.308	4390
901.427	4303
901.546	4337
901.665	4462
901.784	4558
901.904	4413
902.023	4306
902.141	4200
902.26	4181
902.379	4341
902.498	4242
902.617	4211
902.735	4409
902.854	4360
902.973	4394
903.091	4188
903.21	4257
903.328	4333
903.446	4280
903.565	4238
903.683	4398
903.801	4310
903.919	4409
904.038	4455
904.156	4333
904.274	4371
904.392	4386
904.51	4436
904.627	4443
904.745	4577
904.863	4656
904.981	4405
905.098	4284
905.216	4398
905.334	4417
905.451	4436
905.569	4417
905.686	4592
905.803	4599
905.921	4405
906.038	4531
906.155	4497
906.272	4371
906.389	4440
906.506	4352
906.623	4386
906.74	4413
906.857	4249
906.974	4356
907.091	4550
907.208	4675
907.324	4580
907.441	4485
907.557	4314
907.674	4318
907.79	4306
907.907	4394
908.023	4466
908.139	4485
908.256	4474
908.372	4478
908.488	4409
908.604	4341
908.72	4303
908.836	4356
908.952	4390
909.068	4413
909.184	4558
909.3	4485
909.415	4603
909.531	4607
909.647	4402
909.762	4405
909.878	4284
909.993	4443
910.108	4405
910.224	4402
910.339	4519
910.454	4405
910.57	4341
910.685	4333
910.8	4634
910.915	4596
911.03	4519
911.145	4272
911.259	4268
911.374	4337
911.489	4246
911.604	4272
911.718	4192
911.833	4173
911.947	4090
912.062	4006
912.176	4261
912.291	4227
912.405	4204
912.519	4489
912.633	4519
912.748	4386
912.862	4291
912.976	4223
913.09	4078
913.204	4219
913.318	4219
913.431	4360
913.545	4356
913.659	4493
913.772	4344
913.886	4272
914	4185
914.113	4394
914.226	4417
914.34	4402
914.453	4173
914.566	4447
914.68	4360
914.793	4333
914.906	4177
915.019	4120
915.132	4101
915.245	4166
915.358	4177
915.47	4211
915.583	4306
915.696	4246
915.809	4383
915.921	4440
916.034	4223
916.146	4303
916.259	4223
916.371	4375
916.483	4386
916.595	4291
916.708	4329
916.82	4329
916.932	4272
917.044	4268
917.156	4314
917.268	4192
917.38	4276
917.491	4242
917.603	4348
917.715	4409
917.826	4436
917.938	4344
918.049	4204
918.161	4379
918.272	4558
918.384	4546
918.495	4478
918.606	4299
918.717	4204
918.828	4383
918.939	4352
919.05	4238
919.161	4314
919.272	4162
919.383	4223
919.494	4447
919.604	4596
919.715	4428
919.826	4348
919.936	4348
920.047	4516
920.157	4474
920.267	4721
920.378	4561
920.488	4478
920.598	4706
920.708	4866
920.818	4714
920.928	4744
921.038	4934
921.148	4889
921.258	4615
921.368	4531
921.477	4546
921.587	4424
921.697	4428
921.806	4550
921.916	4409
922.025	4249
922.134	4291
922.244	4215
922.353	4299
922.462	4192
922.571	4101
922.68	4017
922.789	3930
922.898	3998
923.007	3998
923.116	4078
923.224	4044
923.333	4051
923.442	3983
923.55	3949
923.659	3994
923.767	4101
923.876	4013
923.984	4082
924.092	3975
924.201	4067
924.309	4097
924.417	4128
924.525	4036
924.633	4063
924.741	5052
924.849	3960
924.956	4131
925.064	3907
925.172	3884
925.279	3926
925.387	4006
925.494	4082
925.602	4207
925.709	4181
925.816	3979
925.924	4093
926.031	4219
926.138	4173
926.245	4219
926.352	4120
926.459	4257
926.566	4299
926.673	4181
926.779	4078
926.886	4059
926.993	3953
927.099	3968
927.206	3915
927.312	3918
927.419	4002
927.525	4048
927.631	4093
927.737	3941
927.843	3930
927.95	3865
928.056	3960
928.162	3994
928.267	4067
928.373	4584
928.479	4131
928.585	3903
928.69	3960
928.796	4078
928.901	3949
929.007	3804
929.112	4040
929.218	3960
929.323	3991
929.428	3903
929.533	4120
929.638	3892
929.743	3915
929.848	4063
929.953	3968
930.058	3937
930.163	3819
930.267	3838
930.372	3922
930.477	3804
930.581	4074
930.685	3915
930.79	3865
930.894	3937
930.998	3899
931.103	4044
931.207	3690
931.311	3709
931.415	3679
931.519	3504
931.623	3511
