Data from test_V78500241_1628.txt Node
Date: Fri Mar 25 17:00:19 CST 2022
User: usil
Spectrometer: V785-0024
Trigger mode: 0
Integration Time (sec): 4.000000E-1
Scans to average: 1
Nonlinearity correction enabled: false
Boxcar width: 0
Storing dark spectrum: false
XAxis mode: Wavelengths
Number of Pixels in Spectrum: 1024
>>>>>Begin Spectral Data<<<<<
801.071	7978
801.214	8012
801.356	7875
801.499	7849
801.641	7795
801.783	7818
801.926	7970
802.068	7963
802.211	7940
802.353	8062
802.496	7852
802.638	7845
802.78	7871
802.923	7951
803.065	7871
803.208	7841
803.35	7955
803.492	8073
803.635	8183
803.777	8088
803.919	8084
804.061	8442
804.204	8111
804.346	8020
804.488	7959
804.63	8142
804.773	7997
804.915	8084
805.057	8294
805.199	8115
805.341	8206
805.483	8263
805.626	8218
805.768	8157
805.91	8176
806.052	8164
806.194	8149
806.336	8351
806.478	8069
806.62	8005
806.762	8218
806.904	8286
807.046	8552
807.188	8389
807.33	8324
807.472	8298
807.614	8206
807.756	8168
807.898	7997
808.04	7898
808.182	7932
808.324	7936
808.465	7936
808.607	8100
808.749	8123
808.891	8199
809.033	8298
809.174	8214
809.316	8035
809.458	8035
809.6	7986
809.741	8058
809.883	8096
810.025	8092
810.166	8134
810.308	7955
810.45	8035
810.591	7868
810.733	7719
810.875	7727
811.016	7533
811.158	7502
811.299	7609
811.441	7704
811.582	7685
811.724	7624
811.865	7529
812.007	7571
812.148	7594
812.29	7620
812.431	7807
812.573	7894
812.714	7997
812.855	8054
812.997	8168
813.138	8328
813.279	8187
813.421	8073
813.562	7932
813.703	7841
813.845	7753
813.986	7434
814.127	7266
814.268	7206
814.41	7228
814.551	7141
814.692	7278
814.833	7137
814.974	7080
815.115	7080
815.256	6935
815.397	6935
815.539	6970
815.68	6787
815.821	6783
815.962	6837
816.103	6814
816.244	6741
816.385	6658
816.526	6555
816.666	6509
816.807	6311
816.948	6445
817.089	6456
817.23	6429
817.371	6365
817.512	6391
817.653	6350
817.793	6334
817.934	6410
818.075	6471
818.216	6399
818.356	6464
818.497	6224
818.638	6064
818.778	6171
818.919	6167
819.06	6152
819.2	6346
819.341	6361
819.481	6380
819.622	6551
819.762	6760
819.903	6711
820.043	6608
820.184	6555
820.324	6559
820.465	6783
820.605	6662
820.746	6673
820.886	6513
821.026	6631
821.167	6662
821.307	6768
821.447	6715
821.588	6681
821.728	6555
821.868	6448
822.008	6331
822.149	6369
822.289	6334
822.429	6163
822.569	6129
822.709	6076
822.849	5942
822.99	5935
823.13	5912
823.27	5927
823.41	5805
823.55	5813
823.69	5836
823.83	5775
823.97	5703
824.11	5539
824.25	5532
824.389	5554
824.529	5592
824.669	5505
824.809	5623
824.949	5630
825.089	5573
825.228	5596
825.368	5429
825.508	5364
825.648	5360
825.787	5357
825.927	5311
826.067	5292
826.206	5280
826.346	5360
826.485	5414
826.625	5421
826.765	5566
826.904	5463
827.044	5235
827.183	5174
827.323	5132
827.462	5235
827.601	5208
827.741	5189
827.88	5162
828.02	5132
828.159	5223
828.298	5288
828.437	5334
828.577	5288
828.716	5463
828.855	5364
828.994	5162
829.134	5121
829.273	5151
829.412	5140
829.551	5181
829.69	5166
829.829	5204
829.968	5414
830.107	5265
830.246	5292
830.385	5162
830.524	5113
830.663	5117
830.802	4987
830.941	4908
831.08	4831
831.219	4953
831.357	4938
831.496	5151
831.635	4953
831.774	4835
831.913	4873
832.051	4714
832.19	4721
832.329	4839
832.467	4736
832.606	4596
832.744	4752
832.883	4736
833.022	4714
833.16	4809
833.299	4816
833.437	4839
833.576	4797
833.714	4881
833.852	4877
833.991	4850
834.129	4942
834.267	4953
834.406	4911
834.544	4972
834.682	4991
834.821	4976
834.959	5204
835.097	5037
835.235	5128
835.373	5060
835.511	5102
835.65	4995
835.788	5018
835.926	4911
836.064	4858
836.202	4915
836.34	5178
836.478	5170
836.615	5143
836.753	5212
836.891	5288
837.029	5235
837.167	5178
837.305	5136
837.443	5147
837.58	5025
837.718	5258
837.856	5193
837.993	5083
838.131	5250
838.269	5201
838.406	5185
838.544	5174
838.681	5033
838.819	4991
838.956	4915
839.094	4877
839.231	4946
839.369	5079
839.506	5402
839.643	5231
839.781	5086
839.918	4968
840.055	5105
840.193	5056
840.33	5079
840.467	5136
840.604	5170
840.742	5455
840.879	5056
841.016	5105
841.153	5166
841.29	5379
841.427	5330
841.564	5303
841.701	5357
841.838	5220
841.975	5284
842.112	5231
842.249	5162
842.385	5094
842.522	5284
842.659	5193
842.796	5174
842.933	5170
843.069	5094
843.206	5151
843.343	5322
843.479	5235
843.616	5292
843.752	5003
843.889	5003
844.025	5201
844.162	5052
844.298	5174
844.435	5064
844.571	5064
844.708	5189
844.844	5280
844.98	5311
845.117	5254
845.253	5170
845.389	5056
845.525	5136
845.661	5178
845.798	5006
845.934	5086
846.07	5033
846.206	5197
846.342	5261
846.478	5178
846.614	4999
846.75	4984
846.886	4946
847.022	5132
847.158	5003
847.294	5037
847.429	5151
847.565	5025
847.701	5318
847.837	4889
847.972	4812
848.108	5010
848.244	4968
848.379	4797
848.515	4771
848.65	4706
848.786	4744
848.921	4744
849.057	4873
849.192	4900
849.328	4824
849.463	4763
849.598	4752
849.734	4752
849.869	4717
850.004	4668
850.14	4672
850.275	4664
850.41	4497
850.545	4546
850.68	4634
850.815	4599
850.95	4615
851.085	4866
851.22	4717
851.355	4660
851.49	4615
851.625	4603
851.76	4649
851.895	4519
852.03	4584
852.165	4630
852.299	4691
852.434	4801
852.569	4736
852.703	4793
852.838	4873
852.973	4900
853.107	4923
853.242	4778
853.376	4694
853.511	4580
853.645	4649
853.78	4812
853.914	4691
854.048	4717
854.183	4664
854.317	4717
854.451	4831
854.585	4660
854.72	4596
854.854	4691
854.988	4637
855.122	4668
855.256	4485
855.39	4634
855.524	4733
855.658	4725
855.792	4687
855.926	4793
856.06	4733
856.194	4774
856.327	4691
856.461	4618
856.595	4596
856.729	4588
856.862	4740
856.996	4710
857.13	4702
857.263	4740
857.397	4809
857.53	4664
857.664	4710
857.797	4805
857.931	4725
858.064	4664
858.197	4725
858.331	4607
858.464	4607
858.597	4546
858.731	4607
858.864	4683
858.997	4615
859.13	4611
859.263	4683
859.396	4717
859.529	4603
859.662	4580
859.795	4527
859.928	4599
860.061	4736
860.194	4706
860.327	4573
860.46	4546
860.592	4679
860.725	4702
860.858	4668
860.99	4565
861.123	4519
861.256	4535
861.388	4622
861.521	5140
861.653	4508
861.786	4470
861.918	4417
862.05	4497
862.183	4573
862.315	4592
862.447	4626
862.58	4531
862.712	4375
862.844	4333
862.976	4485
863.108	4440
863.24	4767
863.372	4287
863.504	4428
863.636	4451
863.768	4497
863.9	4443
864.032	4379
864.164	4421
864.296	4516
864.428	4554
864.559	4519
864.691	4596
864.823	4504
864.954	4481
865.086	4478
865.217	4485
865.349	4440
865.48	4447
865.612	4500
865.743	4615
865.875	4436
866.006	4386
866.137	4489
866.269	4440
866.4	4459
866.531	4398
866.662	4417
866.793	4383
866.924	4417
867.055	4523
867.186	4443
867.317	4402
867.448	4386
867.579	4371
867.71	4375
867.841	4367
867.972	4417
868.103	4519
868.233	4447
868.364	4462
868.495	4500
868.625	4641
868.756	4744
868.886	4565
869.017	4615
869.147	4774
869.278	4736
869.408	4641
869.539	4637
869.669	4694
869.799	4630
869.929	4767
870.06	4691
870.19	4942
870.32	4908
870.45	4946
870.58	4995
870.71	5090
870.84	5048
870.97	4919
871.1	4942
871.23	5067
871.36	5128
871.489	5018
871.619	5105
871.749	5041
871.879	5121
872.008	5159
872.138	5094
872.267	4968
872.397	4843
872.526	4809
872.656	4733
872.785	4824
872.915	4972
873.044	4987
873.173	4953
873.303	4972
873.432	4991
873.561	4927
873.69	4885
873.819	4820
873.948	4942
874.077	4812
874.206	4774
874.335	4793
874.464	4911
874.593	5041
874.722	4995
874.851	5090
874.979	5075
875.108	5090
875.237	4896
875.365	4946
875.494	4900
875.623	4953
875.751	4801
875.88	4835
876.008	4976
876.136	4999
876.265	5181
876.393	5318
876.521	5239
876.65	5201
876.778	5140
876.906	5064
877.034	5003
877.162	5037
877.29	4968
877.418	5018
877.546	5037
877.674	5003
877.802	4976
877.93	4972
878.058	4911
878.185	4900
878.313	4968
878.441	4923
878.568	4824
878.696	4908
878.824	4953
878.951	4999
879.079	5155
879.206	5242
879.333	5121
879.461	5003
879.588	5075
879.715	5132
879.842	5170
879.97	4980
880.097	4809
880.224	4740
880.351	4805
880.478	4866
880.605	4816
880.732	4816
880.859	5060
880.986	4911
881.112	4892
881.239	4771
881.366	4721
881.493	4603
881.619	4630
881.746	4653
881.872	4634
881.999	4615
882.125	4710
882.252	4778
882.378	4835
882.505	4991
882.631	4820
882.757	4653
882.883	4748
883.01	4710
883.136	4687
883.262	4626
883.388	4592
883.514	4801
883.64	4839
883.766	4778
883.892	4675
884.018	4729
884.143	4915
884.269	4976
884.395	4710
884.52	4573
884.646	4710
884.772	4542
884.897	4508
885.023	4736
885.148	4797
885.274	4930
885.399	4843
885.524	4717
885.65	4733
885.775	4759
885.9	4702
886.025	4915
886.15	4809
886.275	4725
886.4	4656
886.525	4694
886.65	4691
886.775	4672
886.9	4946
887.025	5037
887.149	4782
887.274	4656
887.399	4519
887.523	4565
887.648	4569
887.773	4565
887.897	4717
888.021	4793
888.146	4664
888.27	4839
888.395	4930
888.519	4812
888.643	4805
888.767	4778
888.891	4668
889.015	4626
889.139	4611
889.263	4615
889.387	4786
889.511	4866
889.635	4812
889.759	4615
889.883	4607
890.006	4733
890.13	4850
890.254	4580
890.377	4641
890.501	4531
890.624	4504
890.748	4592
890.871	4523
890.995	4409
891.118	4405
891.241	4531
891.364	4504
891.488	4660
891.611	4489
891.734	4535
891.857	4603
891.98	4516
892.103	4664
892.226	4569
892.349	4478
892.471	4398
892.594	4500
892.717	4584
892.839	4596
892.962	4569
893.085	4687
893.207	4577
893.33	4436
893.452	4523
893.575	4630
893.697	4588
893.819	4786
893.941	4812
894.064	4725
894.186	4535
894.308	4588
894.43	4759
894.552	4831
894.674	4771
894.796	4546
894.918	4565
895.04	4554
895.161	4733
895.283	4675
895.405	4542
895.526	4641
895.648	4714
895.769	4607
895.891	4675
896.012	4767
896.134	4687
896.255	4653
896.376	4660
896.498	4592
896.619	4702
896.74	4584
896.861	4660
896.982	4953
897.103	5098
897.224	4831
897.345	4755
897.466	4645
897.587	4744
897.708	4866
897.828	4748
897.949	4683
898.07	4550
898.19	4607
898.311	4801
898.431	4641
898.552	4767
898.672	4793
898.792	4782
898.913	4714
899.033	4637
899.153	4447
899.273	4394
899.393	4489
899.513	4478
899.633	4592
899.753	4527
899.873	4508
899.993	4538
900.113	4531
900.232	4603
900.352	4535
900.472	4485
900.591	4421
900.711	4466
900.83	4440
900.95	4611
901.069	4691
901.189	4592
901.308	4322
901.427	4280
901.546	4348
901.665	4421
901.784	4523
901.904	4379
902.023	4344
902.141	4143
902.26	4173
902.379	4303
902.498	4253
902.617	4230
902.735	4341
902.854	4394
902.973	4284
903.091	4204
903.21	4185
903.328	4310
903.446	4276
903.565	4230
903.683	4310
903.801	4265
903.919	4375
904.038	4451
904.156	4314
904.274	4470
904.392	4405
904.51	4440
904.627	4481
904.745	4546
904.863	4641
904.981	4421
905.098	4284
905.216	4352
905.334	4455
905.451	4451
905.569	4413
905.686	4519
905.803	4546
905.921	4371
906.038	4565
906.155	4500
906.272	4402
906.389	4443
906.506	4333
906.623	4371
906.74	4383
906.857	4306
906.974	4329
907.091	4573
907.208	4641
907.324	4577
907.441	4500
907.557	4363
907.674	4363
907.79	4291
907.907	4344
908.023	4455
908.139	4485
908.256	4428
908.372	4516
908.488	4489
908.604	4329
908.72	4287
908.836	4390
908.952	4352
909.068	4402
909.184	4580
909.3	4481
909.415	4569
909.531	4535
909.647	4367
909.762	4394
909.878	4337
909.993	4466
910.108	4417
910.224	4409
910.339	4478
910.454	4386
910.57	4367
910.685	4322
910.8	4656
910.915	4607
911.03	4485
911.145	4322
911.259	4344
911.374	4356
911.489	4257
911.604	4261
911.718	4177
911.833	4207
911.947	4090
912.062	4040
912.176	4227
912.291	4204
912.405	4265
912.519	4409
912.633	4485
912.748	4333
912.862	4299
912.976	4181
913.09	4090
913.204	4147
913.318	4246
913.431	4341
913.545	4367
913.659	4436
913.772	4344
913.886	4261
914	4238
914.113	4375
914.226	4428
914.34	4390
914.453	4249
914.566	4417
914.68	4261
914.793	4352
914.906	4192
915.019	4097
915.132	4067
915.245	4131
915.358	4238
915.47	4223
915.583	4265
915.696	4322
915.809	4375
915.921	4398
916.034	4246
916.146	4253
916.259	4185
916.371	4352
916.483	4337
916.595	4272
916.708	4329
916.82	4341
916.932	4318
917.044	4318
917.156	4310
917.268	4227
917.38	4299
917.491	4287
917.603	4356
917.715	4428
917.826	4379
917.938	4360
918.049	4200
918.161	4421
918.272	4512
918.384	4512
918.495	4455
918.606	4291
918.717	4230
918.828	4356
918.939	4363
919.05	4291
919.161	4295
919.272	4147
919.383	4223
919.494	4398
919.604	4611
919.715	4478
919.826	4375
919.936	4405
920.047	4516
920.157	4470
920.267	4691
920.378	4519
920.488	4527
920.598	4691
920.708	4862
920.818	4778
920.928	4710
921.038	4934
921.148	4877
921.258	4596
921.368	4573
921.477	4466
921.587	4451
921.697	4417
921.806	4527
921.916	4436
922.025	4291
922.134	4257
922.244	4223
922.353	4356
922.462	4196
922.571	4109
922.68	4002
922.789	3937
922.898	4021
923.007	3983
923.116	4109
923.224	4090
923.333	4055
923.442	4032
923.55	3953
923.659	4074
923.767	4082
923.876	3964
923.984	4112
924.092	4013
924.201	4086
924.309	4048
924.417	4116
924.525	4032
924.633	4147
924.741	4892
924.849	3922
924.956	4116
925.064	3941
925.172	3896
925.279	3934
925.387	4040
925.494	4021
925.602	4200
925.709	4169
925.816	4025
925.924	4116
926.031	4192
926.138	4185
926.245	4207
926.352	4105
926.459	4200
926.566	4352
926.673	4143
926.779	4078
926.886	4059
926.993	3979
927.099	3953
927.206	3918
927.312	3922
927.419	4074
927.525	4036
927.631	4105
927.737	3937
927.843	3937
927.95	3827
928.056	3937
928.162	3987
928.267	4044
928.373	4538
928.479	4090
928.585	3857
928.69	3960
928.796	4090
928.901	3937
929.007	3831
929.112	4017
929.218	3953
929.323	3964
929.428	3922
929.533	4135
929.638	3880
929.743	3956
929.848	4059
929.953	3953
930.058	3930
930.163	3827
930.267	3823
930.372	4017
930.477	3785
930.581	4082
930.685	3903
930.79	3800
930.894	3880
930.998	3831
931.103	3979
931.207	3720
931.311	3717
931.415	3660
931.519	3515
931.623	3564
