Data from test_V78500241_1239.txt Node
Date: Fri Mar 25 16:57:36 CST 2022
User: usil
Spectrometer: V785-0024
Trigger mode: 0
Integration Time (sec): 4.000000E-1
Scans to average: 1
Nonlinearity correction enabled: false
Boxcar width: 0
Storing dark spectrum: false
XAxis mode: Wavelengths
Number of Pixels in Spectrum: 1024
>>>>>Begin Spectral Data<<<<<
801.071	8062
801.214	7982
801.356	7860
801.499	7890
801.641	7860
801.783	7788
801.926	7963
802.068	7967
802.211	7947
802.353	8008
802.496	7814
802.638	7860
802.78	7890
802.923	7955
803.065	7959
803.208	7830
803.35	7875
803.492	8039
803.635	8164
803.777	8001
803.919	8126
804.061	8465
804.204	8191
804.346	8027
804.488	8081
804.63	8084
804.773	8027
804.915	8088
805.057	8393
805.199	8221
805.341	8309
805.483	8248
805.626	8221
805.768	8092
805.91	8214
806.052	8195
806.194	8115
806.336	8294
806.478	8039
806.62	7951
806.762	8092
806.904	8252
807.046	8434
807.188	8317
807.33	8351
807.472	8275
807.614	8134
807.756	8172
807.898	8058
808.04	7852
808.182	7883
808.324	7887
808.465	7974
808.607	8111
808.749	8115
808.891	8252
809.033	8279
809.174	8168
809.316	8062
809.458	8027
809.6	8062
809.741	8054
809.883	8073
810.025	8134
810.166	8058
810.308	8016
810.45	8031
810.591	7883
810.733	7750
810.875	7620
811.016	7464
811.158	7495
811.299	7620
811.441	7719
811.582	7624
811.724	7609
811.865	7514
812.007	7590
812.148	7582
812.29	7613
812.431	7776
812.573	7925
812.714	8020
812.855	8084
812.997	8138
813.138	8286
813.279	8134
813.421	8096
813.562	7997
813.703	7795
813.845	7761
813.986	7445
814.127	7240
814.268	7228
814.41	7141
814.551	7080
814.692	7202
814.833	7069
814.974	7076
815.115	6996
815.256	6966
815.397	7004
815.539	6916
815.68	6700
815.821	6738
815.962	6886
816.103	6760
816.244	6738
816.385	6604
816.526	6566
816.666	6464
816.807	6239
816.948	6403
817.089	6467
817.23	6437
817.371	6361
817.512	6410
817.653	6319
817.793	6365
817.934	6369
818.075	6471
818.216	6429
818.356	6384
818.497	6144
818.638	6098
818.778	6079
818.919	6121
819.06	6155
819.2	6327
819.341	6361
819.481	6369
819.622	6540
819.762	6730
819.903	6715
820.043	6582
820.184	6536
820.324	6544
820.465	6738
820.605	6715
820.746	6597
820.886	6532
821.026	6673
821.167	6623
821.307	6791
821.447	6795
821.588	6635
821.728	6563
821.868	6498
822.008	6338
822.149	6357
822.289	6441
822.429	6152
822.569	6053
822.709	6136
822.849	5916
822.99	5904
823.13	5904
823.27	5942
823.41	5813
823.55	5802
823.69	5775
823.83	5813
823.97	5684
824.11	5516
824.25	5528
824.389	5581
824.529	5623
824.669	5501
824.809	5688
824.949	5649
825.089	5581
825.228	5566
825.368	5425
825.508	5406
825.648	5391
825.787	5402
825.927	5379
826.067	5341
826.206	5357
826.346	5444
826.485	5429
826.625	5421
826.765	5543
826.904	5551
827.044	5288
827.183	5303
827.323	5159
827.462	5208
827.601	5239
827.741	5189
827.88	5280
828.02	5189
828.159	5265
828.298	5288
828.437	5372
828.577	5330
828.716	5551
828.855	5330
828.994	5181
829.134	5121
829.273	5254
829.412	5208
829.551	5201
829.69	5197
829.829	5322
829.968	5421
830.107	5318
830.246	5299
830.385	5193
830.524	5132
830.663	5102
830.802	5014
830.941	4930
831.08	4881
831.219	5006
831.357	4999
831.496	5155
831.635	4957
831.774	4843
831.913	4858
832.051	4721
832.19	4752
832.329	4850
832.467	4740
832.606	4717
832.744	4763
832.883	4755
833.022	4733
833.16	4805
833.299	4835
833.437	4858
833.576	4870
833.714	4908
833.852	4858
833.991	4953
834.129	4984
834.267	4987
834.406	4938
834.544	4991
834.682	5033
834.821	5018
834.959	5239
835.097	5048
835.235	5151
835.373	5109
835.511	5098
835.65	5075
835.788	5041
835.926	4866
836.064	4862
836.202	4930
836.34	5166
836.478	5220
836.615	5151
836.753	5242
836.891	5288
837.029	5315
837.167	5239
837.305	5223
837.443	5159
837.58	5094
837.718	5299
837.856	5159
837.993	5212
838.131	5254
838.269	5239
838.406	5208
838.544	5197
838.681	5041
838.819	5022
838.956	4892
839.094	4957
839.231	5014
839.369	5083
839.506	5379
839.643	5311
839.781	5071
839.918	5052
840.055	5151
840.193	5064
840.33	5151
840.467	5151
840.604	5239
840.742	5528
840.879	5109
841.016	5052
841.153	5170
841.29	5417
841.427	5337
841.564	5330
841.701	5364
841.838	5307
841.975	5223
842.112	5280
842.249	5189
842.385	5128
842.522	5330
842.659	5174
842.796	5193
842.933	5208
843.069	5166
843.206	5170
843.343	5322
843.479	5307
843.616	5299
843.752	5048
843.889	5003
844.025	5193
844.162	5014
844.298	5197
844.435	5117
844.571	5041
844.708	5246
844.844	5345
844.98	5345
845.117	5330
845.253	5162
845.389	5105
845.525	5174
845.661	5189
845.798	5033
845.934	5174
846.07	5079
846.206	5178
846.342	5235
846.478	5166
846.614	5018
846.75	5018
846.886	5018
847.022	5098
847.158	5037
847.294	5045
847.429	5075
847.565	5060
847.701	5299
847.837	4904
847.972	4854
848.108	4976
848.244	4911
848.379	4820
848.515	4771
848.65	4755
848.786	4733
848.921	4843
849.057	4919
849.192	4953
849.328	4782
849.463	4850
849.598	4839
849.734	4828
849.869	4683
850.004	4611
850.14	4710
850.275	4645
850.41	4538
850.545	4550
850.68	4565
850.815	4691
850.95	4653
851.085	4866
851.22	4782
851.355	4717
851.49	4660
851.625	4634
851.76	4668
851.895	4599
852.03	4519
852.165	4656
852.299	4740
852.434	4805
852.569	4710
852.703	4805
852.838	4824
852.973	4930
853.107	4904
853.242	4744
853.376	4675
853.511	4493
853.645	4687
853.78	4816
853.914	4714
854.048	4672
854.183	4694
854.317	4687
854.451	4850
854.585	4717
854.72	4630
854.854	4828
854.988	4577
855.122	4668
855.256	4577
855.39	4664
855.524	4767
855.658	4748
855.792	4736
855.926	4755
856.06	4793
856.194	4839
856.327	4717
856.461	4622
856.595	4664
856.729	4675
856.862	4717
856.996	4733
857.13	4706
857.263	4778
857.397	4812
857.53	4641
857.664	4755
857.797	4809
857.931	4763
858.064	4694
858.197	4752
858.331	4672
858.464	4637
858.597	4588
858.731	4649
858.864	4660
858.997	4649
859.13	4683
859.263	4675
859.396	4706
859.529	4561
859.662	4580
859.795	4546
859.928	4634
860.061	4805
860.194	4820
860.327	4592
860.46	4649
860.592	4694
860.725	4729
860.858	4714
860.99	4611
861.123	4500
861.256	4535
861.388	4615
861.521	5315
861.653	4478
861.786	4462
861.918	4481
862.05	4546
862.183	4542
862.315	4599
862.447	4694
862.58	4519
862.712	4375
862.844	4310
862.976	4493
863.108	4493
863.24	4927
863.372	4367
863.504	4409
863.636	4432
863.768	4474
863.9	4455
864.032	4386
864.164	4428
864.296	4546
864.428	4550
864.559	4588
864.691	4527
864.823	4546
864.954	4527
865.086	4516
865.217	4485
865.349	4402
865.48	4474
865.612	4546
865.743	4656
865.875	4462
866.006	4409
866.137	4481
866.269	4504
866.4	4417
866.531	4436
866.662	4379
866.793	4405
866.924	4470
867.055	4508
867.186	4443
867.317	4432
867.448	4409
867.579	4443
867.71	4470
867.841	4386
867.972	4421
868.103	4428
868.233	4421
868.364	4489
868.495	4489
868.625	4645
868.756	4759
868.886	4565
869.017	4630
869.147	4740
869.278	4733
869.408	4641
869.539	4660
869.669	4740
869.799	4733
869.929	4774
870.06	4725
870.19	4968
870.32	4915
870.45	4968
870.58	5014
870.71	5094
870.84	5128
870.97	4972
871.1	4927
871.23	5174
871.36	5121
871.489	5075
871.619	5052
871.749	5071
871.879	5189
872.008	5166
872.138	5067
872.267	4961
872.397	4850
872.526	4801
872.656	4759
872.785	4797
872.915	4968
873.044	5045
873.173	4946
873.303	4949
873.432	4949
873.561	4995
873.69	4877
873.819	4854
873.948	4911
874.077	4809
874.206	4767
874.335	4866
874.464	4938
874.593	5109
874.722	4991
874.851	5105
874.979	5075
875.108	5018
875.237	4938
875.365	4915
875.494	4854
875.623	5014
875.751	4839
875.88	4835
876.008	4961
876.136	5048
876.265	5208
876.393	5353
876.521	5250
876.65	5235
876.778	5170
876.906	5105
877.034	5067
877.162	4987
877.29	4991
877.418	5105
877.546	5048
877.674	5045
877.802	5056
877.93	5045
878.058	4900
878.185	4877
878.313	4968
878.441	4919
878.568	4790
878.696	4911
878.824	4942
878.951	4980
879.079	5140
879.206	5315
879.333	5121
879.461	4999
879.588	5041
879.715	5090
879.842	5231
879.97	4980
880.097	4763
880.224	4782
880.351	4774
880.478	4820
880.605	4816
880.732	4805
880.859	5117
880.986	4870
881.112	4892
881.239	4786
881.366	4721
881.493	4622
881.619	4596
881.746	4702
881.872	4630
881.999	4637
882.125	4649
882.252	4786
882.378	4824
882.505	4953
882.631	4831
882.757	4672
882.883	4759
883.01	4748
883.136	4653
883.262	4634
883.388	4611
883.514	4816
883.64	4854
883.766	4820
883.892	4683
884.018	4710
884.143	4904
884.269	5025
884.395	4660
884.52	4637
884.646	4649
884.772	4580
884.897	4550
885.023	4694
885.148	4778
885.274	4824
885.399	4774
885.524	4755
885.65	4740
885.775	4763
885.9	4698
886.025	4862
886.15	4812
886.275	4702
886.4	4653
886.525	4736
886.65	4714
886.775	4706
886.9	4854
887.025	5022
887.149	4820
887.274	4664
887.399	4565
887.523	4596
887.648	4584
887.773	4577
887.897	4786
888.021	4786
888.146	4653
888.27	4812
888.395	4892
888.519	4809
888.643	4854
888.767	4839
888.891	4675
889.015	4645
889.139	4675
889.263	4649
889.387	4763
889.511	4870
889.635	4831
889.759	4641
889.883	4641
890.006	4733
890.13	4843
890.254	4649
890.377	4710
890.501	4523
890.624	4592
890.748	4615
890.871	4516
890.995	4421
891.118	4402
891.241	4531
891.364	4550
891.488	4664
891.611	4478
891.734	4577
891.857	4603
891.98	4611
892.103	4634
892.226	4569
892.349	4542
892.471	4436
892.594	4569
892.717	4607
892.839	4527
892.962	4611
893.085	4660
893.207	4584
893.33	4459
893.452	4599
893.575	4687
893.697	4565
893.819	4793
893.941	4862
894.064	4740
894.186	4622
894.308	4573
894.43	4733
894.552	4786
894.674	4744
894.796	4573
894.918	4573
895.04	4611
895.161	4763
895.283	4702
895.405	4622
895.526	4618
895.648	4679
895.769	4717
895.891	4763
896.012	4729
896.134	4702
896.255	4683
896.376	4618
896.498	4588
896.619	4702
896.74	4607
896.861	4641
896.982	4930
897.103	5052
897.224	4820
897.345	4736
897.466	4721
897.587	4763
897.708	4820
897.828	4778
897.949	4744
898.07	4508
898.19	4664
898.311	4850
898.431	4637
898.552	4698
898.672	4816
898.792	4778
898.913	4763
899.033	4660
899.153	4481
899.273	4451
899.393	4462
899.513	4546
899.633	4554
899.753	4538
899.873	4508
899.993	4603
900.113	4512
900.232	4592
900.352	4565
900.472	4474
900.591	4379
900.711	4489
900.83	4451
900.95	4622
901.069	4672
901.189	4531
901.308	4379
901.427	4325
901.546	4402
901.665	4497
901.784	4569
901.904	4417
902.023	4295
902.141	4173
902.26	4188
902.379	4318
902.498	4238
902.617	4242
902.735	4383
902.854	4398
902.973	4356
903.091	4215
903.21	4188
903.328	4284
903.446	4284
903.565	4215
903.683	4405
903.801	4272
903.919	4379
904.038	4363
904.156	4329
904.274	4405
904.392	4421
904.51	4371
904.627	4535
904.745	4603
904.863	4637
904.981	4417
905.098	4310
905.216	4352
905.334	4417
905.451	4466
905.569	4447
905.686	4546
905.803	4546
905.921	4417
906.038	4565
906.155	4474
906.272	4367
906.389	4436
906.506	4360
906.623	4402
906.74	4375
906.857	4329
906.974	4421
907.091	4554
907.208	4653
907.324	4630
907.441	4474
907.557	4379
907.674	4329
907.79	4341
907.907	4360
908.023	4504
908.139	4485
908.256	4421
908.372	4398
908.488	4459
908.604	4386
908.72	4341
908.836	4398
908.952	4341
909.068	4417
909.184	4573
909.3	4462
909.415	4546
909.531	4550
909.647	4371
909.762	4322
909.878	4360
909.993	4428
910.108	4383
910.224	4394
910.339	4508
910.454	4402
910.57	4352
910.685	4284
910.8	4634
910.915	4603
911.03	4481
911.145	4318
911.259	4310
911.374	4314
911.489	4356
911.604	4268
911.718	4158
911.833	4249
911.947	4051
912.062	4051
912.176	4207
912.291	4246
912.405	4215
912.519	4451
912.633	4489
912.748	4341
912.862	4306
912.976	4261
913.09	4101
913.204	4181
913.318	4276
913.431	4367
913.545	4394
913.659	4432
913.772	4375
913.886	4253
914	4196
914.113	4417
914.226	4451
914.34	4379
914.453	4223
914.566	4405
914.68	4280
914.793	4360
914.906	4158
915.019	4105
915.132	4112
915.245	4173
915.358	4223
915.47	4211
915.583	4295
915.696	4295
915.809	4443
915.921	4394
916.034	4265
916.146	4257
916.259	4188
916.371	4394
916.483	4344
916.595	4246
916.708	4322
916.82	4325
916.932	4276
917.044	4333
917.156	4253
917.268	4284
917.38	4287
917.491	4268
917.603	4329
917.715	4409
917.826	4451
917.938	4341
918.049	4276
918.161	4375
918.272	4580
918.384	4542
918.495	4451
918.606	4363
918.717	4196
918.828	4356
918.939	4379
919.05	4291
919.161	4314
919.272	4143
919.383	4219
919.494	4474
919.604	4645
919.715	4421
919.826	4360
919.936	4424
920.047	4531
920.157	4470
920.267	4698
920.378	4577
920.488	4489
920.598	4710
920.708	4911
920.818	4759
920.928	4729
921.038	4938
921.148	4930
921.258	4630
921.368	4558
921.477	4512
921.587	4478
921.697	4360
921.806	4569
921.916	4443
922.025	4276
922.134	4246
922.244	4223
922.353	4333
922.462	4188
922.571	4162
922.68	4040
922.789	3945
922.898	4051
923.007	4029
923.116	4074
923.224	4044
923.333	4013
923.442	3964
923.55	3975
923.659	4048
923.767	4090
923.876	3987
923.984	4109
924.092	3956
924.201	4029
924.309	4097
924.417	4124
924.525	4055
924.633	4124
924.741	5018
924.849	3953
924.956	4131
925.064	3941
925.172	3831
925.279	3975
925.387	4036
925.494	4071
925.602	4211
925.709	4207
925.816	4036
925.924	4131
926.031	4257
926.138	4173
926.245	4154
926.352	4086
926.459	4249
926.566	4310
926.673	4116
926.779	4093
926.886	4059
926.993	3991
927.099	3918
927.206	3960
927.312	3911
927.419	4048
927.525	4029
927.631	4074
927.737	3953
927.843	3899
927.95	3846
928.056	3903
928.162	3987
928.267	4074
928.373	4660
928.479	4101
928.585	3880
928.69	4017
928.796	4059
928.901	4013
929.007	3869
929.112	3991
929.218	3968
929.323	3953
929.428	3960
929.533	4116
929.638	3896
929.743	3945
929.848	4086
929.953	4025
930.058	3915
930.163	3781
930.267	3812
930.372	3960
930.477	3789
930.581	4067
930.685	3968
930.79	3804
930.894	3880
930.998	3861
931.103	4029
931.207	3740
931.311	3671
931.415	3675
931.519	3519
931.623	3568
