Data from test_V78500241_79.txt Node
Date: Fri Mar 25 16:49:33 CST 2022
User: usil
Spectrometer: V785-0024
Trigger mode: 0
Integration Time (sec): 4.000000E-1
Scans to average: 1
Nonlinearity correction enabled: false
Boxcar width: 0
Storing dark spectrum: false
XAxis mode: Wavelengths
Number of Pixels in Spectrum: 1024
>>>>>Begin Spectral Data<<<<<
801.071	8050
801.214	8031
801.356	7864
801.499	7883
801.641	7780
801.783	7818
801.926	7967
802.068	8050
802.211	7928
802.353	8035
802.496	7970
802.638	7978
802.78	8043
802.923	7963
803.065	7894
803.208	7894
803.35	7978
803.492	8084
803.635	8065
803.777	8039
803.919	8046
804.061	8400
804.204	8077
804.346	7970
804.488	7970
804.63	8084
804.773	8035
804.915	8111
805.057	8233
805.199	8054
805.341	8237
805.483	8339
805.626	8248
805.768	8126
805.91	8187
806.052	8237
806.194	8115
806.336	8313
806.478	8031
806.62	8027
806.762	8206
806.904	8328
807.046	8450
807.188	8377
807.33	8351
807.472	8339
807.614	8225
807.756	8111
807.898	8050
808.04	7906
808.182	7921
808.324	7864
808.465	7967
808.607	7936
808.749	8065
808.891	8199
809.033	8366
809.174	8149
809.316	8050
809.458	8107
809.6	8027
809.741	8111
809.883	8084
810.025	8100
810.166	8046
810.308	8092
810.45	7993
810.591	7860
810.733	7772
810.875	7677
811.016	7518
811.158	7506
811.299	7655
811.441	7769
811.582	7666
811.724	7643
811.865	7655
812.007	7624
812.148	7655
812.29	7655
812.431	7761
812.573	7894
812.714	8016
812.855	8138
812.997	8256
813.138	8324
813.279	8237
813.421	8145
813.562	8031
813.703	7852
813.845	7734
813.986	7495
814.127	7335
814.268	7228
814.41	7232
814.551	7236
814.692	7251
814.833	7099
814.974	7118
815.115	7168
815.256	7023
815.397	6989
815.539	6947
815.68	6802
815.821	6806
815.962	6814
816.103	6867
816.244	6700
816.385	6612
816.526	6627
816.666	6566
816.807	6369
816.948	6467
817.089	6498
817.23	6494
817.371	6426
817.512	6311
817.653	6414
817.793	6422
817.934	6479
818.075	6460
818.216	6525
818.356	6445
818.497	6338
818.638	6102
818.778	6239
818.919	6159
819.06	6197
819.2	6315
819.341	6319
819.481	6376
819.622	6623
819.762	6783
819.903	6753
820.043	6604
820.184	6570
820.324	6623
820.465	6627
820.605	6749
820.746	6642
820.886	6578
821.026	6612
821.167	6745
821.307	6856
821.447	6791
821.588	6662
821.728	6563
821.868	6555
822.008	6380
822.149	6437
822.289	6342
822.429	6194
822.569	6125
822.709	6140
822.849	5942
822.99	5916
823.13	5980
823.27	5954
823.41	5767
823.55	5813
823.69	5786
823.83	5813
823.97	5726
824.11	5562
824.25	5539
824.389	5551
824.529	5608
824.669	5608
824.809	5665
824.949	5691
825.089	5638
825.228	5634
825.368	5436
825.508	5376
825.648	5379
825.787	5459
825.927	5452
826.067	5372
826.206	5258
826.346	5429
826.485	5387
826.625	5410
826.765	5615
826.904	5520
827.044	5254
827.183	5261
827.323	5201
827.462	5261
827.601	5151
827.741	5159
827.88	5254
828.02	5151
828.159	5246
828.298	5330
828.437	5364
828.577	5315
828.716	5478
828.855	5349
828.994	5143
829.134	5212
829.273	5201
829.412	5151
829.551	5189
829.69	5181
829.829	5239
829.968	5417
830.107	5292
830.246	5364
830.385	5193
830.524	5159
830.663	5098
830.802	5010
830.941	4911
831.08	4919
831.219	4987
831.357	4984
831.496	5231
831.635	4987
831.774	4839
831.913	4870
832.051	4748
832.19	4740
832.329	4892
832.467	4755
832.606	4668
832.744	4717
832.883	4778
833.022	4714
833.16	4820
833.299	4782
833.437	4831
833.576	4847
833.714	4892
833.852	4896
833.991	4923
834.129	5010
834.267	4938
834.406	4961
834.544	4991
834.682	5041
834.821	5025
834.959	5197
835.097	5045
835.235	5178
835.373	5155
835.511	5159
835.65	5014
835.788	5113
835.926	4915
836.064	4911
836.202	4892
836.34	5201
836.478	5242
836.615	5136
836.753	5231
836.891	5341
837.029	5280
837.167	5239
837.305	5193
837.443	5170
837.58	5132
837.718	5334
837.856	5193
837.993	5170
838.131	5277
838.269	5201
838.406	5223
838.544	5242
838.681	5022
838.819	5033
838.956	4976
839.094	4957
839.231	5045
839.369	5083
839.506	5474
839.643	5318
839.781	5105
839.918	5056
840.055	5113
840.193	5132
840.33	5094
840.467	5121
840.604	5197
840.742	5501
840.879	5098
841.016	5117
841.153	5140
841.29	5425
841.427	5334
841.564	5307
841.701	5395
841.838	5330
841.975	5235
842.112	5322
842.249	5166
842.385	5132
842.522	5417
842.659	5170
842.796	5178
842.933	5193
843.069	5181
843.206	5227
843.343	5349
843.479	5284
843.616	5322
843.752	5102
843.889	5045
844.025	5265
844.162	5025
844.298	5254
844.435	5109
844.571	5056
844.708	5231
844.844	5277
844.98	5383
845.117	5322
845.253	5147
845.389	5155
845.525	5170
845.661	5189
845.798	5113
845.934	5143
846.07	5048
846.206	5239
846.342	5277
846.478	5189
846.614	5075
846.75	5033
846.886	4991
847.022	5151
847.158	4999
847.294	5113
847.429	5162
847.565	5056
847.701	5383
847.837	4858
847.972	4824
848.108	4968
848.244	4942
848.379	4843
848.515	4767
848.65	4771
848.786	4740
848.921	4797
849.057	4927
849.192	4904
849.328	4816
849.463	4847
849.598	4820
849.734	4801
849.869	4721
850.004	4611
850.14	4717
850.275	4622
850.41	4611
850.545	4596
850.68	4592
850.815	4649
850.95	4664
851.085	4854
851.22	4790
851.355	4698
851.49	4607
851.625	4603
851.76	4664
851.895	4626
852.03	4569
852.165	4698
852.299	4755
852.434	4809
852.569	4736
852.703	4759
852.838	4885
852.973	4934
853.107	4953
853.242	4717
853.376	4698
853.511	4538
853.645	4641
853.78	4828
853.914	4763
854.048	4706
854.183	4626
854.317	4744
854.451	4877
854.585	4721
854.72	4675
854.854	4812
854.988	4599
855.122	4702
855.256	4596
855.39	4637
855.524	4828
855.658	4771
855.792	4733
855.926	4740
856.06	4790
856.194	4797
856.327	4729
856.461	4645
856.595	4645
856.729	4698
856.862	4778
856.996	4706
857.13	4763
857.263	4778
857.397	4831
857.53	4683
857.664	4790
857.797	4763
857.931	4805
858.064	4755
858.197	4694
858.331	4675
858.464	4603
858.597	4542
858.731	4664
858.864	4649
858.997	4630
859.13	4725
859.263	4694
859.396	4740
859.529	4630
859.662	4569
859.795	4573
859.928	4672
860.061	4801
860.194	4809
860.327	4596
860.46	4622
860.592	4698
860.725	4748
860.858	4725
860.99	4573
861.123	4580
861.256	4565
861.388	4630
861.521	5307
861.653	4504
861.786	4459
861.918	4481
862.05	4485
862.183	4573
862.315	4630
862.447	4634
862.58	4592
862.712	4447
862.844	4356
862.976	4504
863.108	4485
863.24	4873
863.372	4367
863.504	4428
863.636	4428
863.768	4462
863.9	4478
864.032	4402
864.164	4447
864.296	4497
864.428	4569
864.559	4599
864.691	4531
864.823	4523
864.954	4481
865.086	4577
865.217	4447
865.349	4390
865.48	4497
865.612	4500
865.743	4710
865.875	4474
866.006	4428
866.137	4508
866.269	4489
866.4	4421
866.531	4459
866.662	4455
866.793	4451
866.924	4436
867.055	4546
867.186	4474
867.317	4443
867.448	4405
867.579	4424
867.71	4447
867.841	4383
867.972	4481
868.103	4489
868.233	4440
868.364	4443
868.495	4523
868.625	4668
868.756	4816
868.886	4573
869.017	4618
869.147	4801
869.278	4809
869.408	4653
869.539	4721
869.669	4744
869.799	4710
869.929	4782
870.06	4748
870.19	5014
870.32	4953
870.45	4976
870.58	5045
870.71	5128
870.84	5121
870.97	4987
871.1	4965
871.23	5155
871.36	5128
871.489	5071
871.619	5079
871.749	5136
871.879	5143
872.008	5223
872.138	5109
872.267	5025
872.397	4881
872.526	4774
872.656	4759
872.785	4877
872.915	4980
873.044	5041
873.173	4976
873.303	4938
873.432	4961
873.561	5041
873.69	4915
873.819	4915
873.948	4896
874.077	4850
874.206	4748
874.335	4850
874.464	4961
874.593	5090
874.722	4991
874.851	5136
874.979	5102
875.108	5121
875.237	4968
875.365	4889
875.494	4957
875.623	4980
875.751	4843
875.88	4919
876.008	5018
876.136	5090
876.265	5208
876.393	5360
876.521	5288
876.65	5292
876.778	5193
876.906	5098
877.034	5033
877.162	5109
877.29	5064
877.418	5090
877.546	5045
877.674	5064
877.802	5025
877.93	5052
878.058	4930
878.185	4908
878.313	4995
878.441	4968
878.568	4835
878.696	4858
878.824	5003
878.951	5010
879.079	5136
879.206	5315
879.333	5060
879.461	5064
879.588	5022
879.715	5162
879.842	5277
879.97	5060
880.097	4862
880.224	4786
880.351	4870
880.478	4873
880.605	4812
880.732	4847
880.859	5117
880.986	4953
881.112	4949
881.239	4782
881.366	4725
881.493	4630
881.619	4588
881.746	4653
881.872	4649
881.999	4679
882.125	4752
882.252	4805
882.378	4843
882.505	4980
882.631	4839
882.757	4714
882.883	4721
883.01	4729
883.136	4668
883.262	4660
883.388	4653
883.514	4835
883.64	4896
883.766	4790
883.892	4668
884.018	4721
884.143	4919
884.269	5010
884.395	4698
884.52	4634
884.646	4653
884.772	4531
884.897	4618
885.023	4717
885.148	4782
885.274	4915
885.399	4850
885.524	4687
885.65	4706
885.775	4736
885.9	4736
886.025	4915
886.15	4835
886.275	4733
886.4	4664
886.525	4755
886.65	4736
886.775	4767
886.9	4991
887.025	5064
887.149	4858
887.274	4691
887.399	4596
887.523	4649
887.648	4588
887.773	4618
887.897	4790
888.021	4782
888.146	4714
888.27	4820
888.395	4923
888.519	4820
888.643	4839
888.767	4828
888.891	4729
889.015	4618
889.139	4672
889.263	4611
889.387	4816
889.511	4858
889.635	4862
889.759	4664
889.883	4771
890.006	4759
890.13	4835
890.254	4630
890.377	4691
890.501	4584
890.624	4519
890.748	4664
890.871	4542
890.995	4459
891.118	4398
891.241	4519
891.364	4558
891.488	4668
891.611	4508
891.734	4497
891.857	4558
891.98	4569
892.103	4672
892.226	4611
892.349	4569
892.471	4459
892.594	4546
892.717	4588
892.839	4599
892.962	4622
893.085	4717
893.207	4599
893.33	4504
893.452	4561
893.575	4668
893.697	4607
893.819	4824
893.941	4854
894.064	4828
894.186	4588
894.308	4607
894.43	4759
894.552	4892
894.674	4759
894.796	4588
894.918	4622
895.04	4603
895.161	4721
895.283	4683
895.405	4618
895.526	4653
895.648	4748
895.769	4672
895.891	4759
896.012	4752
896.134	4717
896.255	4721
896.376	4649
896.498	4637
896.619	4721
896.74	4618
896.861	4653
896.982	5033
897.103	5094
897.224	4816
897.345	4752
897.466	4645
897.587	4763
897.708	4858
897.828	4805
897.949	4721
898.07	4550
898.19	4607
898.311	4892
898.431	4653
898.552	4736
898.672	4908
898.792	4820
898.913	4763
899.033	4634
899.153	4569
899.273	4451
899.393	4535
899.513	4538
899.633	4577
899.753	4565
899.873	4542
899.993	4618
900.113	4538
900.232	4656
900.352	4516
900.472	4504
900.591	4379
900.711	4504
900.83	4459
900.95	4622
901.069	4710
901.189	4569
901.308	4398
901.427	4337
901.546	4409
901.665	4489
901.784	4535
901.904	4367
902.023	4337
902.141	4249
902.26	4192
902.379	4325
902.498	4306
902.617	4318
902.735	4413
902.854	4413
902.973	4363
903.091	4246
903.21	4249
903.328	4322
903.446	4314
903.565	4310
903.683	4402
903.801	4329
903.919	4424
904.038	4474
904.156	4348
904.274	4470
904.392	4409
904.51	4466
904.627	4504
904.745	4584
904.863	4649
904.981	4474
905.098	4360
905.216	4348
905.334	4421
905.451	4436
905.569	4504
905.686	4584
905.803	4580
905.921	4481
906.038	4615
906.155	4485
906.272	4432
906.389	4485
906.506	4405
906.623	4402
906.74	4398
906.857	4367
906.974	4379
907.091	4565
907.208	4717
907.324	4637
907.441	4546
907.557	4352
907.674	4421
907.79	4352
907.907	4405
908.023	4519
908.139	4493
908.256	4485
908.372	4531
908.488	4470
908.604	4367
908.72	4341
908.836	4390
908.952	4447
909.068	4470
909.184	4577
909.3	4478
909.415	4611
909.531	4622
909.647	4386
909.762	4402
909.878	4356
909.993	4428
910.108	4481
910.224	4440
910.339	4519
910.454	4428
910.57	4405
910.685	4348
910.8	4702
910.915	4626
911.03	4523
911.145	4337
911.259	4363
911.374	4352
911.489	4322
911.604	4333
911.718	4158
911.833	4257
911.947	4078
912.062	4059
912.176	4238
912.291	4261
912.405	4265
912.519	4508
912.633	4527
912.748	4390
912.862	4291
912.976	4249
913.09	4105
913.204	4219
913.318	4287
913.431	4417
913.545	4417
913.659	4493
913.772	4398
913.886	4272
914	4242
914.113	4394
914.226	4424
914.34	4428
914.453	4249
914.566	4478
914.68	4379
914.793	4314
914.906	4207
915.019	4185
915.132	4101
915.245	4196
915.358	4227
915.47	4272
915.583	4303
915.696	4383
915.809	4428
915.921	4462
916.034	4257
916.146	4268
916.259	4284
916.371	4443
916.483	4421
916.595	4249
916.708	4344
916.82	4352
916.932	4303
917.044	4363
917.156	4344
917.268	4287
917.38	4280
917.491	4325
917.603	4379
917.715	4478
917.826	4459
917.938	4356
918.049	4299
918.161	4462
918.272	4531
918.384	4535
918.495	4504
918.606	4284
918.717	4280
918.828	4310
918.939	4375
919.05	4257
919.161	4352
919.272	4128
919.383	4287
919.494	4500
919.604	4683
919.715	4489
919.826	4390
919.936	4470
920.047	4580
920.157	4493
920.267	4721
920.378	4577
920.488	4546
920.598	4698
920.708	4908
920.818	4778
920.928	4782
921.038	5033
921.148	4938
921.258	4641
921.368	4554
921.477	4512
921.587	4459
921.697	4394
921.806	4615
921.916	4432
922.025	4265
922.134	4280
922.244	4257
922.353	4337
922.462	4188
922.571	4135
922.68	3998
922.789	4010
922.898	4082
923.007	3998
923.116	4131
923.224	4116
923.333	4150
923.442	4013
923.55	4010
923.659	4067
923.767	4162
923.876	4048
923.984	4166
924.092	4029
924.201	4120
924.309	4128
924.417	4124
924.525	4071
924.633	4154
924.741	4961
924.849	3926
924.956	4150
925.064	3979
925.172	3956
925.279	3972
925.387	4071
925.494	4101
925.602	4280
925.709	4196
925.816	4078
925.924	4162
926.031	4249
926.138	4204
926.245	4242
926.352	4082
926.459	4261
926.566	4348
926.673	4139
926.779	4150
926.886	4112
926.993	3968
927.099	3991
927.206	3960
927.312	4013
927.419	4097
927.525	4071
927.631	4147
927.737	4013
927.843	3945
927.95	3846
928.056	4006
928.162	3983
928.267	4059
928.373	4710
928.479	4154
928.585	3926
928.69	4067
928.796	4093
928.901	3983
929.007	3884
929.112	4032
929.218	3991
929.323	3979
929.428	3972
929.533	4109
929.638	3930
929.743	3983
929.848	4051
929.953	4032
930.058	3998
930.163	3785
930.267	3838
930.372	4017
930.477	3804
930.581	4139
930.685	3945
930.79	3857
930.894	3945
930.998	3876
931.103	4093
931.207	3740
931.311	3705
931.415	3701
931.519	3523
931.623	3580
