Data from test_V78500241_2587.txt Node
Date: Fri Mar 25 17:06:59 CST 2022
User: usil
Spectrometer: V785-0024
Trigger mode: 0
Integration Time (sec): 4.000000E-1
Scans to average: 1
Nonlinearity correction enabled: false
Boxcar width: 0
Storing dark spectrum: false
XAxis mode: Wavelengths
Number of Pixels in Spectrum: 1024
>>>>>Begin Spectral Data<<<<<
801.071	8050
801.214	8062
801.356	7913
801.499	7890
801.641	7830
801.783	7909
801.926	7989
802.068	7940
802.211	7982
802.353	8012
802.496	7913
802.638	7841
802.78	7928
802.923	7944
803.065	7993
803.208	7822
803.35	7967
803.492	8157
803.635	8279
803.777	8001
803.919	8119
804.061	8461
804.204	8180
804.346	8035
804.488	8062
804.63	8138
804.773	8008
804.915	8077
805.057	8305
805.199	8077
805.341	8244
805.483	8290
805.626	8328
805.768	8199
805.91	8218
806.052	8206
806.194	8073
806.336	8248
806.478	8187
806.62	8073
806.762	8168
806.904	8229
807.046	8480
807.188	8393
807.33	8317
807.472	8294
807.614	8130
807.756	8218
807.898	8001
808.04	7837
808.182	7864
808.324	7875
808.465	7906
808.607	8119
808.749	8191
808.891	8248
809.033	8351
809.174	8263
809.316	8058
809.458	8054
809.6	8012
809.741	8077
809.883	8046
810.025	8130
810.166	8081
810.308	8084
810.45	8016
810.591	7864
810.733	7734
810.875	7658
811.016	7525
811.158	7495
811.299	7647
811.441	7761
811.582	7696
811.724	7590
811.865	7563
812.007	7578
812.148	7620
812.29	7616
812.431	7761
812.573	7913
812.714	7963
812.855	8164
812.997	8252
813.138	8298
813.279	8210
813.421	8130
813.562	7970
813.703	7875
813.845	7849
813.986	7415
814.127	7331
814.268	7232
814.41	7183
814.551	7171
814.692	7244
814.833	7129
814.974	7110
815.115	7137
815.256	7004
815.397	6993
815.539	6977
815.68	6814
815.821	6795
815.962	6882
816.103	6829
816.244	6745
816.385	6635
816.526	6631
816.666	6528
816.807	6323
816.948	6498
817.089	6532
817.23	6395
817.371	6429
817.512	6369
817.653	6384
817.793	6350
817.934	6433
818.075	6494
818.216	6506
818.356	6376
818.497	6315
818.638	6121
818.778	6136
818.919	6163
819.06	6159
819.2	6357
819.341	6365
819.481	6369
819.622	6566
819.762	6745
819.903	6726
820.043	6662
820.184	6646
820.324	6616
820.465	6753
820.605	6665
820.746	6627
820.886	6513
821.026	6715
821.167	6715
821.307	6825
821.447	6783
821.588	6669
821.728	6555
821.868	6494
822.008	6327
822.149	6498
822.289	6338
822.429	6201
822.569	6091
822.709	6194
822.849	6003
822.99	5908
823.13	5969
823.27	5927
823.41	5832
823.55	5836
823.69	5821
823.83	5783
823.97	5695
824.11	5539
824.25	5467
824.389	5554
824.529	5615
824.669	5562
824.809	5619
824.949	5733
825.089	5634
825.228	5611
825.368	5429
825.508	5368
825.648	5353
825.787	5334
825.927	5410
826.067	5311
826.206	5227
826.346	5421
826.485	5482
826.625	5448
826.765	5554
826.904	5433
827.044	5292
827.183	5216
827.323	5132
827.462	5292
827.601	5197
827.741	5223
827.88	5223
828.02	5178
828.159	5239
828.298	5322
828.437	5326
828.577	5357
828.716	5497
828.855	5360
828.994	5166
829.134	5143
829.273	5208
829.412	5181
829.551	5117
829.69	5121
829.829	5239
829.968	5326
830.107	5341
830.246	5296
830.385	5181
830.524	5124
830.663	5041
830.802	4968
830.941	4957
831.08	4965
831.219	5014
831.357	4968
831.496	5147
831.635	4904
831.774	4847
831.913	4843
832.051	4736
832.19	4733
832.329	4870
832.467	4660
832.606	4683
832.744	4729
832.883	4725
833.022	4721
833.16	4771
833.299	4866
833.437	4820
833.576	4847
833.714	4786
833.852	4915
833.991	4873
834.129	4949
834.267	4980
834.406	4946
834.544	5029
834.682	4976
834.821	5003
834.959	5185
835.097	4984
835.235	5136
835.373	5132
835.511	5174
835.65	5052
835.788	5018
835.926	4900
836.064	4892
836.202	4892
836.34	5231
836.478	5216
836.615	5113
836.753	5204
836.891	5353
837.029	5254
837.167	5220
837.305	5174
837.443	5181
837.58	5083
837.718	5292
837.856	5212
837.993	5220
838.131	5235
838.269	5204
838.406	5162
838.544	5181
838.681	5045
838.819	4953
838.956	4900
839.094	4927
839.231	4995
839.369	5121
839.506	5417
839.643	5208
839.781	5090
839.918	5010
840.055	5124
840.193	5162
840.33	5132
840.467	5201
840.604	5204
840.742	5490
840.879	5105
841.016	5121
841.153	5140
841.29	5387
841.427	5395
841.564	5322
841.701	5364
841.838	5265
841.975	5261
842.112	5303
842.249	5166
842.385	5121
842.522	5334
842.659	5174
842.796	5132
842.933	5185
843.069	5143
843.206	5166
843.343	5349
843.479	5265
843.616	5284
843.752	5048
843.889	5006
844.025	5239
844.162	5018
844.298	5216
844.435	5121
844.571	5048
844.708	5197
844.844	5273
844.98	5318
845.117	5292
845.253	5170
845.389	5071
845.525	5178
845.661	5155
845.798	5086
845.934	5166
846.07	5060
846.206	5170
846.342	5261
846.478	5208
846.614	5045
846.75	4968
846.886	4968
847.022	5121
847.158	5022
847.294	5060
847.429	5121
847.565	5029
847.701	5360
847.837	4896
847.972	4873
848.108	5003
848.244	4919
848.379	4820
848.515	4694
848.65	4725
848.786	4782
848.921	4710
849.057	4870
849.192	4911
849.328	4801
849.463	4835
849.598	4793
849.734	4721
849.869	4717
850.004	4649
850.14	4653
850.275	4588
850.41	4546
850.545	4573
850.68	4622
850.815	4656
850.95	4641
851.085	4820
851.22	4733
851.355	4675
851.49	4626
851.625	4660
851.76	4622
851.895	4527
852.03	4500
852.165	4691
852.299	4702
852.434	4774
852.569	4740
852.703	4782
852.838	4831
852.973	4984
853.107	4911
853.242	4691
853.376	4702
853.511	4527
853.645	4573
853.78	4767
853.914	4679
854.048	4675
854.183	4653
854.317	4675
854.451	4812
854.585	4660
854.72	4691
854.854	4752
854.988	4653
855.122	4649
855.256	4558
855.39	4691
855.524	4774
855.658	4683
855.792	4733
855.926	4782
856.06	4771
856.194	4786
856.327	4744
856.461	4618
856.595	4622
856.729	4622
856.862	4771
856.996	4714
857.13	4717
857.263	4767
857.397	4801
857.53	4641
857.664	4717
857.797	4759
857.931	4797
858.064	4694
858.197	4721
858.331	4637
858.464	4603
858.597	4554
858.731	4599
858.864	4637
858.997	4580
859.13	4630
859.263	4656
859.396	4729
859.529	4611
859.662	4588
859.795	4527
859.928	4607
860.061	4748
860.194	4767
860.327	4615
860.46	4580
860.592	4656
860.725	4721
860.858	4702
860.99	4569
861.123	4489
861.256	4508
861.388	4615
861.521	5261
861.653	4466
861.786	4485
861.918	4405
862.05	4489
862.183	4554
862.315	4649
862.447	4645
862.58	4508
862.712	4405
862.844	4322
862.976	4455
863.108	4497
863.24	4733
863.372	4333
863.504	4386
863.636	4371
863.768	4538
863.9	4451
864.032	4383
864.164	4417
864.296	4459
864.428	4573
864.559	4561
864.691	4508
864.823	4542
864.954	4489
865.086	4485
865.217	4440
865.349	4451
865.48	4493
865.612	4542
865.743	4626
865.875	4489
866.006	4462
866.137	4421
866.269	4466
866.4	4451
866.531	4424
866.662	4383
866.793	4432
866.924	4424
867.055	4459
867.186	4443
867.317	4390
867.448	4360
867.579	4405
867.71	4402
867.841	4360
867.972	4451
868.103	4485
868.233	4413
868.364	4462
868.495	4485
868.625	4668
868.756	4744
868.886	4634
869.017	4611
869.147	4774
869.278	4790
869.408	4611
869.539	4679
869.669	4698
869.799	4653
869.929	4740
870.06	4740
870.19	4995
870.32	4911
870.45	4968
870.58	5045
870.71	5086
870.84	5086
870.97	4949
871.1	4900
871.23	5174
871.36	5170
871.489	5025
871.619	5094
871.749	5052
871.879	5128
872.008	5162
872.138	5067
872.267	4961
872.397	4877
872.526	4843
872.656	4717
872.785	4816
872.915	4919
873.044	5048
873.173	4915
873.303	4961
873.432	4949
873.561	4976
873.69	4843
873.819	4839
873.948	4927
874.077	4812
874.206	4782
874.335	4793
874.464	4911
874.593	5052
874.722	4968
874.851	5151
874.979	5083
875.108	5083
875.237	4904
875.365	4877
875.494	4923
875.623	4991
875.751	4786
875.88	4873
876.008	5041
876.136	5018
876.265	5212
876.393	5341
876.521	5296
876.65	5246
876.778	5178
876.906	5102
877.034	5025
877.162	5048
877.29	4987
877.418	5056
877.546	5022
877.674	5006
877.802	5045
877.93	4987
878.058	4923
878.185	4870
878.313	5010
878.441	4972
878.568	4805
878.696	4866
878.824	4961
878.951	5025
879.079	5121
879.206	5330
879.333	5124
879.461	4961
879.588	4991
879.715	5132
879.842	5258
879.97	4961
880.097	4778
880.224	4759
880.351	4771
880.478	4835
880.605	4797
880.732	4839
880.859	5067
880.986	4927
881.112	4915
881.239	4782
881.366	4683
881.493	4607
881.619	4618
881.746	4599
881.872	4615
881.999	4664
882.125	4691
882.252	4820
882.378	4790
882.505	4991
882.631	4809
882.757	4675
882.883	4702
883.01	4679
883.136	4702
883.262	4599
883.388	4653
883.514	4812
883.64	4828
883.766	4771
883.892	4656
884.018	4698
884.143	4892
884.269	5022
884.395	4675
884.52	4634
884.646	4588
884.772	4649
884.897	4573
885.023	4672
885.148	4839
885.274	4904
885.399	4816
885.524	4706
885.65	4717
885.775	4717
885.9	4710
886.025	4839
886.15	4805
886.275	4691
886.4	4698
886.525	4733
886.65	4717
886.775	4679
886.9	4923
887.025	5014
887.149	4831
887.274	4630
887.399	4584
887.523	4618
887.648	4653
887.773	4554
887.897	4774
888.021	4790
888.146	4672
888.27	4828
888.395	4866
888.519	4824
888.643	4793
888.767	4809
888.891	4752
889.015	4664
889.139	4656
889.263	4565
889.387	4763
889.511	4866
889.635	4805
889.759	4664
889.883	4615
890.006	4687
890.13	4820
890.254	4611
890.377	4733
890.501	4546
890.624	4485
890.748	4683
890.871	4519
890.995	4402
891.118	4451
891.241	4558
891.364	4565
891.488	4611
891.611	4489
891.734	4542
891.857	4607
891.98	4554
892.103	4630
892.226	4561
892.349	4519
892.471	4405
892.594	4569
892.717	4596
892.839	4546
892.962	4573
893.085	4679
893.207	4584
893.33	4443
893.452	4558
893.575	4664
893.697	4607
893.819	4767
893.941	4820
894.064	4740
894.186	4519
894.308	4580
894.43	4767
894.552	4797
894.674	4729
894.796	4546
894.918	4618
895.04	4512
895.161	4710
895.283	4653
895.405	4596
895.526	4656
895.648	4675
895.769	4717
895.891	4710
896.012	4706
896.134	4710
896.255	4706
896.376	4645
896.498	4649
896.619	4649
896.74	4645
896.861	4630
896.982	4904
897.103	5094
897.224	4820
897.345	4767
897.466	4656
897.587	4710
897.708	4831
897.828	4786
897.949	4683
898.07	4577
898.19	4630
898.311	4801
898.431	4683
898.552	4736
898.672	4805
898.792	4767
898.913	4694
899.033	4599
899.153	4542
899.273	4398
899.393	4493
899.513	4531
899.633	4542
899.753	4554
899.873	4508
899.993	4569
900.113	4497
900.232	4569
900.352	4535
900.472	4485
900.591	4409
900.711	4516
900.83	4436
900.95	4573
901.069	4679
901.189	4523
901.308	4367
901.427	4284
901.546	4371
901.665	4489
901.784	4523
901.904	4360
902.023	4333
902.141	4204
902.26	4177
902.379	4268
902.498	4166
902.617	4261
902.735	4325
902.854	4383
902.973	4413
903.091	4227
903.21	4265
903.328	4310
903.446	4253
903.565	4268
903.683	4394
903.801	4284
903.919	4413
904.038	4398
904.156	4303
904.274	4478
904.392	4337
904.51	4417
904.627	4447
904.745	4603
904.863	4641
904.981	4409
905.098	4299
905.216	4341
905.334	4417
905.451	4417
905.569	4428
905.686	4550
905.803	4523
905.921	4432
906.038	4558
906.155	4405
906.272	4424
906.389	4474
906.506	4337
906.623	4371
906.74	4360
906.857	4291
906.974	4398
907.091	4573
907.208	4653
907.324	4615
907.441	4504
907.557	4367
907.674	4352
907.79	4337
907.907	4409
908.023	4478
908.139	4481
908.256	4402
908.372	4455
908.488	4443
908.604	4348
908.72	4306
908.836	4379
908.952	4386
909.068	4432
909.184	4622
909.3	4451
909.415	4618
909.531	4588
909.647	4371
909.762	4371
909.878	4383
909.993	4413
910.108	4440
910.224	4409
910.339	4481
910.454	4402
910.57	4394
910.685	4306
910.8	4634
910.915	4626
911.03	4493
911.145	4363
911.259	4337
911.374	4360
911.489	4310
911.604	4329
911.718	4181
911.833	4173
911.947	4093
912.062	3998
912.176	4215
912.291	4246
912.405	4272
912.519	4440
912.633	4451
912.748	4409
912.862	4325
912.976	4192
913.09	4097
913.204	4124
913.318	4227
913.431	4360
913.545	4360
913.659	4447
913.772	4371
913.886	4234
914	4230
914.113	4367
914.226	4428
914.34	4363
914.453	4223
914.566	4398
914.68	4348
914.793	4310
914.906	4116
915.019	4112
915.132	4059
915.245	4177
915.358	4234
915.47	4227
915.583	4261
915.696	4341
915.809	4413
915.921	4394
916.034	4242
916.146	4272
916.259	4204
916.371	4375
916.483	4344
916.595	4253
916.708	4314
916.82	4314
916.932	4314
917.044	4348
917.156	4348
917.268	4230
917.38	4265
917.491	4291
917.603	4322
917.715	4421
917.826	4390
917.938	4405
918.049	4242
918.161	4417
918.272	4577
918.384	4561
918.495	4398
918.606	4295
918.717	4249
918.828	4344
918.939	4367
919.05	4246
919.161	4314
919.272	4120
919.383	4272
919.494	4478
919.604	4603
919.715	4447
919.826	4356
919.936	4379
920.047	4538
920.157	4481
920.267	4721
920.378	4535
920.488	4432
920.598	4664
920.708	4858
920.818	4755
920.928	4744
921.038	4987
921.148	4892
921.258	4668
921.368	4558
921.477	4478
921.587	4455
921.697	4356
921.806	4569
921.916	4443
922.025	4234
922.134	4295
922.244	4234
922.353	4375
922.462	4200
922.571	4150
922.68	4017
922.789	3915
922.898	4002
923.007	4002
923.116	4086
923.224	4067
923.333	4063
923.442	4040
923.55	4006
923.659	4040
923.767	4059
923.876	4029
923.984	4128
924.092	3964
924.201	4010
924.309	4082
924.417	4124
924.525	4032
924.633	4131
924.741	5045
924.849	3922
924.956	4112
925.064	3968
925.172	3892
925.279	3956
925.387	4051
925.494	4086
925.602	4204
925.709	4169
925.816	4071
925.924	4150
926.031	4196
926.138	4150
926.245	4181
926.352	4097
926.459	4246
926.566	4322
926.673	4162
926.779	4093
926.886	4090
926.993	3994
927.099	3956
927.206	3937
927.312	3941
927.419	4044
927.525	3983
927.631	4120
927.737	3968
927.843	3934
927.95	3831
928.056	3899
928.162	3972
928.267	4032
928.373	4660
928.479	4150
928.585	3896
928.69	4029
928.796	4051
928.901	3975
929.007	3876
929.112	4025
929.218	3953
929.323	3968
929.428	3941
929.533	4097
929.638	3930
929.743	3968
929.848	4055
929.953	4006
930.058	3903
930.163	3774
930.267	3808
930.372	3949
930.477	3797
930.581	4093
930.685	3956
930.79	3842
930.894	3854
930.998	3835
931.103	4059
931.207	3724
931.311	3686
931.415	3667
931.519	3549
931.623	3542
