Data from test_V78500241_1337.txt Node
Date: Fri Mar 25 16:58:17 CST 2022
User: usil
Spectrometer: V785-0024
Trigger mode: 0
Integration Time (sec): 4.000000E-1
Scans to average: 1
Nonlinearity correction enabled: false
Boxcar width: 0
Storing dark spectrum: false
XAxis mode: Wavelengths
Number of Pixels in Spectrum: 1024
>>>>>Begin Spectral Data<<<<<
801.071	8168
801.214	8073
801.356	7902
801.499	7883
801.641	7708
801.783	7795
801.926	8024
802.068	7875
802.211	7974
802.353	7921
802.496	7906
802.638	7871
802.78	7871
802.923	7970
803.065	7868
803.208	7792
803.35	7982
803.492	8073
803.635	8202
803.777	8046
803.919	8157
804.061	8503
804.204	8206
804.346	8069
804.488	8012
804.63	8145
804.773	8065
804.915	8096
805.057	8279
805.199	8161
805.341	8259
805.483	8271
805.626	8191
805.768	8119
805.91	8225
806.052	8210
806.194	8069
806.336	8336
806.478	8103
806.62	8100
806.762	8126
806.904	8191
807.046	8469
807.188	8324
807.33	8267
807.472	8309
807.614	8142
807.756	8111
807.898	7959
808.04	7917
808.182	7856
808.324	7902
808.465	7967
808.607	8202
808.749	8039
808.891	8218
809.033	8301
809.174	8202
809.316	8077
809.458	8069
809.6	8016
809.741	8005
809.883	8039
810.025	8092
810.166	8077
810.308	7959
810.45	8043
810.591	7898
810.733	7715
810.875	7647
811.016	7575
811.158	7537
811.299	7613
811.441	7780
811.582	7670
811.724	7578
811.865	7613
812.007	7544
812.148	7613
812.29	7620
812.431	7765
812.573	7807
812.714	7906
812.855	8088
812.997	8153
813.138	8290
813.279	8145
813.421	8073
813.562	8073
813.703	7860
813.845	7723
813.986	7460
814.127	7278
814.268	7221
814.41	7232
814.551	7141
814.692	7187
814.833	7065
814.974	7084
815.115	7053
815.256	6973
815.397	6909
815.539	6962
815.68	6897
815.821	6795
815.962	6875
816.103	6798
816.244	6692
816.385	6616
816.526	6604
816.666	6563
816.807	6262
816.948	6452
817.089	6448
817.23	6437
817.371	6369
817.512	6361
817.653	6471
817.793	6357
817.934	6437
818.075	6479
818.216	6441
818.356	6376
818.497	6216
818.638	6091
818.778	6159
818.919	6167
819.06	6216
819.2	6384
819.341	6311
819.481	6372
819.622	6479
819.762	6802
819.903	6722
820.043	6574
820.184	6563
820.324	6574
820.465	6715
820.605	6654
820.746	6574
820.886	6540
821.026	6646
821.167	6669
821.307	6802
821.447	6787
821.588	6696
821.728	6570
821.868	6513
822.008	6323
822.149	6361
822.289	6357
822.429	6171
822.569	6079
822.709	6129
822.849	5946
822.99	5901
823.13	5939
823.27	5904
823.41	5828
823.55	5805
823.69	5756
823.83	5802
823.97	5688
824.11	5528
824.25	5509
824.389	5535
824.529	5558
824.669	5520
824.809	5611
824.949	5642
825.089	5646
825.228	5604
825.368	5421
825.508	5341
825.648	5345
825.787	5372
825.927	5349
826.067	5254
826.206	5269
826.346	5395
826.485	5455
826.625	5440
826.765	5577
826.904	5490
827.044	5242
827.183	5220
827.323	5162
827.462	5254
827.601	5185
827.741	5212
827.88	5250
828.02	5132
828.159	5254
828.298	5341
828.437	5410
828.577	5288
828.716	5497
828.855	5315
828.994	5227
829.134	5162
829.273	5250
829.412	5140
829.551	5170
829.69	5178
829.829	5254
829.968	5360
830.107	5265
830.246	5311
830.385	5109
830.524	5166
830.663	5033
830.802	4968
830.941	4847
831.08	4870
831.219	5033
831.357	4999
831.496	5151
831.635	4915
831.774	4843
831.913	4850
832.051	4774
832.19	4721
832.329	4873
832.467	4771
832.606	4698
832.744	4736
832.883	4717
833.022	4767
833.16	4786
833.299	4839
833.437	4820
833.576	4824
833.714	4793
833.852	4824
833.991	4942
834.129	4995
834.267	4946
834.406	4862
834.544	4965
834.682	4995
834.821	4946
834.959	5162
835.097	4987
835.235	5151
835.373	5086
835.511	5102
835.65	5033
835.788	5029
835.926	4873
836.064	4862
836.202	4934
836.34	5136
836.478	5170
836.615	5147
836.753	5227
836.891	5258
837.029	5307
837.167	5208
837.305	5121
837.443	5128
837.58	5102
837.718	5239
837.856	5140
837.993	5140
838.131	5254
838.269	5189
838.406	5216
838.544	5212
838.681	5071
838.819	5037
838.956	4892
839.094	4942
839.231	4976
839.369	5105
839.506	5429
839.643	5265
839.781	5010
839.918	4968
840.055	5105
840.193	5064
840.33	5151
840.467	5094
840.604	5166
840.742	5448
840.879	5056
841.016	5105
841.153	5128
841.29	5372
841.427	5349
841.564	5383
841.701	5353
841.838	5284
841.975	5242
842.112	5280
842.249	5113
842.385	5086
842.522	5284
842.659	5147
842.796	5151
842.933	5181
843.069	5181
843.206	5147
843.343	5315
843.479	5204
843.616	5277
843.752	5041
843.889	5022
844.025	5212
844.162	5022
844.298	5170
844.435	5083
844.571	5067
844.708	5220
844.844	5311
844.98	5349
845.117	5242
845.253	5181
845.389	5056
845.525	5155
845.661	5113
845.798	5056
845.934	5136
846.07	5041
846.206	5151
846.342	5307
846.478	5162
846.614	4965
846.75	4968
846.886	4934
847.022	5170
847.158	4968
847.294	5102
847.429	5098
847.565	5056
847.701	5341
847.837	4854
847.972	4831
848.108	4946
848.244	4915
848.379	4786
848.515	4755
848.65	4736
848.786	4736
848.921	4748
849.057	4824
849.192	4885
849.328	4824
849.463	4850
849.598	4763
849.734	4793
849.869	4683
850.004	4580
850.14	4694
850.275	4599
850.41	4569
850.545	4550
850.68	4611
850.815	4622
850.95	4592
851.085	4797
851.22	4748
851.355	4668
851.49	4577
851.625	4596
851.76	4664
851.895	4550
852.03	4489
852.165	4660
852.299	4763
852.434	4763
852.569	4721
852.703	4752
852.838	4809
852.973	4923
853.107	4927
853.242	4740
853.376	4664
853.511	4558
853.645	4645
853.78	4778
853.914	4679
854.048	4675
854.183	4710
854.317	4714
854.451	4881
854.585	4740
854.72	4698
854.854	4771
854.988	4622
855.122	4603
855.256	4538
855.39	4702
855.524	4759
855.658	4698
855.792	4759
855.926	4736
856.06	4774
856.194	4797
856.327	4694
856.461	4656
856.595	4584
856.729	4637
856.862	4748
856.996	4664
857.13	4717
857.263	4774
857.397	4793
857.53	4626
857.664	4729
857.797	4755
857.931	4793
858.064	4653
858.197	4717
858.331	4664
858.464	4622
858.597	4531
858.731	4622
858.864	4683
858.997	4546
859.13	4691
859.263	4664
859.396	4687
859.529	4565
859.662	4569
859.795	4580
859.928	4653
860.061	4801
860.194	4729
860.327	4607
860.46	4546
860.592	4740
860.725	4687
860.858	4714
860.99	4565
861.123	4481
861.256	4500
861.388	4672
861.521	5273
861.653	4474
861.786	4421
861.918	4462
862.05	4550
862.183	4588
862.315	4630
862.447	4672
862.58	4580
862.712	4405
862.844	4341
862.976	4478
863.108	4432
863.24	4892
863.372	4314
863.504	4405
863.636	4402
863.768	4508
863.9	4402
864.032	4363
864.164	4447
864.296	4504
864.428	4527
864.559	4531
864.691	4519
864.823	4535
864.954	4550
865.086	4493
865.217	4451
865.349	4405
865.48	4459
865.612	4485
865.743	4622
865.875	4470
866.006	4424
866.137	4474
866.269	4451
866.4	4402
866.531	4440
866.662	4405
866.793	4398
866.924	4405
867.055	4485
867.186	4424
867.317	4424
867.448	4379
867.579	4371
867.71	4405
867.841	4394
867.972	4417
868.103	4451
868.233	4474
868.364	4402
868.495	4440
868.625	4653
868.756	4729
868.886	4542
869.017	4584
869.147	4755
869.278	4805
869.408	4641
869.539	4615
869.669	4729
869.799	4626
869.929	4748
870.06	4763
870.19	4934
870.32	4953
870.45	4961
870.58	4995
870.71	5086
870.84	5079
870.97	4934
871.1	4908
871.23	5147
871.36	5121
871.489	5052
871.619	5052
871.749	5060
871.879	5121
872.008	5204
872.138	5071
872.267	4987
872.397	4839
872.526	4809
872.656	4767
872.785	4816
872.915	4957
873.044	5006
873.173	4930
873.303	4942
873.432	4953
873.561	4927
873.69	4870
873.819	4877
873.948	4900
874.077	4828
874.206	4778
874.335	4812
874.464	4904
874.593	5014
874.722	4900
874.851	5102
874.979	5064
875.108	4984
875.237	4911
875.365	4858
875.494	4870
875.623	4927
875.751	4801
875.88	4854
876.008	4942
876.136	4995
876.265	5181
876.393	5322
876.521	5273
876.65	5223
876.778	5201
876.906	5045
877.034	4995
877.162	5086
877.29	4976
877.418	5048
877.546	5014
877.674	5037
877.802	4987
877.93	4972
878.058	4911
878.185	4858
878.313	4934
878.441	4949
878.568	4793
878.696	4892
878.824	4915
878.951	5006
879.079	5071
879.206	5261
879.333	5071
879.461	4972
879.588	4965
879.715	5113
879.842	5193
879.97	5029
880.097	4759
880.224	4748
880.351	4820
880.478	4828
880.605	4774
880.732	4774
880.859	5083
880.986	4881
881.112	4831
881.239	4790
881.366	4694
881.493	4580
881.619	4584
881.746	4645
881.872	4687
881.999	4668
882.125	4694
882.252	4782
882.378	4805
882.505	4961
882.631	4805
882.757	4683
882.883	4687
883.01	4725
883.136	4656
883.262	4626
883.388	4599
883.514	4767
883.64	4820
883.766	4790
883.892	4607
884.018	4721
884.143	4885
884.269	4999
884.395	4622
884.52	4675
884.646	4660
884.772	4550
884.897	4538
885.023	4615
885.148	4763
885.274	4828
885.399	4778
885.524	4698
885.65	4698
885.775	4771
885.9	4672
886.025	4881
886.15	4786
886.275	4714
886.4	4637
886.525	4729
886.65	4721
886.775	4691
886.9	4870
887.025	5052
887.149	4820
887.274	4653
887.399	4580
887.523	4611
887.648	4527
887.773	4561
887.897	4736
888.021	4717
888.146	4710
888.27	4774
888.395	4870
888.519	4839
888.643	4790
888.767	4820
888.891	4668
889.015	4615
889.139	4637
889.263	4626
889.387	4763
889.511	4850
889.635	4809
889.759	4645
889.883	4706
890.006	4714
890.13	4809
890.254	4611
890.377	4668
890.501	4531
890.624	4428
890.748	4584
890.871	4512
890.995	4440
891.118	4341
891.241	4489
891.364	4535
891.488	4630
891.611	4493
891.734	4516
891.857	4615
891.98	4527
892.103	4660
892.226	4569
892.349	4489
892.471	4459
892.594	4542
892.717	4561
892.839	4592
892.962	4569
893.085	4664
893.207	4573
893.33	4459
893.452	4485
893.575	4637
893.697	4561
893.819	4790
893.941	4824
894.064	4767
894.186	4584
894.308	4554
894.43	4706
894.552	4797
894.674	4729
894.796	4546
894.918	4596
895.04	4531
895.161	4683
895.283	4656
895.405	4577
895.526	4653
895.648	4656
895.769	4675
895.891	4656
896.012	4729
896.134	4717
896.255	4653
896.376	4584
896.498	4626
896.619	4721
896.74	4611
896.861	4641
896.982	4911
897.103	5045
897.224	4854
897.345	4725
897.466	4664
897.587	4725
897.708	4843
897.828	4816
897.949	4668
898.07	4497
898.19	4694
898.311	4835
898.431	4675
898.552	4733
898.672	4816
898.792	4828
898.913	4767
899.033	4630
899.153	4504
899.273	4394
899.393	4512
899.513	4512
899.633	4500
899.753	4538
899.873	4500
899.993	4611
900.113	4519
900.232	4592
900.352	4504
900.472	4443
900.591	4363
900.711	4474
900.83	4432
900.95	4603
901.069	4694
901.189	4504
901.308	4402
901.427	4246
901.546	4363
901.665	4489
901.784	4535
901.904	4386
902.023	4337
902.141	4169
902.26	4124
902.379	4303
902.498	4272
902.617	4249
902.735	4398
902.854	4371
902.973	4360
903.091	4246
903.21	4215
903.328	4295
903.446	4249
903.565	4265
903.683	4405
903.801	4314
903.919	4314
904.038	4451
904.156	4318
904.274	4383
904.392	4360
904.51	4417
904.627	4424
904.745	4565
904.863	4630
904.981	4390
905.098	4295
905.216	4360
905.334	4383
905.451	4436
905.569	4451
905.686	4546
905.803	4596
905.921	4424
906.038	4558
906.155	4500
906.272	4383
906.389	4424
906.506	4379
906.623	4409
906.74	4337
906.857	4299
906.974	4325
907.091	4500
907.208	4694
907.324	4519
907.441	4500
907.557	4333
907.674	4318
907.79	4310
907.907	4405
908.023	4493
908.139	4443
908.256	4405
908.372	4470
908.488	4443
908.604	4306
908.72	4337
908.836	4363
908.952	4402
909.068	4428
909.184	4573
909.3	4493
909.415	4550
909.531	4580
909.647	4360
909.762	4390
909.878	4333
909.993	4424
910.108	4379
910.224	4455
910.339	4470
910.454	4325
910.57	4398
910.685	4375
910.8	4622
910.915	4592
911.03	4500
911.145	4295
911.259	4379
911.374	4344
911.489	4261
911.604	4291
911.718	4150
911.833	4211
911.947	4131
912.062	4071
912.176	4188
912.291	4234
912.405	4234
912.519	4413
912.633	4493
912.748	4348
912.862	4314
912.976	4204
913.09	4063
913.204	4173
913.318	4249
913.431	4375
913.545	4363
913.659	4459
913.772	4379
913.886	4230
914	4162
914.113	4402
914.226	4413
914.34	4371
914.453	4238
914.566	4485
914.68	4287
914.793	4314
914.906	4143
915.019	4147
915.132	4048
915.245	4196
915.358	4246
915.47	4261
915.583	4272
915.696	4280
915.809	4360
915.921	4409
916.034	4268
916.146	4242
916.259	4204
916.371	4390
916.483	4306
916.595	4268
916.708	4287
916.82	4287
916.932	4303
917.044	4318
917.156	4295
917.268	4242
917.38	4253
917.491	4219
917.603	4333
917.715	4424
917.826	4462
917.938	4329
918.049	4246
918.161	4405
918.272	4550
918.384	4535
918.495	4390
918.606	4280
918.717	4215
918.828	4306
918.939	4379
919.05	4272
919.161	4246
919.272	4112
919.383	4234
919.494	4443
919.604	4668
919.715	4421
919.826	4341
919.936	4443
920.047	4470
920.157	4478
920.267	4672
920.378	4561
920.488	4500
920.598	4679
920.708	4870
920.818	4774
920.928	4759
921.038	4942
921.148	4930
921.258	4618
921.368	4497
921.477	4565
921.587	4481
921.697	4329
921.806	4577
921.916	4409
922.025	4249
922.134	4272
922.244	4234
922.353	4284
922.462	4158
922.571	4120
922.68	3987
922.789	3934
922.898	4040
923.007	3972
923.116	4055
923.224	4093
923.333	4051
923.442	3994
923.55	3926
923.659	4036
923.767	4063
923.876	3994
923.984	4112
924.092	3960
924.201	4048
924.309	4090
924.417	4135
924.525	4036
924.633	4097
924.741	5018
924.849	3930
924.956	4124
925.064	3926
925.172	3854
925.279	3956
925.387	3994
925.494	4044
925.602	4207
925.709	4131
925.816	4017
925.924	4090
926.031	4234
926.138	4135
926.245	4200
926.352	4071
926.459	4234
926.566	4291
926.673	4173
926.779	4082
926.886	4086
926.993	3941
927.099	3987
927.206	3949
927.312	3915
927.419	4059
927.525	4051
927.631	4044
927.737	3937
927.843	3903
927.95	3816
928.056	3922
928.162	3964
928.267	4074
928.373	4668
928.479	4109
928.585	3827
928.69	4044
928.796	4048
928.901	3903
929.007	3861
929.112	3972
929.218	3972
929.323	3960
929.428	3953
929.533	4109
929.638	3854
929.743	3991
929.848	3975
929.953	3960
930.058	3934
930.163	3759
930.267	3838
930.372	4025
930.477	3793
930.581	4090
930.685	3964
930.79	3808
930.894	3907
930.998	3865
931.103	4010
931.207	3701
931.311	3701
931.415	3671
931.519	3507
931.623	3534
