Data from test_V78500241_1256.txt Node
Date: Fri Mar 25 16:57:44 CST 2022
User: usil
Spectrometer: V785-0024
Trigger mode: 0
Integration Time (sec): 4.000000E-1
Scans to average: 1
Nonlinearity correction enabled: false
Boxcar width: 0
Storing dark spectrum: false
XAxis mode: Wavelengths
Number of Pixels in Spectrum: 1024
>>>>>Begin Spectral Data<<<<<
801.071	8031
801.214	8027
801.356	7909
801.499	7849
801.641	7833
801.783	7807
801.926	8016
802.068	7902
802.211	8001
802.353	7913
802.496	7837
802.638	7871
802.78	8035
802.923	7978
803.065	7875
803.208	7883
803.35	7959
803.492	8107
803.635	8237
803.777	8077
803.919	8157
804.061	8511
804.204	8157
804.346	8081
804.488	8039
804.63	8096
804.773	8016
804.915	8065
805.057	8317
805.199	8221
805.341	8206
805.483	8275
805.626	8221
805.768	8195
805.91	8298
806.052	8301
806.194	8058
806.336	8263
806.478	8145
806.62	8046
806.762	8149
806.904	8343
807.046	8469
807.188	8389
807.33	8396
807.472	8324
807.614	8172
807.756	8187
807.898	8005
808.04	7879
808.182	7906
808.324	7947
808.465	7925
808.607	8100
808.749	8092
808.891	8153
809.033	8320
809.174	8183
809.316	8031
809.458	8081
809.6	8016
809.741	8027
809.883	7978
810.025	8183
810.166	8119
810.308	8024
810.45	8100
810.591	7921
810.733	7746
810.875	7723
811.016	7533
811.158	7563
811.299	7586
811.441	7696
811.582	7712
811.724	7575
811.865	7544
812.007	7571
812.148	7628
812.29	7632
812.431	7757
812.573	7898
812.714	8062
812.855	8096
812.997	8191
813.138	8317
813.279	8199
813.421	8084
813.562	7993
813.703	7833
813.845	7776
813.986	7457
814.127	7331
814.268	7278
814.41	7202
814.551	7175
814.692	7270
814.833	7080
814.974	7080
815.115	7114
815.256	6993
815.397	6943
815.539	7023
815.68	6875
815.821	6840
815.962	6886
816.103	6837
816.244	6753
816.385	6642
816.526	6631
816.666	6502
816.807	6361
816.948	6429
817.089	6536
817.23	6414
817.371	6426
817.512	6365
817.653	6437
817.793	6361
817.934	6395
818.075	6441
818.216	6464
818.356	6448
818.497	6201
818.638	6106
818.778	6155
818.919	6125
819.06	6155
819.2	6323
819.341	6346
819.481	6372
819.622	6578
819.762	6825
819.903	6673
820.043	6650
820.184	6570
820.324	6604
820.465	6654
820.605	6669
820.746	6681
820.886	6509
821.026	6719
821.167	6654
821.307	6791
821.447	6768
821.588	6627
821.728	6578
821.868	6517
822.008	6285
822.149	6399
822.289	6380
822.429	6144
822.569	6117
822.709	6175
822.849	5977
822.99	5885
823.13	5916
823.27	5927
823.41	5771
823.55	5779
823.69	5767
823.83	5790
823.97	5680
824.11	5577
824.25	5509
824.389	5611
824.529	5642
824.669	5532
824.809	5672
824.949	5638
825.089	5668
825.228	5512
825.368	5406
825.508	5376
825.648	5353
825.787	5372
825.927	5383
826.067	5299
826.206	5288
826.346	5395
826.485	5414
826.625	5379
826.765	5528
826.904	5444
827.044	5269
827.183	5197
827.323	5151
827.462	5284
827.601	5189
827.741	5170
827.88	5269
828.02	5086
828.159	5242
828.298	5315
828.437	5376
828.577	5258
828.716	5474
828.855	5318
828.994	5181
829.134	5086
829.273	5208
829.412	5193
829.551	5147
829.69	5181
829.829	5239
829.968	5364
830.107	5284
830.246	5280
830.385	5181
830.524	5128
830.663	5048
830.802	4965
830.941	4877
831.08	4930
831.219	5022
831.357	4987
831.496	5216
831.635	4946
831.774	4866
831.913	4847
832.051	4694
832.19	4748
832.329	4843
832.467	4687
832.606	4664
832.744	4771
832.883	4733
833.022	4759
833.16	4774
833.299	4782
833.437	4820
833.576	4839
833.714	4873
833.852	4843
833.991	4942
834.129	4953
834.267	4961
834.406	4896
834.544	4972
834.682	4942
834.821	4911
834.959	5166
835.097	4976
835.235	5128
835.373	5094
835.511	5113
835.65	5064
835.788	5045
835.926	4923
836.064	4896
836.202	4904
836.34	5178
836.478	5235
836.615	5162
836.753	5239
836.891	5265
837.029	5292
837.167	5170
837.305	5162
837.443	5212
837.58	5079
837.718	5258
837.856	5143
837.993	5204
838.131	5258
838.269	5189
838.406	5277
838.544	5170
838.681	5006
838.819	4984
838.956	4904
839.094	4930
839.231	5006
839.369	5155
839.506	5398
839.643	5322
839.781	5105
839.918	5003
840.055	5109
840.193	5083
840.33	5113
840.467	5124
840.604	5121
840.742	5429
840.879	5098
841.016	5071
841.153	5109
841.29	5353
841.427	5337
841.564	5307
841.701	5322
841.838	5322
841.975	5250
842.112	5296
842.249	5166
842.385	5067
842.522	5334
842.659	5258
842.796	5151
842.933	5178
843.069	5143
843.206	5136
843.343	5292
843.479	5258
843.616	5296
843.752	5037
843.889	4999
844.025	5208
844.162	5025
844.298	5197
844.435	5086
844.571	5045
844.708	5212
844.844	5288
844.98	5357
845.117	5265
845.253	5132
845.389	5113
845.525	5197
845.661	5113
845.798	5006
845.934	5109
846.07	5079
846.206	5239
846.342	5265
846.478	5113
846.614	5052
846.75	4949
846.886	4953
847.022	5147
847.158	5022
847.294	5052
847.429	5075
847.565	5083
847.701	5307
847.837	4824
847.972	4850
848.108	4991
848.244	4965
848.379	4774
848.515	4748
848.65	4694
848.786	4748
848.921	4797
849.057	4843
849.192	4892
849.328	4839
849.463	4843
849.598	4809
849.734	4725
849.869	4694
850.004	4637
850.14	4687
850.275	4622
850.41	4546
850.545	4592
850.68	4626
850.815	4596
850.95	4641
851.085	4812
851.22	4755
851.355	4660
851.49	4580
851.625	4660
851.76	4649
851.895	4542
852.03	4512
852.165	4664
852.299	4706
852.434	4816
852.569	4778
852.703	4782
852.838	4835
852.973	4915
853.107	4919
853.242	4729
853.376	4637
853.511	4580
853.645	4599
853.78	4812
853.914	4694
854.048	4653
854.183	4664
854.317	4714
854.451	4812
854.585	4645
854.72	4630
854.854	4733
854.988	4611
855.122	4626
855.256	4500
855.39	4596
855.524	4782
855.658	4733
855.792	4717
855.926	4714
856.06	4759
856.194	4763
856.327	4717
856.461	4599
856.595	4630
856.729	4656
856.862	4767
856.996	4714
857.13	4710
857.263	4774
857.397	4786
857.53	4679
857.664	4729
857.797	4782
857.931	4786
858.064	4702
858.197	4778
858.331	4645
858.464	4634
858.597	4497
858.731	4641
858.864	4656
858.997	4634
859.13	4653
859.263	4660
859.396	4679
859.529	4558
859.662	4630
859.795	4554
859.928	4611
860.061	4748
860.194	4729
860.327	4596
860.46	4538
860.592	4691
860.725	4702
860.858	4706
860.99	4596
861.123	4516
861.256	4500
861.388	4637
861.521	5265
861.653	4500
861.786	4466
861.918	4447
862.05	4542
862.183	4538
862.315	4596
862.447	4660
862.58	4542
862.712	4394
862.844	4306
862.976	4470
863.108	4398
863.24	4900
863.372	4337
863.504	4417
863.636	4424
863.768	4466
863.9	4421
864.032	4348
864.164	4383
864.296	4481
864.428	4504
864.559	4558
864.691	4577
864.823	4546
864.954	4459
865.086	4478
865.217	4451
865.349	4405
865.48	4470
865.612	4535
865.743	4577
865.875	4493
866.006	4390
866.137	4478
866.269	4424
866.4	4466
866.531	4466
866.662	4386
866.793	4398
866.924	4512
867.055	4516
867.186	4447
867.317	4409
867.448	4440
867.579	4344
867.71	4398
867.841	4379
867.972	4459
868.103	4459
868.233	4436
868.364	4440
868.495	4440
868.625	4687
868.756	4748
868.886	4512
869.017	4596
869.147	4763
869.278	4763
869.408	4645
869.539	4615
869.669	4702
869.799	4653
869.929	4790
870.06	4698
870.19	4923
870.32	4946
870.45	4968
870.58	4984
870.71	5075
870.84	5048
870.97	4976
871.1	4881
871.23	5159
871.36	5064
871.489	4980
871.619	5025
871.749	5086
871.879	5159
872.008	5109
872.138	5006
872.267	4961
872.397	4862
872.526	4771
872.656	4729
872.785	4797
872.915	4976
873.044	5033
873.173	4911
873.303	4946
873.432	4923
873.561	4991
873.69	4843
873.819	4866
873.948	4881
874.077	4801
874.206	4740
874.335	4752
874.464	4873
874.593	5079
874.722	4927
874.851	5083
874.979	5033
875.108	5022
875.237	4911
875.365	4870
875.494	4900
875.623	5003
875.751	4850
875.88	4919
876.008	4949
876.136	5102
876.265	5212
876.393	5315
876.521	5254
876.65	5235
876.778	5189
876.906	5094
877.034	4965
877.162	4999
877.29	4972
877.418	5056
877.546	5014
877.674	5052
877.802	5006
877.93	5033
878.058	4915
878.185	4854
878.313	4915
878.441	4930
878.568	4809
878.696	4850
878.824	4942
878.951	4999
879.079	5113
879.206	5265
879.333	5083
879.461	4972
879.588	5014
879.715	5178
879.842	5197
879.97	4980
880.097	4793
880.224	4702
880.351	4797
880.478	4862
880.605	4805
880.732	4812
880.859	5064
880.986	4870
881.112	4908
881.239	4759
881.366	4653
881.493	4607
881.619	4592
881.746	4622
881.872	4596
881.999	4660
882.125	4653
882.252	4752
882.378	4831
882.505	4965
882.631	4801
882.757	4721
882.883	4740
883.01	4679
883.136	4664
883.262	4584
883.388	4607
883.514	4786
883.64	4824
883.766	4729
883.892	4603
884.018	4763
884.143	4911
884.269	5029
884.395	4656
884.52	4641
884.646	4634
884.772	4546
884.897	4565
885.023	4649
885.148	4736
885.274	4854
885.399	4793
885.524	4645
885.65	4687
885.775	4733
885.9	4687
886.025	4854
886.15	4767
886.275	4698
886.4	4725
886.525	4729
886.65	4649
886.775	4668
886.9	4873
887.025	5033
887.149	4790
887.274	4634
887.399	4554
887.523	4653
887.648	4565
887.773	4573
887.897	4763
888.021	4793
888.146	4694
888.27	4839
888.395	4938
888.519	4782
888.643	4812
888.767	4824
888.891	4649
889.015	4653
889.139	4653
889.263	4558
889.387	4759
889.511	4835
889.635	4793
889.759	4626
889.883	4618
890.006	4717
890.13	4812
890.254	4580
890.377	4694
890.501	4519
890.624	4538
890.748	4664
890.871	4500
890.995	4409
891.118	4390
891.241	4523
891.364	4546
891.488	4634
891.611	4523
891.734	4504
891.857	4626
891.98	4554
892.103	4683
892.226	4565
892.349	4508
892.471	4428
892.594	4508
892.717	4588
892.839	4558
892.962	4599
893.085	4687
893.207	4607
893.33	4451
893.452	4519
893.575	4710
893.697	4569
893.819	4809
893.941	4847
894.064	4752
894.186	4542
894.308	4550
894.43	4683
894.552	4866
894.674	4744
894.796	4535
894.918	4618
895.04	4527
895.161	4698
895.283	4634
895.405	4580
895.526	4664
895.648	4679
895.769	4656
895.891	4725
896.012	4725
896.134	4679
896.255	4702
896.376	4611
896.498	4637
896.619	4637
896.74	4584
896.861	4691
896.982	4915
897.103	5056
897.224	4809
897.345	4763
897.466	4706
897.587	4698
897.708	4831
897.828	4786
897.949	4634
898.07	4634
898.19	4611
898.311	4843
898.431	4672
898.552	4736
898.672	4809
898.792	4847
898.913	4706
899.033	4637
899.153	4508
899.273	4443
899.393	4497
899.513	4523
899.633	4500
899.753	4523
899.873	4493
899.993	4577
900.113	4500
900.232	4558
900.352	4519
900.472	4500
900.591	4402
900.711	4481
900.83	4417
900.95	4634
901.069	4683
901.189	4554
901.308	4367
901.427	4348
901.546	4398
901.665	4432
901.784	4504
901.904	4398
902.023	4318
902.141	4200
902.26	4173
902.379	4299
902.498	4261
902.617	4139
902.735	4352
902.854	4383
902.973	4344
903.091	4223
903.21	4223
903.328	4295
903.446	4246
903.565	4284
903.683	4325
903.801	4268
903.919	4421
904.038	4440
904.156	4310
904.274	4428
904.392	4417
904.51	4443
904.627	4474
904.745	4596
904.863	4611
904.981	4341
905.098	4268
905.216	4363
905.334	4436
905.451	4459
905.569	4402
905.686	4573
905.803	4538
905.921	4443
906.038	4535
906.155	4481
906.272	4428
906.389	4398
906.506	4356
906.623	4409
906.74	4386
906.857	4272
906.974	4341
907.091	4527
907.208	4675
907.324	4558
907.441	4478
907.557	4337
907.674	4325
907.79	4310
907.907	4398
908.023	4504
908.139	4500
908.256	4466
908.372	4459
908.488	4421
908.604	4394
908.72	4375
908.836	4360
908.952	4356
909.068	4432
909.184	4538
909.3	4481
909.415	4596
909.531	4516
909.647	4322
909.762	4341
909.878	4333
909.993	4436
910.108	4390
910.224	4417
910.339	4497
910.454	4360
910.57	4341
910.685	4303
910.8	4630
910.915	4599
911.03	4500
911.145	4284
911.259	4299
911.374	4341
911.489	4314
911.604	4257
911.718	4204
911.833	4204
911.947	4078
912.062	4048
912.176	4166
912.291	4215
912.405	4238
912.519	4459
912.633	4489
912.748	4390
912.862	4348
912.976	4188
913.09	4090
913.204	4166
913.318	4284
913.431	4386
913.545	4348
913.659	4383
913.772	4379
913.886	4234
914	4215
914.113	4348
914.226	4451
914.34	4383
914.453	4257
914.566	4383
914.68	4291
914.793	4322
914.906	4150
915.019	4139
915.132	4067
915.245	4162
915.358	4211
915.47	4192
915.583	4238
915.696	4287
915.809	4398
915.921	4402
916.034	4238
916.146	4314
916.259	4223
916.371	4421
916.483	4325
916.595	4234
916.708	4299
916.82	4333
916.932	4341
917.044	4325
917.156	4310
917.268	4207
917.38	4265
917.491	4223
917.603	4310
917.715	4398
917.826	4405
917.938	4318
918.049	4211
918.161	4394
918.272	4500
918.384	4523
918.495	4443
918.606	4291
918.717	4246
918.828	4352
918.939	4409
919.05	4249
919.161	4303
919.272	4147
919.383	4215
919.494	4428
919.604	4664
919.715	4455
919.826	4337
919.936	4341
920.047	4538
920.157	4436
920.267	4672
920.378	4546
920.488	4504
920.598	4725
920.708	4923
920.818	4755
920.928	4687
921.038	4961
921.148	4908
921.258	4630
921.368	4554
921.477	4504
921.587	4478
921.697	4284
921.806	4519
921.916	4379
922.025	4261
922.134	4268
922.244	4200
922.353	4303
922.462	4169
922.571	4135
922.68	3987
922.789	4036
922.898	4063
923.007	4021
923.116	4101
923.224	4021
923.333	4074
923.442	3994
923.55	3991
923.659	3972
923.767	4093
923.876	3968
923.984	4112
924.092	3937
924.201	4082
924.309	4086
924.417	4063
924.525	4017
924.633	4067
924.741	5025
924.849	3903
924.956	4128
925.064	3930
925.172	3861
925.279	3937
925.387	4032
925.494	4086
925.602	4162
925.709	4181
925.816	4006
925.924	4078
926.031	4257
926.138	4158
926.245	4169
926.352	4067
926.459	4287
926.566	4268
926.673	4105
926.779	4101
926.886	4071
926.993	3987
927.099	3987
927.206	3968
927.312	3918
927.419	4063
927.525	4055
927.631	4120
927.737	3975
927.843	3903
927.95	3823
928.056	3987
928.162	3972
928.267	4063
928.373	4714
928.479	4101
928.585	3892
928.69	4002
928.796	4112
928.901	3968
929.007	3778
929.112	4010
929.218	3960
929.323	3896
929.428	3941
929.533	4086
929.638	3892
929.743	3941
929.848	4051
929.953	3991
930.058	3911
930.163	3812
930.267	3804
930.372	3994
930.477	3789
930.581	4074
930.685	3991
930.79	3808
930.894	3854
930.998	3827
931.103	4036
931.207	3671
931.311	3713
931.415	3686
931.519	3530
931.623	3542
