Data from test_V78500241_2580.txt Node
Date: Fri Mar 25 17:06:56 CST 2022
User: usil
Spectrometer: V785-0024
Trigger mode: 0
Integration Time (sec): 4.000000E-1
Scans to average: 1
Nonlinearity correction enabled: false
Boxcar width: 0
Storing dark spectrum: false
XAxis mode: Wavelengths
Number of Pixels in Spectrum: 1024
>>>>>Begin Spectral Data<<<<<
801.071	8012
801.214	7989
801.356	7909
801.499	7868
801.641	7830
801.783	7845
801.926	8001
802.068	7906
802.211	7902
802.353	8020
802.496	7906
802.638	7902
802.78	7898
802.923	7906
803.065	7818
803.208	7871
803.35	8005
803.492	8046
803.635	8077
803.777	8065
803.919	8157
804.061	8385
804.204	8187
804.346	8111
804.488	8020
804.63	8153
804.773	7997
804.915	8103
805.057	8309
805.199	8115
805.341	8172
805.483	8263
805.626	8309
805.768	8187
805.91	8172
806.052	8259
806.194	8103
806.336	8355
806.478	8065
806.62	8073
806.762	8172
806.904	8237
807.046	8454
807.188	8400
807.33	8370
807.472	8336
807.614	8126
807.756	8153
807.898	8031
808.04	7925
808.182	7864
808.324	7906
808.465	7921
808.607	8187
808.749	8119
808.891	8202
809.033	8275
809.174	8237
809.316	8077
809.458	8001
809.6	7997
809.741	8058
809.883	8005
810.025	8088
810.166	8111
810.308	7997
810.45	7989
810.591	7845
810.733	7765
810.875	7609
811.016	7540
811.158	7510
811.299	7594
811.441	7700
811.582	7738
811.724	7582
811.865	7548
812.007	7582
812.148	7540
812.29	7643
812.431	7734
812.573	7852
812.714	7955
812.855	8123
812.997	8191
813.138	8393
813.279	8157
813.421	8050
813.562	7986
813.703	7871
813.845	7772
813.986	7464
814.127	7320
814.268	7209
814.41	7179
814.551	7168
814.692	7156
814.833	7126
814.974	7114
815.115	7114
815.256	7019
815.397	6894
815.539	6939
815.68	6814
815.821	6772
815.962	6882
816.103	6852
816.244	6707
816.385	6627
816.526	6650
816.666	6513
816.807	6350
816.948	6483
817.089	6498
817.23	6467
817.371	6414
817.512	6395
817.653	6395
817.793	6395
817.934	6437
818.075	6456
818.216	6414
818.356	6365
818.497	6243
818.638	6106
818.778	6106
818.919	6235
819.06	6148
819.2	6361
819.341	6327
819.481	6346
819.622	6570
819.762	6776
819.903	6730
820.043	6578
820.184	6601
820.324	6597
820.465	6711
820.605	6757
820.746	6669
820.886	6582
821.026	6665
821.167	6715
821.307	6829
821.447	6779
821.588	6734
821.728	6555
821.868	6498
822.008	6342
822.149	6365
822.289	6414
822.429	6201
822.569	6117
822.709	6121
822.849	5958
822.99	5961
823.13	5961
823.27	5950
823.41	5832
823.55	5832
823.69	5779
823.83	5828
823.97	5676
824.11	5505
824.25	5509
824.389	5604
824.529	5646
824.669	5566
824.809	5684
824.949	5665
825.089	5657
825.228	5512
825.368	5391
825.508	5383
825.648	5360
825.787	5379
825.927	5387
826.067	5288
826.206	5277
826.346	5417
826.485	5410
826.625	5444
826.765	5532
826.904	5474
827.044	5296
827.183	5220
827.323	5113
827.462	5288
827.601	5159
827.741	5162
827.88	5216
828.02	5143
828.159	5273
828.298	5318
828.437	5337
828.577	5280
828.716	5448
828.855	5379
828.994	5174
829.134	5113
829.273	5223
829.412	5235
829.551	5136
829.69	5220
829.829	5307
829.968	5429
830.107	5246
830.246	5292
830.385	5223
830.524	5140
830.663	5113
830.802	4995
830.941	4885
831.08	4877
831.219	5029
831.357	4953
831.496	5197
831.635	4923
831.774	4843
831.913	4881
832.051	4755
832.19	4801
832.329	4850
832.467	4694
832.606	4675
832.744	4733
832.883	4733
833.022	4691
833.16	4786
833.299	4828
833.437	4839
833.576	4805
833.714	4824
833.852	4889
833.991	4915
834.129	5010
834.267	4968
834.406	4889
834.544	4949
834.682	5003
834.821	5003
834.959	5208
835.097	5014
835.235	5181
835.373	5090
835.511	5094
835.65	5048
835.788	5067
835.926	4919
836.064	4858
836.202	4885
836.34	5193
836.478	5212
836.615	5132
836.753	5185
836.891	5326
837.029	5265
837.167	5216
837.305	5181
837.443	5109
837.58	5071
837.718	5246
837.856	5212
837.993	5128
838.131	5288
838.269	5231
838.406	5258
838.544	5223
838.681	5018
838.819	5003
838.956	4927
839.094	4911
839.231	4965
839.369	5045
839.506	5402
839.643	5273
839.781	5079
839.918	4949
840.055	5098
840.193	5121
840.33	5109
840.467	5181
840.604	5239
840.742	5364
840.879	5079
841.016	5067
841.153	5140
841.29	5391
841.427	5311
841.564	5299
841.701	5383
841.838	5239
841.975	5220
842.112	5269
842.249	5132
842.385	5147
842.522	5322
842.659	5189
842.796	5143
842.933	5223
843.069	5189
843.206	5166
843.343	5299
843.479	5227
843.616	5246
843.752	5052
843.889	5029
844.025	5208
844.162	4972
844.298	5242
844.435	5102
844.571	5060
844.708	5239
844.844	5315
844.98	5379
845.117	5258
845.253	5132
845.389	5124
845.525	5162
845.661	5162
845.798	5006
845.934	5109
846.07	5075
846.206	5189
846.342	5345
846.478	5166
846.614	5003
846.75	5010
846.886	4946
847.022	5124
847.158	5025
847.294	5018
847.429	5071
847.565	5045
847.701	5311
847.837	4866
847.972	4805
848.108	4972
848.244	4965
848.379	4797
848.515	4733
848.65	4752
848.786	4771
848.921	4767
849.057	4873
849.192	4904
849.328	4896
849.463	4854
849.598	4828
849.734	4774
849.869	4649
850.004	4611
850.14	4626
850.275	4634
850.41	4497
850.545	4561
850.68	4599
850.815	4599
850.95	4603
851.085	4831
851.22	4725
851.355	4672
851.49	4577
851.625	4615
851.76	4622
851.895	4523
852.03	4573
852.165	4675
852.299	4706
852.434	4831
852.569	4763
852.703	4782
852.838	4816
852.973	4885
853.107	4904
853.242	4763
853.376	4656
853.511	4554
853.645	4611
853.78	4767
853.914	4641
854.048	4656
854.183	4611
854.317	4748
854.451	4908
854.585	4683
854.72	4687
854.854	4744
854.988	4618
855.122	4641
855.256	4538
855.39	4721
855.524	4812
855.658	4729
855.792	4702
855.926	4774
856.06	4710
856.194	4797
856.327	4683
856.461	4592
856.595	4660
856.729	4611
856.862	4729
856.996	4679
857.13	4717
857.263	4736
857.397	4782
857.53	4645
857.664	4679
857.797	4763
857.931	4816
858.064	4683
858.197	4725
858.331	4649
858.464	4596
858.597	4512
858.731	4649
858.864	4592
858.997	4550
859.13	4656
859.263	4672
859.396	4714
859.529	4615
859.662	4580
859.795	4558
859.928	4580
860.061	4744
860.194	4828
860.327	4561
860.46	4599
860.592	4717
860.725	4736
860.858	4717
860.99	4588
861.123	4531
861.256	4519
861.388	4596
861.521	5299
861.653	4493
861.786	4451
861.918	4447
862.05	4535
862.183	4554
862.315	4592
862.447	4641
862.58	4569
862.712	4383
862.844	4310
862.976	4497
863.108	4485
863.24	4778
863.372	4333
863.504	4417
863.636	4443
863.768	4497
863.9	4447
864.032	4375
864.164	4390
864.296	4462
864.428	4523
864.559	4527
864.691	4550
864.823	4531
864.954	4508
865.086	4508
865.217	4478
865.349	4405
865.48	4493
865.612	4558
865.743	4641
865.875	4447
866.006	4424
866.137	4462
866.269	4481
866.4	4504
866.531	4394
866.662	4402
866.793	4394
866.924	4459
867.055	4527
867.186	4440
867.317	4424
867.448	4398
867.579	4371
867.71	4424
867.841	4383
867.972	4466
868.103	4443
868.233	4371
868.364	4451
868.495	4447
868.625	4668
868.756	4790
868.886	4527
869.017	4584
869.147	4790
869.278	4816
869.408	4687
869.539	4637
869.669	4706
869.799	4668
869.929	4748
870.06	4744
870.19	4972
870.32	4850
870.45	4927
870.58	5033
870.71	5071
870.84	5071
870.97	4938
871.1	4850
871.23	5159
871.36	5113
871.489	5014
871.619	5121
871.749	5052
871.879	5140
872.008	5136
872.138	5056
872.267	4984
872.397	4877
872.526	4801
872.656	4755
872.785	4801
872.915	4927
873.044	5033
873.173	4904
873.303	4965
873.432	4968
873.561	4934
873.69	4900
873.819	4927
873.948	4911
874.077	4881
874.206	4763
874.335	4820
874.464	4946
874.593	5025
874.722	4984
874.851	5075
874.979	5022
875.108	5060
875.237	4911
875.365	4923
875.494	4946
875.623	5018
875.751	4858
875.88	4919
876.008	4980
876.136	5067
876.265	5197
876.393	5315
876.521	5269
876.65	5208
876.778	5155
876.906	5083
877.034	4999
877.162	5090
877.29	4999
877.418	5060
877.546	5060
877.674	5045
877.802	4999
877.93	5041
878.058	4972
878.185	4873
878.313	4942
878.441	4976
878.568	4831
878.696	4866
878.824	4949
878.951	4980
879.079	5185
879.206	5334
879.333	5140
879.461	4968
879.588	5010
879.715	5105
879.842	5277
879.97	5010
880.097	4774
880.224	4771
880.351	4816
880.478	4873
880.605	4790
880.732	4771
880.859	5090
880.986	4885
881.112	4900
881.239	4801
881.366	4660
881.493	4599
881.619	4596
881.746	4622
881.872	4675
881.999	4672
882.125	4683
882.252	4793
882.378	4786
882.505	4987
882.631	4805
882.757	4641
882.883	4748
883.01	4748
883.136	4691
883.262	4679
883.388	4603
883.514	4790
883.64	4828
883.766	4767
883.892	4679
884.018	4714
884.143	4904
884.269	5033
884.395	4611
884.52	4626
884.646	4630
884.772	4584
884.897	4569
885.023	4645
885.148	4771
885.274	4889
885.399	4824
885.524	4725
885.65	4675
885.775	4748
885.9	4733
886.025	4847
886.15	4774
886.275	4744
886.4	4653
886.525	4694
886.65	4714
886.775	4698
886.9	4923
887.025	5071
887.149	4752
887.274	4664
887.399	4569
887.523	4611
887.648	4584
887.773	4573
887.897	4752
888.021	4786
888.146	4664
888.27	4782
888.395	4934
888.519	4790
888.643	4809
888.767	4858
888.891	4694
889.015	4607
889.139	4660
889.263	4615
889.387	4759
889.511	4854
889.635	4824
889.759	4687
889.883	4630
890.006	4698
890.13	4816
890.254	4603
890.377	4637
890.501	4512
890.624	4500
890.748	4622
890.871	4542
890.995	4363
891.118	4363
891.241	4466
891.364	4538
891.488	4630
891.611	4485
891.734	4554
891.857	4592
891.98	4500
892.103	4618
892.226	4588
892.349	4554
892.471	4409
892.594	4573
892.717	4535
892.839	4542
892.962	4584
893.085	4641
893.207	4577
893.33	4440
893.452	4485
893.575	4660
893.697	4554
893.819	4812
893.941	4816
894.064	4786
894.186	4653
894.308	4512
894.43	4736
894.552	4805
894.674	4744
894.796	4573
894.918	4573
895.04	4569
895.161	4698
895.283	4637
895.405	4527
895.526	4672
895.648	4702
895.769	4698
895.891	4714
896.012	4733
896.134	4683
896.255	4656
896.376	4645
896.498	4641
896.619	4649
896.74	4622
896.861	4683
896.982	4946
897.103	5067
897.224	4854
897.345	4691
897.466	4672
897.587	4733
897.708	4847
897.828	4771
897.949	4672
898.07	4558
898.19	4611
898.311	4793
898.431	4668
898.552	4702
898.672	4790
898.792	4793
898.913	4729
899.033	4588
899.153	4508
899.273	4360
899.393	4466
899.513	4561
899.633	4535
899.753	4542
899.873	4493
899.993	4561
900.113	4519
900.232	4611
900.352	4523
900.472	4481
900.591	4455
900.711	4489
900.83	4409
900.95	4630
901.069	4691
901.189	4573
901.308	4318
901.427	4363
901.546	4375
901.665	4451
901.784	4531
901.904	4421
902.023	4329
902.141	4177
902.26	4131
902.379	4303
902.498	4265
902.617	4234
902.735	4379
902.854	4379
902.973	4348
903.091	4200
903.21	4188
903.328	4272
903.446	4261
903.565	4234
903.683	4352
903.801	4299
903.919	4375
904.038	4443
904.156	4337
904.274	4432
904.392	4344
904.51	4440
904.627	4432
904.745	4592
904.863	4596
904.981	4398
905.098	4287
905.216	4360
905.334	4413
905.451	4459
905.569	4440
905.686	4573
905.803	4527
905.921	4428
906.038	4554
906.155	4459
906.272	4394
906.389	4451
906.506	4390
906.623	4390
906.74	4371
906.857	4295
906.974	4314
907.091	4561
907.208	4675
907.324	4588
907.441	4489
907.557	4337
907.674	4341
907.79	4344
907.907	4383
908.023	4447
908.139	4500
908.256	4421
908.372	4474
908.488	4432
908.604	4413
908.72	4299
908.836	4428
908.952	4329
909.068	4409
909.184	4577
909.3	4459
909.415	4573
909.531	4516
909.647	4386
909.762	4352
909.878	4356
909.993	4466
910.108	4409
910.224	4379
910.339	4470
910.454	4352
910.57	4367
910.685	4303
910.8	4672
910.915	4599
911.03	4447
911.145	4287
911.259	4329
911.374	4390
911.489	4295
911.604	4249
911.718	4211
911.833	4234
911.947	4059
912.062	4067
912.176	4234
912.291	4207
912.405	4219
912.519	4459
912.633	4535
912.748	4398
912.862	4295
912.976	4185
913.09	4090
913.204	4196
913.318	4223
913.431	4409
913.545	4398
913.659	4394
913.772	4394
913.886	4257
914	4261
914.113	4352
914.226	4428
914.34	4371
914.453	4238
914.566	4436
914.68	4287
914.793	4344
914.906	4143
915.019	4128
915.132	4097
915.245	4200
915.358	4219
915.47	4215
915.583	4280
915.696	4306
915.809	4413
915.921	4455
916.034	4287
916.146	4219
916.259	4219
916.371	4352
916.483	4341
916.595	4249
916.708	4325
916.82	4284
916.932	4348
917.044	4322
917.156	4352
917.268	4230
917.38	4257
917.491	4272
917.603	4356
917.715	4462
917.826	4432
917.938	4325
918.049	4280
918.161	4348
918.272	4508
918.384	4565
918.495	4474
918.606	4314
918.717	4204
918.828	4322
918.939	4390
919.05	4272
919.161	4314
919.272	4128
919.383	4238
919.494	4459
919.604	4656
919.715	4405
919.826	4375
919.936	4367
920.047	4504
920.157	4451
920.267	4771
920.378	4523
920.488	4481
920.598	4717
920.708	4866
920.818	4774
920.928	4771
921.038	4900
921.148	4930
921.258	4660
921.368	4592
921.477	4478
921.587	4443
921.697	4348
921.806	4500
921.916	4428
922.025	4257
922.134	4268
922.244	4227
922.353	4310
922.462	4147
922.571	4158
922.68	4025
922.789	3991
922.898	3983
923.007	3964
923.116	4078
923.224	4051
923.333	4090
923.442	4013
923.55	3991
923.659	4017
923.767	4059
923.876	3991
923.984	4158
924.092	4021
924.201	4086
924.309	4093
924.417	4112
924.525	4048
924.633	4131
924.741	5045
924.849	3922
924.956	4147
925.064	3918
925.172	3930
925.279	3930
925.387	4090
925.494	4036
925.602	4230
925.709	4196
925.816	4063
925.924	4116
926.031	4223
926.138	4162
926.245	4219
926.352	4067
926.459	4219
926.566	4295
926.673	4177
926.779	4097
926.886	4090
926.993	3972
927.099	3968
927.206	3915
927.312	3968
927.419	4013
927.525	4025
927.631	4101
927.737	3949
927.843	3945
927.95	3808
928.056	3937
928.162	3983
928.267	4021
928.373	4573
928.479	4116
928.585	3835
928.69	4063
928.796	4112
928.901	3964
929.007	3835
929.112	4010
929.218	3994
929.323	3907
929.428	3949
929.533	4120
929.638	3869
929.743	3964
929.848	4097
929.953	4013
930.058	3960
930.163	3789
930.267	3835
930.372	3994
930.477	3793
930.581	4048
930.685	3918
930.79	3819
930.894	3861
930.998	3842
931.103	4055
931.207	3701
931.311	3679
931.415	3667
931.519	3519
931.623	3584
