Data from test_V78500241_1044.txt Node
Date: Fri Mar 25 16:56:15 CST 2022
User: usil
Spectrometer: V785-0024
Trigger mode: 0
Integration Time (sec): 4.000000E-1
Scans to average: 1
Nonlinearity correction enabled: false
Boxcar width: 0
Storing dark spectrum: false
XAxis mode: Wavelengths
Number of Pixels in Spectrum: 1024
>>>>>Begin Spectral Data<<<<<
801.071	8054
801.214	8081
801.356	7902
801.499	7830
801.641	7894
801.783	7784
801.926	7917
802.068	7909
802.211	7887
802.353	7986
802.496	7822
802.638	7818
802.78	7955
802.923	7947
803.065	7852
803.208	7868
803.35	8024
803.492	8134
803.635	8142
803.777	8065
803.919	8145
804.061	8412
804.204	8107
804.346	8084
804.488	7989
804.63	8153
804.773	8054
804.915	8065
805.057	8309
805.199	8202
805.341	8218
805.483	8252
805.626	8290
805.768	8149
805.91	8237
806.052	8191
806.194	8031
806.336	8279
806.478	8123
806.62	8058
806.762	8081
806.904	8256
807.046	8431
807.188	8358
807.33	8328
807.472	8351
807.614	8134
807.756	8100
807.898	7970
808.04	7944
808.182	7947
808.324	7841
808.465	7967
808.607	8115
808.749	8039
808.891	8202
809.033	8259
809.174	8157
809.316	8035
809.458	8005
809.6	7963
809.741	8001
809.883	8031
810.025	8088
810.166	8050
810.308	8024
810.45	7986
810.591	7826
810.733	7753
810.875	7643
811.016	7502
811.158	7434
811.299	7632
811.441	7704
811.582	7613
811.724	7540
811.865	7571
812.007	7556
812.148	7567
812.29	7670
812.431	7742
812.573	7879
812.714	8031
812.855	8111
812.997	8142
813.138	8256
813.279	8164
813.421	8077
813.562	8008
813.703	7826
813.845	7746
813.986	7453
814.127	7278
814.268	7232
814.41	7179
814.551	7156
814.692	7171
814.833	7019
814.974	7091
815.115	7141
815.256	6966
815.397	6901
815.539	6973
815.68	6833
815.821	6783
815.962	6802
816.103	6798
816.244	6700
816.385	6654
816.526	6620
816.666	6486
816.807	6357
816.948	6490
817.089	6517
817.23	6460
817.371	6391
817.512	6407
817.653	6418
817.793	6414
817.934	6464
818.075	6452
818.216	6407
818.356	6365
818.497	6190
818.638	6152
818.778	6148
818.919	6136
819.06	6171
819.2	6338
819.341	6315
819.481	6380
819.622	6490
819.762	6730
819.903	6673
820.043	6582
820.184	6486
820.324	6597
820.465	6669
820.605	6620
820.746	6578
820.886	6479
821.026	6639
821.167	6684
821.307	6749
821.447	6745
821.588	6696
821.728	6559
821.868	6506
822.008	6216
822.149	6395
822.289	6372
822.429	6129
822.569	6072
822.709	6064
822.849	5912
822.99	5912
823.13	5904
823.27	5927
823.41	5786
823.55	5737
823.69	5775
823.83	5798
823.97	5676
824.11	5532
824.25	5474
824.389	5532
824.529	5566
824.669	5551
824.809	5642
824.949	5688
825.089	5558
825.228	5505
825.368	5406
825.508	5307
825.648	5334
825.787	5368
825.927	5421
826.067	5357
826.206	5303
826.346	5372
826.485	5425
826.625	5368
826.765	5570
826.904	5486
827.044	5284
827.183	5193
827.323	5155
827.462	5201
827.601	5132
827.741	5197
827.88	5235
828.02	5105
828.159	5193
828.298	5284
828.437	5349
828.577	5277
828.716	5440
828.855	5315
828.994	5185
829.134	5147
829.273	5174
829.412	5124
829.551	5090
829.69	5105
829.829	5288
829.968	5368
830.107	5345
830.246	5254
830.385	5201
830.524	5121
830.663	5033
830.802	4991
830.941	4919
831.08	4881
831.219	4972
831.357	4987
831.496	5159
831.635	4889
831.774	4904
831.913	4866
832.051	4717
832.19	4729
832.329	4793
832.467	4744
832.606	4611
832.744	4721
832.883	4694
833.022	4672
833.16	4774
833.299	4778
833.437	4774
833.576	4805
833.714	4805
833.852	4797
833.991	4930
834.129	4965
834.267	4976
834.406	4854
834.544	4968
834.682	4968
834.821	4976
834.959	5159
835.097	4984
835.235	5090
835.373	5064
835.511	5136
835.65	5029
835.788	4991
835.926	4919
836.064	4870
836.202	4885
836.34	5189
836.478	5239
836.615	5109
836.753	5193
836.891	5311
837.029	5231
837.167	5181
837.305	5151
837.443	5155
837.58	5056
837.718	5292
837.856	5204
837.993	5170
838.131	5239
838.269	5201
838.406	5174
838.544	5159
838.681	5029
838.819	4965
838.956	4858
839.094	4927
839.231	4953
839.369	5048
839.506	5357
839.643	5258
839.781	5052
839.918	4987
840.055	5041
840.193	5052
840.33	5083
840.467	5136
840.604	5193
840.742	5482
840.879	5105
841.016	5033
841.153	5147
841.29	5315
841.427	5368
841.564	5330
841.701	5326
841.838	5284
841.975	5193
842.112	5246
842.249	5121
842.385	5056
842.522	5311
842.659	5109
842.796	5121
842.933	5193
843.069	5102
843.206	5193
843.343	5231
843.479	5250
843.616	5280
843.752	5014
843.889	4972
844.025	5204
844.162	5037
844.298	5220
844.435	5075
844.571	4999
844.708	5208
844.844	5277
844.98	5334
845.117	5235
845.253	5052
845.389	5083
845.525	5117
845.661	5121
845.798	4987
845.934	5102
846.07	5033
846.206	5166
846.342	5254
846.478	5197
846.614	5048
846.75	4938
846.886	4892
847.022	5105
847.158	5045
847.294	5045
847.429	5109
847.565	5033
847.701	5288
847.837	4805
847.972	4752
848.108	4976
848.244	4919
848.379	4835
848.515	4721
848.65	4725
848.786	4755
848.921	4774
849.057	4847
849.192	4866
849.328	4790
849.463	4843
849.598	4805
849.734	4767
849.869	4706
850.004	4603
850.14	4641
850.275	4611
850.41	4527
850.545	4531
850.68	4577
850.815	4615
850.95	4615
851.085	4831
851.22	4744
851.355	4660
851.49	4592
851.625	4554
851.76	4615
851.895	4508
852.03	4565
852.165	4618
852.299	4698
852.434	4759
852.569	4733
852.703	4767
852.838	4847
852.973	4961
853.107	4889
853.242	4748
853.376	4664
853.511	4485
853.645	4599
853.78	4786
853.914	4683
854.048	4656
854.183	4660
854.317	4691
854.451	4850
854.585	4656
854.72	4630
854.854	4733
854.988	4527
855.122	4618
855.256	4462
855.39	4694
855.524	4721
855.658	4675
855.792	4653
855.926	4714
856.06	4706
856.194	4790
856.327	4672
856.461	4573
856.595	4592
856.729	4622
856.862	4752
856.996	4710
857.13	4691
857.263	4778
857.397	4797
857.53	4626
857.664	4725
857.797	4771
857.931	4763
858.064	4687
858.197	4736
858.331	4634
858.464	4626
858.597	4500
858.731	4615
858.864	4580
858.997	4569
859.13	4672
859.263	4626
859.396	4672
859.529	4584
859.662	4630
859.795	4516
859.928	4641
860.061	4782
860.194	4714
860.327	4592
860.46	4542
860.592	4702
860.725	4694
860.858	4706
860.99	4554
861.123	4497
861.256	4516
861.388	4588
861.521	5292
861.653	4466
861.786	4428
861.918	4436
862.05	4531
862.183	4550
862.315	4561
862.447	4641
862.58	4542
862.712	4379
862.844	4291
862.976	4451
863.108	4478
863.24	4896
863.372	4329
863.504	4405
863.636	4432
863.768	4485
863.9	4417
864.032	4348
864.164	4398
864.296	4455
864.428	4527
864.559	4523
864.691	4546
864.823	4493
864.954	4519
865.086	4481
865.217	4447
865.349	4371
865.48	4474
865.612	4470
865.743	4561
865.875	4447
866.006	4424
866.137	4466
866.269	4447
866.4	4462
866.531	4436
866.662	4398
866.793	4383
866.924	4417
867.055	4470
867.186	4455
867.317	4367
867.448	4337
867.579	4371
867.71	4386
867.841	4352
867.972	4405
868.103	4462
868.233	4440
868.364	4459
868.495	4451
868.625	4626
868.756	4717
868.886	4588
869.017	4622
869.147	4763
869.278	4740
869.408	4664
869.539	4622
869.669	4691
869.799	4611
869.929	4721
870.06	4725
870.19	4968
870.32	4915
870.45	4942
870.58	5029
870.71	5113
870.84	5041
870.97	4949
871.1	4839
871.23	5124
871.36	5086
871.489	4953
871.619	5067
871.749	5109
871.879	5140
872.008	5166
872.138	5071
872.267	4976
872.397	4793
872.526	4778
872.656	4698
872.785	4782
872.915	4961
873.044	5060
873.173	4934
873.303	4942
873.432	4984
873.561	4938
873.69	4850
873.819	4889
873.948	4911
874.077	4782
874.206	4771
874.335	4774
874.464	4911
874.593	5132
874.722	4965
874.851	5086
874.979	5075
875.108	5010
875.237	4885
875.365	4850
875.494	4892
875.623	4984
875.751	4812
875.88	4881
876.008	4957
876.136	5010
876.265	5159
876.393	5345
876.521	5235
876.65	5216
876.778	5162
876.906	5109
877.034	5010
877.162	5048
877.29	4987
877.418	5018
877.546	5048
877.674	4995
877.802	4999
877.93	5006
878.058	4904
878.185	4862
878.313	4949
878.441	4961
878.568	4748
878.696	4847
878.824	4991
878.951	5014
879.079	5109
879.206	5292
879.333	5052
879.461	4946
879.588	4991
879.715	5094
879.842	5162
879.97	4976
880.097	4797
880.224	4778
880.351	4812
880.478	4774
880.605	4809
880.732	4767
880.859	5090
880.986	4877
881.112	4904
881.239	4805
881.366	4668
881.493	4580
881.619	4592
881.746	4626
881.872	4645
881.999	4694
882.125	4660
882.252	4752
882.378	4793
882.505	4896
882.631	4820
882.757	4698
882.883	4710
883.01	4733
883.136	4656
883.262	4599
883.388	4599
883.514	4793
883.64	4809
883.766	4767
883.892	4634
884.018	4729
884.143	4904
884.269	5029
884.395	4653
884.52	4592
884.646	4656
884.772	4531
884.897	4596
885.023	4660
885.148	4721
885.274	4858
885.399	4767
885.524	4694
885.65	4729
885.775	4725
885.9	4721
886.025	4839
886.15	4778
886.275	4698
886.4	4675
886.525	4721
886.65	4664
886.775	4694
886.9	4908
887.025	5010
887.149	4835
887.274	4615
887.399	4580
887.523	4592
887.648	4550
887.773	4577
887.897	4752
888.021	4767
888.146	4611
888.27	4805
888.395	4908
888.519	4767
888.643	4824
888.767	4805
888.891	4683
889.015	4596
889.139	4634
889.263	4550
889.387	4797
889.511	4854
889.635	4805
889.759	4630
889.883	4683
890.006	4725
890.13	4835
890.254	4611
890.377	4664
890.501	4516
890.624	4538
890.748	4641
890.871	4493
890.995	4417
891.118	4371
891.241	4538
891.364	4523
891.488	4592
891.611	4459
891.734	4561
891.857	4615
891.98	4546
892.103	4596
892.226	4580
892.349	4459
892.471	4363
892.594	4519
892.717	4550
892.839	4603
892.962	4603
893.085	4668
893.207	4580
893.33	4478
893.452	4546
893.575	4660
893.697	4558
893.819	4725
893.941	4816
894.064	4710
894.186	4569
894.308	4527
894.43	4717
894.552	4847
894.674	4714
894.796	4565
894.918	4603
895.04	4542
895.161	4672
895.283	4618
895.405	4561
895.526	4641
895.648	4672
895.769	4668
895.891	4698
896.012	4721
896.134	4710
896.255	4683
896.376	4588
896.498	4630
896.619	4694
896.74	4577
896.861	4653
896.982	4904
897.103	5006
897.224	4831
897.345	4736
897.466	4637
897.587	4729
897.708	4870
897.828	4755
897.949	4656
898.07	4561
898.19	4611
898.311	4881
898.431	4656
898.552	4717
898.672	4805
898.792	4790
898.913	4721
899.033	4550
899.153	4527
899.273	4432
899.393	4470
899.513	4504
899.633	4527
899.753	4535
899.873	4519
899.993	4565
900.113	4538
900.232	4573
900.352	4504
900.472	4493
900.591	4363
900.711	4466
900.83	4443
900.95	4554
901.069	4656
901.189	4588
901.308	4386
901.427	4341
901.546	4337
901.665	4497
901.784	4546
901.904	4348
902.023	4318
902.141	4185
902.26	4185
902.379	4284
902.498	4265
902.617	4196
902.735	4329
902.854	4390
902.973	4360
903.091	4196
903.21	4177
903.328	4284
903.446	4230
903.565	4246
903.683	4375
903.801	4261
903.919	4356
904.038	4379
904.156	4337
904.274	4417
904.392	4383
904.51	4390
904.627	4440
904.745	4615
904.863	4637
904.981	4352
905.098	4280
905.216	4371
905.334	4451
905.451	4428
905.569	4402
905.686	4546
905.803	4554
905.921	4432
906.038	4535
906.155	4462
906.272	4390
906.389	4489
906.506	4341
906.623	4386
906.74	4352
906.857	4299
906.974	4394
907.091	4592
907.208	4672
907.324	4580
907.441	4481
907.557	4318
907.674	4344
907.79	4310
907.907	4390
908.023	4432
908.139	4470
908.256	4421
908.372	4504
908.488	4485
908.604	4367
908.72	4375
908.836	4375
908.952	4333
909.068	4485
909.184	4577
909.3	4455
909.415	4580
909.531	4580
909.647	4352
909.762	4371
909.878	4310
909.993	4402
910.108	4402
910.224	4363
910.339	4462
910.454	4405
910.57	4386
910.685	4295
910.8	4630
910.915	4588
911.03	4466
911.145	4314
911.259	4375
911.374	4322
911.489	4242
911.604	4265
911.718	4143
911.833	4166
911.947	4071
912.062	4059
912.176	4207
912.291	4204
912.405	4257
912.519	4432
912.633	4504
912.748	4390
912.862	4306
912.976	4207
913.09	4112
913.204	4169
913.318	4249
913.431	4363
913.545	4375
913.659	4459
913.772	4363
913.886	4261
914	4211
914.113	4337
914.226	4436
914.34	4402
914.453	4299
914.566	4386
914.68	4329
914.793	4306
914.906	4162
915.019	4131
915.132	4059
915.245	4147
915.358	4211
915.47	4234
915.583	4276
915.696	4249
915.809	4402
915.921	4417
916.034	4185
916.146	4265
916.259	4204
916.371	4360
916.483	4284
916.595	4329
916.708	4341
916.82	4306
916.932	4318
917.044	4344
917.156	4375
917.268	4238
917.38	4249
917.491	4257
917.603	4310
917.715	4394
917.826	4466
917.938	4310
918.049	4257
918.161	4394
918.272	4523
918.384	4493
918.495	4462
918.606	4291
918.717	4177
918.828	4303
918.939	4333
919.05	4249
919.161	4322
919.272	4101
919.383	4192
919.494	4481
919.604	4649
919.715	4447
919.826	4341
919.936	4428
920.047	4481
920.157	4512
920.267	4694
920.378	4554
920.488	4523
920.598	4664
920.708	4900
920.818	4763
920.928	4767
921.038	4961
921.148	4862
921.258	4596
921.368	4558
921.477	4485
921.587	4443
921.697	4379
921.806	4481
921.916	4402
922.025	4230
922.134	4265
922.244	4204
922.353	4325
922.462	4169
922.571	4131
922.68	4010
922.789	3960
922.898	4032
923.007	4002
923.116	4074
923.224	4082
923.333	4078
923.442	3968
923.55	3949
923.659	4010
923.767	4090
923.876	4025
923.984	4147
924.092	3941
924.201	4067
924.309	4082
924.417	4124
924.525	4025
924.633	4105
924.741	5056
924.849	3945
924.956	4120
925.064	3930
925.172	3896
925.279	3922
925.387	4025
925.494	4025
925.602	4238
925.709	4162
925.816	4021
925.924	4131
926.031	4192
926.138	4192
926.245	4185
926.352	4093
926.459	4280
926.566	4280
926.673	4147
926.779	4082
926.886	4063
926.993	3972
927.099	3956
927.206	3934
927.312	3956
927.419	4021
927.525	4002
927.631	4105
927.737	3979
927.843	3911
927.95	3831
928.056	3949
928.162	3960
928.267	4059
928.373	4641
928.479	4101
928.585	3873
928.69	4021
928.796	4029
928.901	3975
929.007	3835
929.112	3991
929.218	3983
929.323	3949
929.428	3918
929.533	4131
929.638	3903
929.743	3968
929.848	4040
929.953	3964
930.058	3949
930.163	3759
930.267	3793
930.372	3941
930.477	3835
930.581	4116
930.685	3934
930.79	3831
930.894	3884
930.998	3831
931.103	4025
931.207	3720
931.311	3709
931.415	3648
931.519	3530
931.623	3530
