Data from test_V78500241_1390.txt Node
Date: Fri Mar 25 16:58:39 CST 2022
User: usil
Spectrometer: V785-0024
Trigger mode: 0
Integration Time (sec): 4.000000E-1
Scans to average: 1
Nonlinearity correction enabled: false
Boxcar width: 0
Storing dark spectrum: false
XAxis mode: Wavelengths
Number of Pixels in Spectrum: 1024
>>>>>Begin Spectral Data<<<<<
801.071	7989
801.214	8031
801.356	7913
801.499	7811
801.641	7727
801.783	7772
801.926	7906
802.068	7951
802.211	7989
802.353	7963
802.496	7879
802.638	7879
802.78	7849
802.923	7917
803.065	7944
803.208	7864
803.35	7928
803.492	8020
803.635	8172
803.777	8012
803.919	8081
804.061	8442
804.204	8161
804.346	8031
804.488	7986
804.63	8054
804.773	8065
804.915	8149
805.057	8290
805.199	8157
805.341	8237
805.483	8248
805.626	8172
805.768	8107
805.91	8195
806.052	8229
806.194	8073
806.336	8244
806.478	8069
806.62	7997
806.762	8240
806.904	8259
807.046	8461
807.188	8396
807.33	8317
807.472	8313
807.614	8084
807.756	8039
807.898	7974
808.04	7898
808.182	7860
808.324	7875
808.465	7917
808.607	8065
808.749	8187
808.891	8187
809.033	8313
809.174	8187
809.316	8039
809.458	8043
809.6	7997
809.741	8100
809.883	8046
810.025	8092
810.166	8119
810.308	8054
810.45	8050
810.591	7909
810.733	7761
810.875	7639
811.016	7578
811.158	7506
811.299	7544
811.441	7757
811.582	7719
811.724	7563
811.865	7529
812.007	7544
812.148	7624
812.29	7582
812.431	7765
812.573	7875
812.714	7959
812.855	8103
812.997	8191
813.138	8259
813.279	8195
813.421	8126
813.562	8024
813.703	7803
813.845	7746
813.986	7400
814.127	7240
814.268	7217
814.41	7194
814.551	7171
814.692	7129
814.833	7053
814.974	7107
815.115	7038
815.256	6905
815.397	6928
815.539	6981
815.68	6916
815.821	6772
815.962	6878
816.103	6795
816.244	6757
816.385	6608
816.526	6597
816.666	6483
816.807	6289
816.948	6410
817.089	6414
817.23	6467
817.371	6403
817.512	6399
817.653	6407
817.793	6296
817.934	6429
818.075	6464
818.216	6376
818.356	6418
818.497	6213
818.638	6121
818.778	6133
818.919	6178
819.06	6140
819.2	6285
819.341	6327
819.481	6361
819.622	6483
819.762	6665
819.903	6688
820.043	6593
820.184	6612
820.324	6566
820.465	6681
820.605	6673
820.746	6593
820.886	6471
821.026	6612
821.167	6631
821.307	6730
821.447	6734
821.588	6715
821.728	6574
821.868	6486
822.008	6323
822.149	6369
822.289	6357
822.429	6117
822.569	6053
822.709	6091
822.849	5904
822.99	5874
823.13	5973
823.27	5870
823.41	5764
823.55	5729
823.69	5786
823.83	5779
823.97	5672
824.11	5501
824.25	5497
824.389	5512
824.529	5592
824.669	5471
824.809	5680
824.949	5638
825.089	5585
825.228	5497
825.368	5368
825.508	5299
825.648	5360
825.787	5391
825.927	5391
826.067	5315
826.206	5261
826.346	5311
826.485	5410
826.625	5402
826.765	5482
826.904	5455
827.044	5235
827.183	5178
827.323	5147
827.462	5208
827.601	5124
827.741	5212
827.88	5204
828.02	5132
828.159	5220
828.298	5250
828.437	5349
828.577	5261
828.716	5497
828.855	5322
828.994	5162
829.134	5117
829.273	5151
829.412	5113
829.551	5128
829.69	5185
829.829	5235
829.968	5379
830.107	5292
830.246	5280
830.385	5147
830.524	5132
830.663	5018
830.802	4968
830.941	4885
831.08	4843
831.219	4961
831.357	4908
831.496	5143
831.635	4919
831.774	4812
831.913	4805
832.051	4702
832.19	4740
832.329	4835
832.467	4752
832.606	4622
832.744	4733
832.883	4706
833.022	4691
833.16	4778
833.299	4793
833.437	4835
833.576	4870
833.714	4850
833.852	4862
833.991	4820
834.129	4976
834.267	4915
834.406	4904
834.544	4919
834.682	4991
834.821	4946
834.959	5117
835.097	4961
835.235	5136
835.373	5056
835.511	5124
835.65	5029
835.788	5006
835.926	4949
836.064	4873
836.202	4881
836.34	5140
836.478	5216
836.615	5132
836.753	5193
836.891	5280
837.029	5242
837.167	5166
837.305	5166
837.443	5155
837.58	5117
837.718	5273
837.856	5189
837.993	5166
838.131	5220
838.269	5201
838.406	5166
838.544	5235
838.681	5033
838.819	5014
838.956	4866
839.094	4896
839.231	4976
839.369	5071
839.506	5345
839.643	5273
839.781	5079
839.918	5006
840.055	5086
840.193	5056
840.33	5086
840.467	5121
840.604	5181
840.742	5452
840.879	5083
841.016	5083
841.153	5143
841.29	5307
841.427	5322
841.564	5292
841.701	5357
841.838	5239
841.975	5254
842.112	5261
842.249	5090
842.385	5067
842.522	5315
842.659	5174
842.796	5124
842.933	5231
843.069	5102
843.206	5159
843.343	5303
843.479	5208
843.616	5204
843.752	5010
843.889	4972
844.025	5197
844.162	5052
844.298	5201
844.435	5048
844.571	5018
844.708	5136
844.844	5296
844.98	5322
845.117	5280
845.253	5159
845.389	5075
845.525	5201
845.661	5083
845.798	4972
845.934	5067
846.07	5064
846.206	5147
846.342	5265
846.478	5132
846.614	5029
846.75	5010
846.886	4919
847.022	5128
847.158	5003
847.294	5014
847.429	5094
847.565	5048
847.701	5292
847.837	4809
847.972	4809
848.108	4908
848.244	4911
848.379	4809
848.515	4793
848.65	4717
848.786	4752
848.921	4767
849.057	4847
849.192	4873
849.328	4786
849.463	4782
849.598	4790
849.734	4740
849.869	4694
850.004	4580
850.14	4641
850.275	4599
850.41	4500
850.545	4554
850.68	4588
850.815	4649
850.95	4584
851.085	4831
851.22	4717
851.355	4653
851.49	4603
851.625	4664
851.76	4618
851.895	4573
852.03	4500
852.165	4630
852.299	4736
852.434	4759
852.569	4729
852.703	4782
852.838	4828
852.973	4915
853.107	4930
853.242	4683
853.376	4687
853.511	4561
853.645	4618
853.78	4831
853.914	4630
854.048	4615
854.183	4592
854.317	4679
854.451	4797
854.585	4675
854.72	4664
854.854	4755
854.988	4554
855.122	4637
855.256	4516
855.39	4596
855.524	4782
855.658	4717
855.792	4675
855.926	4706
856.06	4782
856.194	4850
856.327	4660
856.461	4596
856.595	4584
856.729	4603
856.862	4710
856.996	4672
857.13	4660
857.263	4778
857.397	4736
857.53	4596
857.664	4721
857.797	4691
857.931	4748
858.064	4668
858.197	4702
858.331	4641
858.464	4592
858.597	4489
858.731	4611
858.864	4637
858.997	4565
859.13	4664
859.263	4660
859.396	4641
859.529	4611
859.662	4573
859.795	4504
859.928	4653
860.061	4740
860.194	4782
860.327	4611
860.46	4618
860.592	4668
860.725	4679
860.858	4694
860.99	4603
861.123	4535
861.256	4535
861.388	4607
861.521	5368
861.653	4462
861.786	4443
861.918	4462
862.05	4474
862.183	4535
862.315	4584
862.447	4626
862.58	4573
862.712	4383
862.844	4337
862.976	4493
863.108	4459
863.24	4847
863.372	4341
863.504	4398
863.636	4383
863.768	4489
863.9	4459
864.032	4352
864.164	4390
864.296	4432
864.428	4565
864.559	4550
864.691	4508
864.823	4519
864.954	4500
865.086	4538
865.217	4428
865.349	4379
865.48	4466
865.612	4462
865.743	4637
865.875	4455
866.006	4417
866.137	4440
866.269	4436
866.4	4402
866.531	4386
866.662	4386
866.793	4428
866.924	4432
867.055	4519
867.186	4459
867.317	4432
867.448	4386
867.579	4344
867.71	4348
867.841	4375
867.972	4451
868.103	4421
868.233	4440
868.364	4493
868.495	4436
868.625	4691
868.756	4740
868.886	4599
869.017	4599
869.147	4736
869.278	4767
869.408	4641
869.539	4641
869.669	4725
869.799	4618
869.929	4729
870.06	4710
870.19	4930
870.32	4904
870.45	4953
870.58	5029
870.71	5094
870.84	5102
870.97	4965
871.1	4881
871.23	5117
871.36	5086
871.489	5022
871.619	5140
871.749	5045
871.879	5090
872.008	5128
872.138	5071
872.267	4942
872.397	4793
872.526	4816
872.656	4706
872.785	4809
872.915	4911
873.044	5014
873.173	4949
873.303	4957
873.432	4965
873.561	4911
873.69	4862
873.819	4889
873.948	4889
874.077	4843
874.206	4698
874.335	4793
874.464	4919
874.593	5075
874.722	4911
874.851	5071
874.979	5067
875.108	4957
875.237	4892
875.365	4866
875.494	4858
875.623	4934
875.751	4820
875.88	4915
876.008	4961
876.136	5022
876.265	5181
876.393	5284
876.521	5231
876.65	5235
876.778	5166
876.906	5045
877.034	4972
877.162	5010
877.29	4953
877.418	5048
877.546	5033
877.674	5022
877.802	5033
877.93	5033
878.058	4942
878.185	4843
878.313	4999
878.441	4938
878.568	4767
878.696	4870
878.824	4915
878.951	4938
879.079	5151
879.206	5296
879.333	5094
879.461	4980
879.588	5006
879.715	5086
879.842	5189
879.97	4976
880.097	4729
880.224	4656
880.351	4812
880.478	4805
880.605	4831
880.732	4812
880.859	5098
880.986	4927
881.112	4900
881.239	4786
881.366	4653
881.493	4622
881.619	4519
881.746	4618
881.872	4626
881.999	4622
882.125	4641
882.252	4774
882.378	4778
882.505	4980
882.631	4725
882.757	4675
882.883	4729
883.01	4729
883.136	4668
883.262	4611
883.388	4607
883.514	4812
883.64	4858
883.766	4828
883.892	4668
884.018	4733
884.143	4915
884.269	5018
884.395	4717
884.52	4596
884.646	4660
884.772	4637
884.897	4519
885.023	4660
885.148	4797
885.274	4854
885.399	4809
885.524	4698
885.65	4744
885.775	4694
885.9	4698
886.025	4816
886.15	4786
886.275	4714
886.4	4592
886.525	4672
886.65	4679
886.775	4645
886.9	4873
887.025	5014
887.149	4820
887.274	4668
887.399	4580
887.523	4558
887.648	4535
887.773	4558
887.897	4710
888.021	4725
888.146	4668
888.27	4828
888.395	4854
888.519	4824
888.643	4850
888.767	4797
888.891	4698
889.015	4626
889.139	4683
889.263	4577
889.387	4759
889.511	4812
889.635	4744
889.759	4641
889.883	4588
890.006	4797
890.13	4748
890.254	4618
890.377	4687
890.501	4504
890.624	4489
890.748	4615
890.871	4466
890.995	4402
891.118	4394
891.241	4527
891.364	4542
891.488	4637
891.611	4527
891.734	4538
891.857	4596
891.98	4531
892.103	4611
892.226	4558
892.349	4489
892.471	4390
892.594	4478
892.717	4603
892.839	4558
892.962	4603
893.085	4611
893.207	4516
893.33	4436
893.452	4512
893.575	4618
893.697	4558
893.819	4740
893.941	4816
894.064	4790
894.186	4596
894.308	4561
894.43	4694
894.552	4805
894.674	4717
894.796	4550
894.918	4542
895.04	4542
895.161	4702
895.283	4698
895.405	4561
895.526	4626
895.648	4721
895.769	4656
895.891	4717
896.012	4767
896.134	4744
896.255	4645
896.376	4634
896.498	4630
896.619	4698
896.74	4565
896.861	4645
896.982	4927
897.103	5037
897.224	4873
897.345	4748
897.466	4691
897.587	4752
897.708	4839
897.828	4771
897.949	4630
898.07	4561
898.19	4618
898.311	4816
898.431	4641
898.552	4714
898.672	4771
898.792	4782
898.913	4725
899.033	4649
899.153	4519
899.273	4436
899.393	4523
899.513	4485
899.633	4493
899.753	4512
899.873	4542
899.993	4588
900.113	4535
900.232	4592
900.352	4500
900.472	4500
900.591	4386
900.711	4478
900.83	4428
900.95	4588
901.069	4675
901.189	4554
901.308	4360
901.427	4253
901.546	4352
901.665	4424
901.784	4462
901.904	4371
902.023	4303
902.141	4192
902.26	4177
902.379	4291
902.498	4272
902.617	4306
902.735	4371
902.854	4413
902.973	4375
903.091	4207
903.21	4219
903.328	4284
903.446	4257
903.565	4284
903.683	4322
903.801	4295
903.919	4386
904.038	4481
904.156	4280
904.274	4485
904.392	4443
904.51	4409
904.627	4493
904.745	4603
904.863	4660
904.981	4383
905.098	4314
905.216	4371
905.334	4390
905.451	4436
905.569	4379
905.686	4550
905.803	4565
905.921	4443
906.038	4596
906.155	4455
906.272	4390
906.389	4443
906.506	4344
906.623	4402
906.74	4348
906.857	4291
906.974	4333
907.091	4554
907.208	4653
907.324	4596
907.441	4493
907.557	4333
907.674	4318
907.79	4291
907.907	4352
908.023	4447
908.139	4424
908.256	4436
908.372	4466
908.488	4447
908.604	4398
908.72	4291
908.836	4386
908.952	4352
909.068	4421
909.184	4542
909.3	4489
909.415	4580
909.531	4573
909.647	4386
909.762	4341
909.878	4356
909.993	4466
910.108	4413
910.224	4451
910.339	4459
910.454	4383
910.57	4333
910.685	4284
910.8	4634
910.915	4596
911.03	4481
911.145	4322
911.259	4348
911.374	4375
911.489	4314
911.604	4257
911.718	4177
911.833	4177
911.947	4082
912.062	4006
912.176	4211
912.291	4246
912.405	4230
912.519	4421
912.633	4546
912.748	4363
912.862	4249
912.976	4200
913.09	4078
913.204	4177
913.318	4223
913.431	4337
913.545	4398
913.659	4428
913.772	4352
913.886	4223
914	4166
914.113	4398
914.226	4424
914.34	4383
914.453	4272
914.566	4367
914.68	4299
914.793	4306
914.906	4124
915.019	4147
915.132	4074
915.245	4173
915.358	4188
915.47	4188
915.583	4265
915.696	4295
915.809	4394
915.921	4390
916.034	4238
916.146	4227
916.259	4230
916.371	4375
916.483	4344
916.595	4268
916.708	4337
916.82	4314
916.932	4318
917.044	4329
917.156	4314
917.268	4246
917.38	4268
917.491	4246
917.603	4329
917.715	4386
917.826	4485
917.938	4352
918.049	4280
918.161	4405
918.272	4493
918.384	4466
918.495	4428
918.606	4306
918.717	4238
918.828	4310
918.939	4417
919.05	4234
919.161	4329
919.272	4086
919.383	4257
919.494	4474
919.604	4603
919.715	4428
919.826	4333
919.936	4386
920.047	4512
920.157	4474
920.267	4668
920.378	4497
920.488	4523
920.598	4675
920.708	4911
920.818	4729
920.928	4755
921.038	4919
921.148	4904
921.258	4645
921.368	4527
921.477	4436
921.587	4497
921.697	4344
921.806	4481
921.916	4390
922.025	4261
922.134	4318
922.244	4207
922.353	4299
922.462	4139
922.571	4154
922.68	4021
922.789	3922
922.898	3991
923.007	4017
923.116	4071
923.224	4090
923.333	4044
923.442	3964
923.55	3975
923.659	4002
923.767	4109
923.876	4032
923.984	4150
924.092	4025
924.201	4131
924.309	4120
924.417	4071
924.525	4051
924.633	4040
924.741	5048
924.849	3926
924.956	4101
925.064	3991
925.172	3941
925.279	3945
925.387	4013
925.494	4067
925.602	4253
925.709	4135
925.816	4067
925.924	4139
926.031	4196
926.138	4128
926.245	4188
926.352	4131
926.459	4246
926.566	4303
926.673	4173
926.779	4063
926.886	4059
926.993	3987
927.099	3968
927.206	3941
927.312	3979
927.419	4051
927.525	4063
927.631	4097
927.737	3983
927.843	3949
927.95	3857
928.056	3953
928.162	3953
928.267	4078
928.373	4672
928.479	4086
928.585	3884
928.69	4063
928.796	4082
928.901	3979
929.007	3816
929.112	3960
929.218	3934
929.323	3930
929.428	3941
929.533	4112
929.638	3903
929.743	3949
929.848	4051
929.953	4013
930.058	3915
930.163	3793
930.267	3816
930.372	4044
930.477	3812
930.581	4097
930.685	3949
930.79	3850
930.894	3842
930.998	3854
931.103	4010
931.207	3705
931.311	3663
931.415	3648
931.519	3542
931.623	3526
