Data from test_V78500241_2123.txt Node
Date: Fri Mar 25 17:03:45 CST 2022
User: usil
Spectrometer: V785-0024
Trigger mode: 0
Integration Time (sec): 4.000000E-1
Scans to average: 1
Nonlinearity correction enabled: false
Boxcar width: 0
Storing dark spectrum: false
XAxis mode: Wavelengths
Number of Pixels in Spectrum: 1024
>>>>>Begin Spectral Data<<<<<
801.071	7951
801.214	8005
801.356	7875
801.499	7814
801.641	7723
801.783	7818
801.926	8031
802.068	7925
802.211	7955
802.353	7970
802.496	7830
802.638	7830
802.78	7879
802.923	7936
803.065	7795
803.208	7871
803.35	7951
803.492	7989
803.635	8153
803.777	8020
803.919	8134
804.061	8450
804.204	8168
804.346	8062
804.488	7963
804.63	8103
804.773	8008
804.915	8084
805.057	8237
805.199	8180
805.341	8168
805.483	8275
805.626	8214
805.768	8103
805.91	8195
806.052	8271
806.194	8001
806.336	8290
806.478	8103
806.62	8088
806.762	8126
806.904	8317
807.046	8465
807.188	8381
807.33	8294
807.472	8279
807.614	8176
807.756	8103
807.898	7978
808.04	7921
808.182	7871
808.324	7902
808.465	7909
808.607	8088
808.749	8065
808.891	8206
809.033	8301
809.174	8172
809.316	8103
809.458	8065
809.6	8031
809.741	8088
809.883	8020
810.025	8107
810.166	8058
810.308	7982
810.45	7967
810.591	7909
810.733	7708
810.875	7605
811.016	7502
811.158	7438
811.299	7578
811.441	7685
811.582	7628
811.724	7582
811.865	7540
812.007	7590
812.148	7548
812.29	7670
812.431	7704
812.573	7849
812.714	7932
812.855	8088
812.997	8202
813.138	8244
813.279	8172
813.421	7982
813.562	7963
813.703	7734
813.845	7734
813.986	7441
814.127	7236
814.268	7160
814.41	7183
814.551	7190
814.692	7213
814.833	7099
814.974	7107
815.115	7133
815.256	6954
815.397	6905
815.539	6897
815.68	6787
815.821	6764
815.962	6852
816.103	6795
816.244	6749
816.385	6574
816.526	6601
816.666	6486
816.807	6315
816.948	6429
817.089	6426
817.23	6441
817.371	6376
817.512	6327
817.653	6376
817.793	6334
817.934	6429
818.075	6441
818.216	6426
818.356	6429
818.497	6262
818.638	6178
818.778	6144
818.919	6171
819.06	6197
819.2	6315
819.341	6304
819.481	6357
819.622	6456
819.762	6753
819.903	6623
820.043	6616
820.184	6574
820.324	6532
820.465	6662
820.605	6620
820.746	6627
820.886	6475
821.026	6608
821.167	6681
821.307	6829
821.447	6745
821.588	6635
821.728	6555
821.868	6513
822.008	6273
822.149	6323
822.289	6384
822.429	6159
822.569	6076
822.709	6121
822.849	5950
822.99	5908
823.13	5885
823.27	5912
823.41	5805
823.55	5805
823.69	5790
823.83	5726
823.97	5615
824.11	5524
824.25	5558
824.389	5528
824.529	5524
824.669	5535
824.809	5657
824.949	5649
825.089	5608
825.228	5543
825.368	5387
825.508	5353
825.648	5280
825.787	5357
825.927	5376
826.067	5277
826.206	5277
826.346	5357
826.485	5455
826.625	5318
826.765	5535
826.904	5509
827.044	5227
827.183	5185
827.323	5136
827.462	5216
827.601	5147
827.741	5181
827.88	5174
828.02	5086
828.159	5201
828.298	5296
828.437	5357
828.577	5280
828.716	5474
828.855	5315
828.994	5124
829.134	5174
829.273	5151
829.412	5136
829.551	5094
829.69	5124
829.829	5220
829.968	5368
830.107	5242
830.246	5277
830.385	5208
830.524	5098
830.663	5052
830.802	4949
830.941	4885
831.08	4835
831.219	4968
831.357	4961
831.496	5113
831.635	4972
831.774	4824
831.913	4831
832.051	4740
832.19	4729
832.329	4816
832.467	4649
832.606	4668
832.744	4653
832.883	4687
833.022	4733
833.16	4782
833.299	4847
833.437	4782
833.576	4835
833.714	4847
833.852	4828
833.991	4904
834.129	5018
834.267	4900
834.406	4911
834.544	4938
834.682	4927
834.821	4946
834.959	5143
835.097	4999
835.235	5090
835.373	5071
835.511	5083
835.65	5018
835.788	5086
835.926	4870
836.064	4858
836.202	4862
836.34	5212
836.478	5204
836.615	5132
836.753	5216
836.891	5220
837.029	5265
837.167	5204
837.305	5159
837.443	5143
837.58	5037
837.718	5216
837.856	5239
837.993	5124
838.131	5212
838.269	5189
838.406	5185
838.544	5178
838.681	4976
838.819	4976
838.956	4881
839.094	4881
839.231	4938
839.369	5064
839.506	5391
839.643	5292
839.781	5067
839.918	5014
840.055	5079
840.193	5094
840.33	5090
840.467	5086
840.604	5201
840.742	5387
840.879	5075
841.016	5079
841.153	5204
841.29	5322
841.427	5322
841.564	5277
841.701	5334
841.838	5246
841.975	5231
842.112	5265
842.249	5162
842.385	5105
842.522	5299
842.659	5201
842.796	5197
842.933	5178
843.069	5132
843.206	5147
843.343	5280
843.479	5265
843.616	5337
843.752	5041
843.889	4976
844.025	5201
844.162	5022
844.298	5170
844.435	5052
844.571	5014
844.708	5174
844.844	5277
844.98	5307
845.117	5280
845.253	5128
845.389	5041
845.525	5174
845.661	5181
845.798	5041
845.934	5136
846.07	5098
846.206	5155
846.342	5326
846.478	5181
846.614	5029
846.75	4965
846.886	4885
847.022	5098
847.158	5025
847.294	5052
847.429	5056
847.565	5056
847.701	5341
847.837	4816
847.972	4790
848.108	4942
848.244	4900
848.379	4763
848.515	4702
848.65	4748
848.786	4698
848.921	4744
849.057	4877
849.192	4866
849.328	4805
849.463	4866
849.598	4793
849.734	4717
849.869	4656
850.004	4611
850.14	4660
850.275	4672
850.41	4497
850.545	4603
850.68	4637
850.815	4645
850.95	4607
851.085	4877
851.22	4733
851.355	4634
851.49	4622
851.625	4675
851.76	4630
851.895	4592
852.03	4527
852.165	4622
852.299	4759
852.434	4786
852.569	4755
852.703	4786
852.838	4839
852.973	4934
853.107	4873
853.242	4771
853.376	4634
853.511	4519
853.645	4607
853.78	4812
853.914	4687
854.048	4706
854.183	4653
854.317	4668
854.451	4866
854.585	4679
854.72	4626
854.854	4717
854.988	4607
855.122	4634
855.256	4497
855.39	4672
855.524	4778
855.658	4706
855.792	4729
855.926	4717
856.06	4725
856.194	4759
856.327	4660
856.461	4607
856.595	4603
856.729	4603
856.862	4748
856.996	4679
857.13	4721
857.263	4740
857.397	4824
857.53	4630
857.664	4672
857.797	4767
857.931	4759
858.064	4691
858.197	4740
858.331	4675
858.464	4592
858.597	4519
858.731	4634
858.864	4656
858.997	4634
859.13	4626
859.263	4645
859.396	4683
859.529	4622
859.662	4508
859.795	4523
859.928	4622
860.061	4752
860.194	4733
860.327	4660
860.46	4607
860.592	4702
860.725	4691
860.858	4721
860.99	4561
861.123	4451
861.256	4493
861.388	4603
861.521	5452
861.653	4466
861.786	4417
861.918	4451
862.05	4504
862.183	4527
862.315	4592
862.447	4645
862.58	4523
862.712	4417
862.844	4325
862.976	4481
863.108	4462
863.24	4721
863.372	4329
863.504	4421
863.636	4402
863.768	4459
863.9	4497
864.032	4356
864.164	4356
864.296	4398
864.428	4497
864.559	4565
864.691	4550
864.823	4500
864.954	4519
865.086	4508
865.217	4447
865.349	4413
865.48	4440
865.612	4504
865.743	4626
865.875	4459
866.006	4413
866.137	4447
866.269	4466
866.4	4474
866.531	4466
866.662	4398
866.793	4417
866.924	4409
867.055	4470
867.186	4409
867.317	4405
867.448	4383
867.579	4447
867.71	4352
867.841	4375
867.972	4436
868.103	4485
868.233	4451
868.364	4497
868.495	4512
868.625	4596
868.756	4752
868.886	4542
869.017	4634
869.147	4774
869.278	4778
869.408	4622
869.539	4615
869.669	4733
869.799	4672
869.929	4748
870.06	4710
870.19	4889
870.32	4949
870.45	4957
870.58	5018
870.71	5075
870.84	5094
870.97	4942
871.1	4839
871.23	5109
871.36	5128
871.489	5022
871.619	5064
871.749	5117
871.879	5136
872.008	5151
872.138	5022
872.267	5018
872.397	4805
872.526	4831
872.656	4740
872.785	4767
872.915	4965
873.044	5018
873.173	4949
873.303	4953
873.432	4946
873.561	4942
873.69	4854
873.819	4847
873.948	4949
874.077	4778
874.206	4740
874.335	4847
874.464	4930
874.593	5071
874.722	4938
874.851	5140
874.979	5033
875.108	5052
875.237	4961
875.365	4877
875.494	4892
875.623	5048
875.751	4889
875.88	4877
876.008	4965
876.136	4995
876.265	5220
876.393	5318
876.521	5216
876.65	5265
876.778	5105
876.906	5113
877.034	5029
877.162	5033
877.29	4995
877.418	5045
877.546	5025
877.674	5041
877.802	5037
877.93	5041
878.058	4968
878.185	4866
878.313	4927
878.441	4942
878.568	4771
878.696	4908
878.824	4957
878.951	4984
879.079	5117
879.206	5315
879.333	5102
879.461	4953
879.588	4984
879.715	5121
879.842	5170
879.97	4995
880.097	4828
880.224	4691
880.351	4805
880.478	4839
880.605	4767
880.732	4771
880.859	5098
880.986	4873
881.112	4938
881.239	4714
881.366	4672
881.493	4611
881.619	4561
881.746	4634
881.872	4630
881.999	4660
882.125	4740
882.252	4771
882.378	4847
882.505	4900
882.631	4812
882.757	4645
882.883	4714
883.01	4717
883.136	4664
883.262	4622
883.388	4649
883.514	4839
883.64	4828
883.766	4786
883.892	4668
884.018	4717
884.143	4919
884.269	4980
884.395	4645
884.52	4637
884.646	4664
884.772	4607
884.897	4565
885.023	4653
885.148	4809
885.274	4900
885.399	4831
885.524	4702
885.65	4687
885.775	4763
885.9	4733
886.025	4816
886.15	4831
886.275	4725
886.4	4637
886.525	4740
886.65	4717
886.775	4653
886.9	4892
887.025	5079
887.149	4812
887.274	4706
887.399	4538
887.523	4596
887.648	4561
887.773	4573
887.897	4748
888.021	4774
888.146	4694
888.27	4820
888.395	4892
888.519	4809
888.643	4782
888.767	4839
888.891	4656
889.015	4592
889.139	4660
889.263	4584
889.387	4790
889.511	4854
889.635	4816
889.759	4618
889.883	4641
890.006	4717
890.13	4820
890.254	4596
890.377	4687
890.501	4607
890.624	4523
890.748	4637
890.871	4493
890.995	4443
891.118	4402
891.241	4516
891.364	4558
891.488	4634
891.611	4462
891.734	4519
891.857	4634
891.98	4542
892.103	4668
892.226	4584
892.349	4523
892.471	4428
892.594	4538
892.717	4592
892.839	4580
892.962	4565
893.085	4641
893.207	4550
893.33	4398
893.452	4535
893.575	4645
893.697	4527
893.819	4778
893.941	4847
894.064	4729
894.186	4618
894.308	4599
894.43	4721
894.552	4793
894.674	4744
894.796	4573
894.918	4615
895.04	4561
895.161	4672
895.283	4641
895.405	4656
895.526	4637
895.648	4721
895.769	4736
895.891	4721
896.012	4725
896.134	4717
896.255	4683
896.376	4618
896.498	4618
896.619	4759
896.74	4573
896.861	4710
896.982	4942
897.103	5060
897.224	4885
897.345	4801
897.466	4691
897.587	4725
897.708	4850
897.828	4786
897.949	4641
898.07	4615
898.19	4596
898.311	4828
898.431	4607
898.552	4763
898.672	4797
898.792	4793
898.913	4721
899.033	4611
899.153	4542
899.273	4409
899.393	4474
899.513	4512
899.633	4523
899.753	4550
899.873	4493
899.993	4561
900.113	4535
900.232	4542
900.352	4561
900.472	4478
900.591	4390
900.711	4497
900.83	4417
900.95	4569
901.069	4698
901.189	4489
901.308	4291
901.427	4329
901.546	4352
901.665	4500
901.784	4500
901.904	4367
902.023	4306
902.141	4154
902.26	4162
902.379	4280
902.498	4238
902.617	4246
902.735	4322
902.854	4363
902.973	4325
903.091	4173
903.21	4234
903.328	4291
903.446	4291
903.565	4249
903.683	4341
903.801	4291
903.919	4413
904.038	4447
904.156	4310
904.274	4421
904.392	4440
904.51	4443
904.627	4500
904.745	4580
904.863	4656
904.981	4379
905.098	4329
905.216	4375
905.334	4443
905.451	4443
905.569	4459
905.686	4580
905.803	4512
905.921	4375
906.038	4573
906.155	4504
906.272	4386
906.389	4478
906.506	4356
906.623	4383
906.74	4379
906.857	4299
906.974	4344
907.091	4538
907.208	4683
907.324	4527
907.441	4531
907.557	4299
907.674	4303
907.79	4280
907.907	4375
908.023	4500
908.139	4489
908.256	4424
908.372	4459
908.488	4459
908.604	4360
908.72	4299
908.836	4333
908.952	4409
909.068	4398
909.184	4592
909.3	4440
909.415	4561
909.531	4546
909.647	4371
909.762	4360
909.878	4356
909.993	4405
910.108	4394
910.224	4363
910.339	4531
910.454	4428
910.57	4383
910.685	4310
910.8	4653
910.915	4573
911.03	4424
911.145	4287
911.259	4299
911.374	4379
911.489	4310
911.604	4253
911.718	4192
911.833	4200
911.947	4074
912.062	4029
912.176	4211
912.291	4230
912.405	4246
912.519	4485
912.633	4497
912.748	4356
912.862	4322
912.976	4192
913.09	4135
913.204	4181
913.318	4234
913.431	4299
913.545	4356
913.659	4428
913.772	4371
913.886	4200
914	4272
914.113	4356
914.226	4421
914.34	4386
914.453	4207
914.566	4432
914.68	4272
914.793	4322
914.906	4139
915.019	4204
915.132	4093
915.245	4249
915.358	4188
915.47	4253
915.583	4265
915.696	4253
915.809	4386
915.921	4451
916.034	4276
916.146	4219
916.259	4230
916.371	4383
916.483	4329
916.595	4234
916.708	4314
916.82	4303
916.932	4341
917.044	4318
917.156	4322
917.268	4219
917.38	4291
917.491	4280
917.603	4325
917.715	4409
917.826	4440
917.938	4352
918.049	4234
918.161	4356
918.272	4550
918.384	4523
918.495	4424
918.606	4318
918.717	4253
918.828	4287
918.939	4367
919.05	4257
919.161	4306
919.272	4093
919.383	4238
919.494	4405
919.604	4645
919.715	4417
919.826	4409
919.936	4413
920.047	4523
920.157	4500
920.267	4714
920.378	4554
920.488	4508
920.598	4664
920.708	4866
920.818	4767
920.928	4759
921.038	4930
921.148	4923
921.258	4630
921.368	4561
921.477	4500
921.587	4428
921.697	4360
921.806	4512
921.916	4440
922.025	4249
922.134	4230
922.244	4230
922.353	4333
922.462	4147
922.571	4105
922.68	3998
922.789	3964
922.898	4059
923.007	3956
923.116	4078
923.224	4063
923.333	4071
923.442	3987
923.55	3956
923.659	4025
923.767	4093
923.876	3979
923.984	4101
924.092	4010
924.201	4048
924.309	4086
924.417	4086
924.525	4036
924.633	4112
924.741	5025
924.849	3941
924.956	4128
925.064	3945
925.172	3865
925.279	3937
925.387	4109
925.494	4055
925.602	4242
925.709	4181
925.816	4021
925.924	4166
926.031	4200
926.138	4158
926.245	4177
926.352	4082
926.459	4249
926.566	4280
926.673	4120
926.779	4090
926.886	4067
926.993	4006
927.099	4010
927.206	3926
927.312	3884
927.419	4067
927.525	4071
927.631	4067
927.737	3964
927.843	3941
927.95	3903
928.056	3934
928.162	3949
928.267	4048
928.373	4584
928.479	4105
928.585	3835
928.69	3998
928.796	4063
928.901	4010
929.007	3812
929.112	4002
929.218	4017
929.323	3937
929.428	3941
929.533	4086
929.638	3903
929.743	3945
929.848	3979
929.953	4029
930.058	3880
930.163	3797
930.267	3835
930.372	3926
930.477	3816
930.581	4051
930.685	3972
930.79	3793
930.894	3892
930.998	3861
931.103	4025
931.207	3705
931.311	3698
931.415	3682
931.519	3523
931.623	3519
