Data from test_V78500241_736.txt Node
Date: Fri Mar 25 16:54:07 CST 2022
User: usil
Spectrometer: V785-0024
Trigger mode: 0
Integration Time (sec): 4.000000E-1
Scans to average: 1
Nonlinearity correction enabled: false
Boxcar width: 0
Storing dark spectrum: false
XAxis mode: Wavelengths
Number of Pixels in Spectrum: 1024
>>>>>Begin Spectral Data<<<<<
801.071	7993
801.214	8008
801.356	7871
801.499	7879
801.641	7852
801.783	7845
801.926	7944
802.068	7993
802.211	7951
802.353	7921
802.496	7917
802.638	7921
802.78	7913
802.923	7974
803.065	7814
803.208	7909
803.35	7913
803.492	8119
803.635	8107
803.777	8005
803.919	8142
804.061	8419
804.204	8096
804.346	8054
804.488	7925
804.63	8096
804.773	8035
804.915	8142
805.057	8298
805.199	8252
805.341	8191
805.483	8290
805.626	8218
805.768	8111
805.91	8195
806.052	8233
806.194	8065
806.336	8195
806.478	8050
806.62	8005
806.762	8119
806.904	8309
807.046	8480
807.188	8370
807.33	8336
807.472	8332
807.614	8107
807.756	8119
807.898	7925
808.04	7875
808.182	7928
808.324	7879
808.465	7898
808.607	8077
808.749	8123
808.891	8202
809.033	8229
809.174	8248
809.316	8077
809.458	8092
809.6	7967
809.741	7986
809.883	7993
810.025	8149
810.166	8062
810.308	8065
810.45	8084
810.591	7868
810.733	7731
810.875	7753
811.016	7495
811.158	7502
811.299	7616
811.441	7742
811.582	7685
811.724	7548
811.865	7544
812.007	7594
812.148	7502
812.29	7628
812.431	7677
812.573	7826
812.714	7959
812.855	8161
812.997	8164
813.138	8351
813.279	8248
813.421	8096
813.562	7989
813.703	7860
813.845	7765
813.986	7480
814.127	7289
814.268	7301
814.41	7194
814.551	7152
814.692	7133
814.833	7046
814.974	7103
815.115	7057
815.256	6939
815.397	6962
815.539	7027
815.68	6829
815.821	6875
815.962	6856
816.103	6806
816.244	6696
816.385	6601
816.526	6646
816.666	6445
816.807	6327
816.948	6441
817.089	6456
817.23	6395
817.371	6361
817.512	6372
817.653	6365
817.793	6391
817.934	6441
818.075	6422
818.216	6391
818.356	6437
818.497	6239
818.638	6110
818.778	6144
818.919	6087
819.06	6159
819.2	6235
819.341	6323
819.481	6391
819.622	6566
819.762	6726
819.903	6738
820.043	6574
820.184	6551
820.324	6547
820.465	6741
820.605	6635
820.746	6658
820.886	6486
821.026	6703
821.167	6707
821.307	6818
821.447	6711
821.588	6582
821.728	6528
821.868	6437
822.008	6277
822.149	6353
822.289	6338
822.429	6091
822.569	6117
822.709	6152
822.849	5935
822.99	5927
823.13	5901
823.27	5893
823.41	5790
823.55	5745
823.69	5767
823.83	5824
823.97	5665
824.11	5532
824.25	5532
824.389	5577
824.529	5554
824.669	5532
824.809	5592
824.949	5630
825.089	5611
825.228	5592
825.368	5417
825.508	5364
825.648	5322
825.787	5436
825.927	5406
826.067	5299
826.206	5307
826.346	5414
826.485	5395
826.625	5440
826.765	5543
826.904	5444
827.044	5220
827.183	5239
827.323	5147
827.462	5265
827.601	5140
827.741	5170
827.88	5197
828.02	5102
828.159	5216
828.298	5303
828.437	5326
828.577	5261
828.716	5474
828.855	5326
828.994	5162
829.134	5132
829.273	5170
829.412	5201
829.551	5147
829.69	5201
829.829	5231
829.968	5395
830.107	5254
830.246	5337
830.385	5140
830.524	5117
830.663	5071
830.802	5018
830.941	4885
831.08	4843
831.219	4999
831.357	5014
831.496	5185
831.635	4938
831.774	4873
831.913	4866
832.051	4733
832.19	4801
832.329	4839
832.467	4664
832.606	4634
832.744	4721
832.883	4721
833.022	4752
833.16	4755
833.299	4824
833.437	4847
833.576	4831
833.714	4831
833.852	4824
833.991	4843
834.129	4968
834.267	4930
834.406	4953
834.544	5022
834.682	4961
834.821	4919
834.959	5121
835.097	4972
835.235	5181
835.373	5117
835.511	5102
835.65	5037
835.788	5056
835.926	4850
836.064	4908
836.202	4904
836.34	5159
836.478	5235
836.615	5075
836.753	5162
836.891	5277
837.029	5246
837.167	5216
837.305	5193
837.443	5151
837.58	5128
837.718	5269
837.856	5216
837.993	5136
838.131	5246
838.269	5208
838.406	5227
838.544	5181
838.681	5018
838.819	5048
838.956	4889
839.094	4892
839.231	5006
839.369	5075
839.506	5455
839.643	5307
839.781	5045
839.918	5075
840.055	5048
840.193	5064
840.33	5124
840.467	5140
840.604	5220
840.742	5444
840.879	5060
841.016	5147
841.153	5109
841.29	5376
841.427	5330
841.564	5322
841.701	5410
841.838	5292
841.975	5201
842.112	5273
842.249	5159
842.385	5140
842.522	5349
842.659	5201
842.796	5143
842.933	5143
843.069	5140
843.206	5128
843.343	5273
843.479	5246
843.616	5265
843.752	4976
843.889	5022
844.025	5223
844.162	5018
844.298	5246
844.435	5147
844.571	5025
844.708	5227
844.844	5341
844.98	5318
845.117	5322
845.253	5105
845.389	5105
845.525	5166
845.661	5113
845.798	5067
845.934	5178
846.07	5048
846.206	5181
846.342	5307
846.478	5159
846.614	4987
846.75	4942
846.886	4877
847.022	5105
847.158	5025
847.294	5037
847.429	5094
847.565	5105
847.701	5311
847.837	4866
847.972	4805
848.108	4980
848.244	4915
848.379	4755
848.515	4748
848.65	4702
848.786	4714
848.921	4778
849.057	4843
849.192	4923
849.328	4835
849.463	4870
849.598	4782
849.734	4774
849.869	4679
850.004	4641
850.14	4706
850.275	4641
850.41	4573
850.545	4588
850.68	4641
850.815	4622
850.95	4584
851.085	4820
851.22	4774
851.355	4653
851.49	4626
851.625	4656
851.76	4596
851.895	4569
852.03	4538
852.165	4618
852.299	4725
852.434	4778
852.569	4748
852.703	4740
852.838	4843
852.973	4911
853.107	4934
853.242	4767
853.376	4656
853.511	4618
853.645	4603
853.78	4786
853.914	4683
854.048	4630
854.183	4615
854.317	4694
854.451	4820
854.585	4588
854.72	4653
854.854	4748
854.988	4558
855.122	4637
855.256	4512
855.39	4664
855.524	4771
855.658	4759
855.792	4668
855.926	4691
856.06	4725
856.194	4782
856.327	4668
856.461	4588
856.595	4607
856.729	4645
856.862	4687
856.996	4740
857.13	4725
857.263	4774
857.397	4828
857.53	4687
857.664	4740
857.797	4759
857.931	4740
858.064	4675
858.197	4733
858.331	4645
858.464	4622
858.597	4558
858.731	4626
858.864	4653
858.997	4645
859.13	4637
859.263	4664
859.396	4714
859.529	4645
859.662	4561
859.795	4558
859.928	4615
860.061	4752
860.194	4786
860.327	4607
860.46	4584
860.592	4675
860.725	4733
860.858	4702
860.99	4622
861.123	4516
861.256	4550
861.388	4554
861.521	5459
861.653	4481
861.786	4417
861.918	4443
862.05	4485
862.183	4550
862.315	4584
862.447	4634
862.58	4519
862.712	4379
862.844	4314
862.976	4436
863.108	4405
863.24	4854
863.372	4371
863.504	4428
863.636	4451
863.768	4508
863.9	4424
864.032	4329
864.164	4413
864.296	4512
864.428	4523
864.559	4569
864.691	4531
864.823	4558
864.954	4500
865.086	4527
865.217	4459
865.349	4424
865.48	4440
865.612	4512
865.743	4611
865.875	4462
866.006	4413
866.137	4443
866.269	4455
866.4	4440
866.531	4371
866.662	4360
866.793	4386
866.924	4462
867.055	4455
867.186	4405
867.317	4451
867.448	4386
867.579	4451
867.71	4421
867.841	4344
867.972	4428
868.103	4519
868.233	4436
868.364	4497
868.495	4470
868.625	4664
868.756	4755
868.886	4558
869.017	4565
869.147	4778
869.278	4748
869.408	4637
869.539	4653
869.669	4717
869.799	4672
869.929	4778
870.06	4763
870.19	4957
870.32	4892
870.45	4968
870.58	5037
870.71	5102
870.84	5166
870.97	4953
871.1	4889
871.23	5181
871.36	5113
871.489	5010
871.619	5094
871.749	5048
871.879	5086
872.008	5159
872.138	5025
872.267	4957
872.397	4820
872.526	4759
872.656	4683
872.785	4755
872.915	4919
873.044	5033
873.173	4976
873.303	4968
873.432	4927
873.561	4953
873.69	4911
873.819	4870
873.948	4904
874.077	4790
874.206	4740
874.335	4767
874.464	4938
874.593	5022
874.722	4919
874.851	5067
874.979	5075
875.108	5064
875.237	4824
875.365	4911
875.494	4889
875.623	4972
875.751	4835
875.88	4870
876.008	4930
876.136	5018
876.265	5162
876.393	5349
876.521	5239
876.65	5193
876.778	5128
876.906	5098
877.034	5033
877.162	5071
877.29	4961
877.418	5006
877.546	5086
877.674	5041
877.802	5056
877.93	5018
878.058	4953
878.185	4870
878.313	4942
878.441	4934
878.568	4782
878.696	4854
878.824	4927
878.951	4984
879.079	5117
879.206	5322
879.333	5071
879.461	5003
879.588	4980
879.715	5155
879.842	5235
879.97	4972
880.097	4790
880.224	4729
880.351	4831
880.478	4828
880.605	4805
880.732	4816
880.859	5109
880.986	4889
881.112	4885
881.239	4812
881.366	4679
881.493	4599
881.619	4546
881.746	4596
881.872	4618
881.999	4702
882.125	4687
882.252	4790
882.378	4816
882.505	4980
882.631	4790
882.757	4634
882.883	4729
883.01	4694
883.136	4668
883.262	4580
883.388	4634
883.514	4820
883.64	4831
883.766	4790
883.892	4641
884.018	4649
884.143	4881
884.269	4980
884.395	4660
884.52	4630
884.646	4626
884.772	4580
884.897	4577
885.023	4618
885.148	4763
885.274	4797
885.399	4771
885.524	4694
885.65	4683
885.775	4778
885.9	4733
886.025	4843
886.15	4763
886.275	4653
886.4	4653
886.525	4698
886.65	4675
886.775	4717
886.9	4892
887.025	5025
887.149	4790
887.274	4630
887.399	4577
887.523	4611
887.648	4550
887.773	4607
887.897	4767
888.021	4782
888.146	4679
888.27	4797
888.395	4885
888.519	4805
888.643	4801
888.767	4831
888.891	4656
889.015	4607
889.139	4649
889.263	4588
889.387	4733
889.511	4828
889.635	4801
889.759	4611
889.883	4622
890.006	4683
890.13	4820
890.254	4599
890.377	4706
890.501	4519
890.624	4580
890.748	4607
890.871	4462
890.995	4424
891.118	4379
891.241	4580
891.364	4580
891.488	4622
891.611	4535
891.734	4577
891.857	4615
891.98	4531
892.103	4664
892.226	4592
892.349	4493
892.471	4459
892.594	4546
892.717	4611
892.839	4569
892.962	4634
893.085	4645
893.207	4580
893.33	4451
893.452	4508
893.575	4675
893.697	4607
893.819	4820
893.941	4801
894.064	4744
894.186	4565
894.308	4554
894.43	4721
894.552	4839
894.674	4793
894.796	4512
894.918	4592
895.04	4546
895.161	4679
895.283	4706
895.405	4588
895.526	4580
895.648	4653
895.769	4714
895.891	4736
896.012	4725
896.134	4664
896.255	4679
896.376	4603
896.498	4588
896.619	4630
896.74	4588
896.861	4691
896.982	4938
897.103	5083
897.224	4797
897.345	4752
897.466	4634
897.587	4763
897.708	4839
897.828	4759
897.949	4668
898.07	4577
898.19	4592
898.311	4828
898.431	4675
898.552	4706
898.672	4797
898.792	4843
898.913	4683
899.033	4615
899.153	4561
899.273	4447
899.393	4508
899.513	4523
899.633	4516
899.753	4523
899.873	4535
899.993	4577
900.113	4527
900.232	4565
900.352	4561
900.472	4478
900.591	4371
900.711	4493
900.83	4405
900.95	4588
901.069	4702
901.189	4500
901.308	4363
901.427	4325
901.546	4367
901.665	4440
901.784	4470
901.904	4363
902.023	4318
902.141	4177
902.26	4181
902.379	4242
902.498	4242
902.617	4223
902.735	4348
902.854	4390
902.973	4356
903.091	4181
903.21	4242
903.328	4322
903.446	4306
903.565	4219
903.683	4352
903.801	4303
903.919	4413
904.038	4421
904.156	4299
904.274	4428
904.392	4367
904.51	4432
904.627	4440
904.745	4546
904.863	4634
904.981	4402
905.098	4337
905.216	4348
905.334	4394
905.451	4409
905.569	4462
905.686	4508
905.803	4584
905.921	4390
906.038	4535
906.155	4447
906.272	4375
906.389	4470
906.506	4306
906.623	4348
906.74	4398
906.857	4257
906.974	4379
907.091	4535
907.208	4664
907.324	4535
907.441	4459
907.557	4329
907.674	4367
907.79	4314
907.907	4375
908.023	4481
908.139	4462
908.256	4447
908.372	4466
908.488	4474
908.604	4405
908.72	4306
908.836	4329
908.952	4363
909.068	4428
909.184	4592
909.3	4493
909.415	4550
909.531	4577
909.647	4363
909.762	4398
909.878	4348
909.993	4421
910.108	4413
910.224	4421
910.339	4504
910.454	4398
910.57	4352
910.685	4299
910.8	4668
910.915	4592
911.03	4459
911.145	4325
911.259	4299
911.374	4322
911.489	4329
911.604	4246
911.718	4177
911.833	4211
911.947	4059
912.062	4055
912.176	4223
912.291	4249
912.405	4219
912.519	4459
912.633	4481
912.748	4398
912.862	4310
912.976	4185
913.09	4150
913.204	4204
913.318	4238
913.431	4386
913.545	4402
913.659	4462
913.772	4337
913.886	4211
914	4215
914.113	4379
914.226	4402
914.34	4360
914.453	4268
914.566	4363
914.68	4276
914.793	4344
914.906	4131
915.019	4105
915.132	4051
915.245	4181
915.358	4227
915.47	4249
915.583	4261
915.696	4314
915.809	4394
915.921	4409
916.034	4268
916.146	4246
916.259	4211
916.371	4428
916.483	4367
916.595	4249
916.708	4318
916.82	4314
916.932	4318
917.044	4325
917.156	4322
917.268	4227
917.38	4287
917.491	4268
917.603	4363
917.715	4421
917.826	4474
917.938	4337
918.049	4249
918.161	4394
918.272	4523
918.384	4569
918.495	4409
918.606	4348
918.717	4265
918.828	4318
918.939	4390
919.05	4230
919.161	4371
919.272	4158
919.383	4223
919.494	4440
919.604	4611
919.715	4432
919.826	4329
919.936	4363
920.047	4516
920.157	4500
920.267	4691
920.378	4538
920.488	4478
920.598	4740
920.708	4854
920.818	4755
920.928	4755
921.038	4957
921.148	4892
921.258	4584
921.368	4527
921.477	4489
921.587	4481
921.697	4356
921.806	4538
921.916	4421
922.025	4253
922.134	4268
922.244	4143
922.353	4291
922.462	4169
922.571	4143
922.68	4025
922.789	3991
922.898	4063
923.007	3991
923.116	4124
923.224	4059
923.333	4097
923.442	3956
923.55	3987
923.659	4021
923.767	4086
923.876	3983
923.984	4082
924.092	4006
924.201	4055
924.309	4101
924.417	4158
924.525	4097
924.633	4116
924.741	4904
924.849	3915
924.956	4162
925.064	3949
925.172	3873
925.279	3956
925.387	4055
925.494	4090
925.602	4249
925.709	4207
925.816	4044
925.924	4181
926.031	4246
926.138	4169
926.245	4211
926.352	4055
926.459	4265
926.566	4303
926.673	4131
926.779	4074
926.886	4048
926.993	3991
927.099	3926
927.206	3915
927.312	3945
927.419	4055
927.525	3991
927.631	4090
927.737	3972
927.843	3941
927.95	3838
928.056	3983
928.162	3983
928.267	4032
928.373	4668
928.479	4154
928.585	3861
928.69	3987
928.796	4044
928.901	3953
929.007	3808
929.112	3956
929.218	3983
929.323	3953
929.428	3975
929.533	4101
929.638	3918
929.743	3964
929.848	4006
929.953	3956
930.058	3926
930.163	3804
930.267	3873
930.372	3918
930.477	3793
930.581	4059
930.685	3907
930.79	3789
930.894	3915
930.998	3835
931.103	4067
931.207	3732
931.311	3690
931.415	3675
931.519	3542
931.623	3545
