Data from test_V78500241_2725.txt Node
Date: Fri Mar 25 17:07:57 CST 2022
User: usil
Spectrometer: V785-0024
Trigger mode: 0
Integration Time (sec): 4.000000E-1
Scans to average: 1
Nonlinearity correction enabled: false
Boxcar width: 0
Storing dark spectrum: false
XAxis mode: Wavelengths
Number of Pixels in Spectrum: 1024
>>>>>Begin Spectral Data<<<<<
801.071	8035
801.214	8039
801.356	7967
801.499	7936
801.641	7799
801.783	7852
801.926	7963
802.068	7967
802.211	7982
802.353	8027
802.496	7887
802.638	7864
802.78	7944
802.923	7913
803.065	7913
803.208	7909
803.35	7928
803.492	8130
803.635	8202
803.777	8039
803.919	8202
804.061	8415
804.204	8142
804.346	8050
804.488	7963
804.63	8077
804.773	8024
804.915	8145
805.057	8305
805.199	8168
805.341	8180
805.483	8259
805.626	8317
805.768	8172
805.91	8191
806.052	8187
806.194	8092
806.336	8248
806.478	8024
806.62	8065
806.762	8115
806.904	8240
807.046	8461
807.188	8408
807.33	8324
807.472	8324
807.614	8195
807.756	8111
807.898	8073
808.04	7868
808.182	7799
808.324	7864
808.465	7951
808.607	8073
808.749	8130
808.891	8248
809.033	8324
809.174	8248
809.316	8107
809.458	8081
809.6	8065
809.741	8050
809.883	8035
810.025	8138
810.166	8084
810.308	8054
810.45	8016
810.591	7906
810.733	7761
810.875	7681
811.016	7601
811.158	7529
811.299	7590
811.441	7742
811.582	7647
811.724	7616
811.865	7540
812.007	7601
812.148	7628
812.29	7677
812.431	7799
812.573	7849
812.714	8020
812.855	8180
812.997	8100
813.138	8290
813.279	8214
813.421	8130
813.562	7989
813.703	7894
813.845	7830
813.986	7510
814.127	7236
814.268	7236
814.41	7244
814.551	7194
814.692	7149
814.833	7145
814.974	7122
815.115	7084
815.256	6924
815.397	6989
815.539	6954
815.68	6787
815.821	6848
815.962	6856
816.103	6814
816.244	6711
816.385	6631
816.526	6642
816.666	6559
816.807	6323
816.948	6456
817.089	6509
817.23	6437
817.371	6399
817.512	6361
817.653	6380
817.793	6342
817.934	6437
818.075	6536
818.216	6376
818.356	6418
818.497	6239
818.638	6121
818.778	6117
818.919	6125
819.06	6186
819.2	6308
819.341	6346
819.481	6407
819.622	6452
819.762	6665
819.903	6707
820.043	6593
820.184	6574
820.324	6597
820.465	6696
820.605	6631
820.746	6608
820.886	6551
821.026	6642
821.167	6719
821.307	6795
821.447	6730
821.588	6696
821.728	6612
821.868	6566
822.008	6361
822.149	6384
822.289	6384
822.429	6152
822.569	6098
822.709	6136
822.849	5931
822.99	5923
823.13	5889
823.27	5920
823.41	5798
823.55	5790
823.69	5718
823.83	5805
823.97	5615
824.11	5535
824.25	5467
824.389	5520
824.529	5600
824.669	5486
824.809	5684
824.949	5604
825.089	5592
825.228	5539
825.368	5398
825.508	5334
825.648	5303
825.787	5395
825.927	5364
826.067	5349
826.206	5299
826.346	5353
826.485	5410
826.625	5368
826.765	5486
826.904	5436
827.044	5250
827.183	5261
827.323	5208
827.462	5284
827.601	5201
827.741	5151
827.88	5204
828.02	5102
828.159	5212
828.298	5288
828.437	5395
828.577	5284
828.716	5440
828.855	5364
828.994	5170
829.134	5151
829.273	5159
829.412	5181
829.551	5121
829.69	5151
829.829	5227
829.968	5337
830.107	5273
830.246	5246
830.385	5201
830.524	5109
830.663	5094
830.802	4991
830.941	4858
831.08	4900
831.219	5006
831.357	4995
831.496	5151
831.635	4968
831.774	4858
831.913	4866
832.051	4740
832.19	4774
832.329	4854
832.467	4694
832.606	4607
832.744	4736
832.883	4664
833.022	4752
833.16	4809
833.299	4816
833.437	4801
833.576	4801
833.714	4866
833.852	4866
833.991	4824
834.129	4919
834.267	4904
834.406	4873
834.544	4984
834.682	4976
834.821	4980
834.959	5174
835.097	4965
835.235	5155
835.373	5098
835.511	5128
835.65	5025
835.788	5006
835.926	4881
836.064	4881
836.202	4900
836.34	5117
836.478	5181
836.615	5132
836.753	5189
836.891	5258
837.029	5208
837.167	5201
837.305	5113
837.443	5174
837.58	5067
837.718	5254
837.856	5197
837.993	5166
838.131	5185
838.269	5201
838.406	5216
838.544	5208
838.681	5052
838.819	5018
838.956	4919
839.094	4911
839.231	4961
839.369	5094
839.506	5364
839.643	5265
839.781	5025
839.918	4987
840.055	5124
840.193	5056
840.33	5109
840.467	5128
840.604	5193
840.742	5410
840.879	5083
841.016	5060
841.153	5098
841.29	5326
841.427	5360
841.564	5341
841.701	5334
841.838	5254
841.975	5227
842.112	5311
842.249	5132
842.385	5109
842.522	5341
842.659	5155
842.796	5121
842.933	5155
843.069	5102
843.206	5090
843.343	5296
843.479	5235
843.616	5315
843.752	4995
843.889	4984
844.025	5208
844.162	5006
844.298	5193
844.435	5071
844.571	5064
844.708	5136
844.844	5311
844.98	5284
845.117	5292
845.253	5124
845.389	5079
845.525	5155
845.661	5143
845.798	5045
845.934	5140
846.07	5060
846.206	5242
846.342	5227
846.478	5117
846.614	4987
846.75	4953
846.886	4919
847.022	5128
847.158	5041
847.294	5056
847.429	5083
847.565	5071
847.701	5292
847.837	4839
847.972	4748
848.108	5006
848.244	4900
848.379	4778
848.515	4714
848.65	4702
848.786	4752
848.921	4767
849.057	4900
849.192	4870
849.328	4801
849.463	4828
849.598	4786
849.734	4752
849.869	4714
850.004	4603
850.14	4630
850.275	4599
850.41	4508
850.545	4546
850.68	4641
850.815	4660
850.95	4584
851.085	4843
851.22	4679
851.355	4634
851.49	4641
851.625	4596
851.76	4641
851.895	4558
852.03	4538
852.165	4573
852.299	4683
852.434	4767
852.569	4759
852.703	4778
852.838	4824
852.973	4930
853.107	4889
853.242	4698
853.376	4664
853.511	4558
853.645	4637
853.78	4816
853.914	4668
854.048	4668
854.183	4679
854.317	4694
854.451	4847
854.585	4660
854.72	4637
854.854	4729
854.988	4596
855.122	4641
855.256	4580
855.39	4630
855.524	4786
855.658	4725
855.792	4733
855.926	4710
856.06	4748
856.194	4771
856.327	4706
856.461	4596
856.595	4618
856.729	4653
856.862	4691
856.996	4664
857.13	4721
857.263	4748
857.397	4809
857.53	4641
857.664	4702
857.797	4717
857.931	4797
858.064	4717
858.197	4801
858.331	4596
858.464	4618
858.597	4512
858.731	4584
858.864	4653
858.997	4641
859.13	4649
859.263	4687
859.396	4733
859.529	4603
859.662	4489
859.795	4527
859.928	4561
860.061	4782
860.194	4733
860.327	4603
860.46	4611
860.592	4717
860.725	4710
860.858	4767
860.99	4584
861.123	4538
861.256	4519
861.388	4599
861.521	5280
861.653	4470
861.786	4447
861.918	4474
862.05	4516
862.183	4478
862.315	4573
862.447	4637
862.58	4561
862.712	4405
862.844	4348
862.976	4497
863.108	4462
863.24	4744
863.372	4337
863.504	4383
863.636	4417
863.768	4451
863.9	4432
864.032	4386
864.164	4398
864.296	4428
864.428	4542
864.559	4550
864.691	4531
864.823	4565
864.954	4504
865.086	4508
865.217	4421
865.349	4432
865.48	4462
865.612	4512
865.743	4653
865.875	4470
866.006	4409
866.137	4459
866.269	4459
866.4	4398
866.531	4443
866.662	4402
866.793	4417
866.924	4451
867.055	4512
867.186	4443
867.317	4421
867.448	4409
867.579	4367
867.71	4375
867.841	4405
867.972	4466
868.103	4481
868.233	4459
868.364	4421
868.495	4470
868.625	4660
868.756	4733
868.886	4577
869.017	4603
869.147	4771
869.278	4733
869.408	4645
869.539	4645
869.669	4717
869.799	4679
869.929	4782
870.06	4691
870.19	4961
870.32	4923
870.45	4942
870.58	5003
870.71	5045
870.84	5117
870.97	4930
871.1	4896
871.23	5151
871.36	5086
871.489	5003
871.619	5071
871.749	5090
871.879	5128
872.008	5174
872.138	5052
872.267	4984
872.397	4870
872.526	4820
872.656	4740
872.785	4793
872.915	4946
873.044	5037
873.173	4942
873.303	4984
873.432	4949
873.561	4968
873.69	4870
873.819	4850
873.948	4866
874.077	4843
874.206	4767
874.335	4820
874.464	4930
874.593	5113
874.722	4946
874.851	5094
874.979	5048
875.108	5041
875.237	4904
875.365	4885
875.494	4858
875.623	4980
875.751	4793
875.88	4900
876.008	4984
876.136	5045
876.265	5250
876.393	5334
876.521	5254
876.65	5242
876.778	5143
876.906	5071
877.034	5052
877.162	5022
877.29	5003
877.418	5052
877.546	5029
877.674	5048
877.802	5067
877.93	5018
878.058	4942
878.185	4908
878.313	4946
878.441	4896
878.568	4793
878.696	4885
878.824	4957
878.951	5025
879.079	5098
879.206	5284
879.333	5109
879.461	4991
879.588	4946
879.715	5109
879.842	5231
879.97	5041
880.097	4774
880.224	4729
880.351	4835
880.478	4790
880.605	4763
880.732	4805
880.859	5071
880.986	4877
881.112	4885
881.239	4782
881.366	4645
881.493	4618
881.619	4592
881.746	4618
881.872	4672
881.999	4630
882.125	4687
882.252	4805
882.378	4816
882.505	5022
882.631	4786
882.757	4687
882.883	4672
883.01	4714
883.136	4637
883.262	4599
883.388	4611
883.514	4828
883.64	4843
883.766	4797
883.892	4687
884.018	4721
884.143	4896
884.269	5029
884.395	4706
884.52	4630
884.646	4637
884.772	4630
884.897	4519
885.023	4706
885.148	4786
885.274	4873
885.399	4828
885.524	4763
885.65	4721
885.775	4748
885.9	4714
886.025	4835
886.15	4820
886.275	4717
886.4	4630
886.525	4729
886.65	4698
886.775	4698
886.9	4908
887.025	5018
887.149	4858
887.274	4668
887.399	4607
887.523	4584
887.648	4611
887.773	4611
887.897	4805
888.021	4793
888.146	4763
888.27	4786
888.395	4942
888.519	4824
888.643	4843
888.767	4786
888.891	4649
889.015	4558
889.139	4660
889.263	4611
889.387	4752
889.511	4889
889.635	4809
889.759	4672
889.883	4668
890.006	4691
890.13	4824
890.254	4634
890.377	4637
890.501	4558
890.624	4508
890.748	4554
890.871	4508
890.995	4489
891.118	4363
891.241	4497
891.364	4573
891.488	4603
891.611	4538
891.734	4512
891.857	4561
891.98	4565
892.103	4634
892.226	4615
892.349	4538
892.471	4409
892.594	4569
892.717	4588
892.839	4584
892.962	4596
893.085	4683
893.207	4577
893.33	4485
893.452	4542
893.575	4641
893.697	4588
893.819	4793
893.941	4839
894.064	4790
894.186	4569
894.308	4592
894.43	4755
894.552	4790
894.674	4744
894.796	4554
894.918	4599
895.04	4546
895.161	4683
895.283	4714
895.405	4588
895.526	4698
895.648	4698
895.769	4668
895.891	4694
896.012	4725
896.134	4714
896.255	4672
896.376	4607
896.498	4607
896.619	4611
896.74	4577
896.861	4645
896.982	4984
897.103	5094
897.224	4870
897.345	4767
897.466	4660
897.587	4736
897.708	4839
897.828	4729
897.949	4675
898.07	4554
898.19	4641
898.311	4786
898.431	4706
898.552	4755
898.672	4790
898.792	4790
898.913	4771
899.033	4626
899.153	4436
899.273	4428
899.393	4481
899.513	4466
899.633	4546
899.753	4554
899.873	4546
899.993	4615
900.113	4519
900.232	4558
900.352	4531
900.472	4497
900.591	4424
900.711	4497
900.83	4402
900.95	4584
901.069	4672
901.189	4561
901.308	4344
901.427	4329
901.546	4405
901.665	4455
901.784	4459
901.904	4360
902.023	4314
902.141	4158
902.26	4192
902.379	4325
902.498	4234
902.617	4276
902.735	4405
902.854	4424
902.973	4363
903.091	4162
903.21	4196
903.328	4287
903.446	4276
903.565	4261
903.683	4348
903.801	4276
903.919	4428
904.038	4455
904.156	4398
904.274	4394
904.392	4413
904.51	4440
904.627	4538
904.745	4569
904.863	4618
904.981	4405
905.098	4276
905.216	4363
905.334	4409
905.451	4428
905.569	4443
905.686	4546
905.803	4538
905.921	4405
906.038	4558
906.155	4481
906.272	4379
906.389	4500
906.506	4337
906.623	4379
906.74	4383
906.857	4329
906.974	4371
907.091	4561
907.208	4645
907.324	4618
907.441	4504
907.557	4322
907.674	4341
907.79	4333
907.907	4344
908.023	4535
908.139	4447
908.256	4470
908.372	4497
908.488	4428
908.604	4375
908.72	4310
908.836	4375
908.952	4352
909.068	4455
909.184	4577
909.3	4504
909.415	4622
909.531	4569
909.647	4375
909.762	4356
909.878	4360
909.993	4417
910.108	4451
910.224	4428
910.339	4478
910.454	4398
910.57	4360
910.685	4329
910.8	4637
910.915	4580
911.03	4508
911.145	4325
911.259	4333
911.374	4344
911.489	4303
911.604	4246
911.718	4196
911.833	4219
911.947	4044
912.062	3994
912.176	4166
912.291	4234
912.405	4261
912.519	4481
912.633	4523
912.748	4333
912.862	4375
912.976	4200
913.09	4071
913.204	4204
913.318	4234
913.431	4352
913.545	4394
913.659	4447
913.772	4402
913.886	4265
914	4207
914.113	4409
914.226	4409
914.34	4360
914.453	4242
914.566	4432
914.68	4306
914.793	4318
914.906	4177
915.019	4101
915.132	4063
915.245	4158
915.358	4242
915.47	4192
915.583	4322
915.696	4276
915.809	4379
915.921	4428
916.034	4238
916.146	4280
916.259	4261
916.371	4325
916.483	4333
916.595	4265
916.708	4318
916.82	4303
916.932	4265
917.044	4318
917.156	4280
917.268	4230
917.38	4291
917.491	4280
917.603	4341
917.715	4405
917.826	4436
917.938	4363
918.049	4207
918.161	4443
918.272	4523
918.384	4519
918.495	4455
918.606	4253
918.717	4204
918.828	4303
918.939	4363
919.05	4306
919.161	4291
919.272	4120
919.383	4215
919.494	4504
919.604	4603
919.715	4440
919.826	4310
919.936	4398
920.047	4538
920.157	4508
920.267	4679
920.378	4558
920.488	4512
920.598	4721
920.708	4850
920.818	4812
920.928	4820
921.038	4976
921.148	4919
921.258	4656
921.368	4577
921.477	4596
921.587	4470
921.697	4367
921.806	4558
921.916	4462
922.025	4280
922.134	4329
922.244	4223
922.353	4367
922.462	4223
922.571	4143
922.68	4044
922.789	4002
922.898	4105
923.007	4055
923.116	4143
923.224	4116
923.333	4147
923.442	4040
923.55	4021
923.659	4051
923.767	4177
923.876	4074
923.984	4116
924.092	4017
924.201	4097
924.309	4150
924.417	4169
924.525	4147
924.633	4124
924.741	5022
924.849	4021
924.956	4169
925.064	4044
925.172	3972
925.279	3991
925.387	4101
925.494	4139
925.602	4249
925.709	4265
925.816	4082
925.924	4162
926.031	4314
926.138	4242
926.245	4215
926.352	4150
926.459	4257
926.566	4409
926.673	4238
926.779	4131
926.886	4181
926.993	4025
927.099	4017
927.206	4040
927.312	3979
927.419	4173
927.525	4074
927.631	4200
927.737	4055
927.843	4021
927.95	3899
928.056	3968
928.162	4032
928.267	4086
928.373	4660
928.479	4162
928.585	3922
928.69	4071
928.796	4120
928.901	4048
929.007	3892
929.112	4090
929.218	4044
929.323	3991
929.428	3979
929.533	4166
929.638	3926
929.743	4013
929.848	4105
929.953	4048
930.058	4010
930.163	3857
930.267	3869
930.372	4021
930.477	3876
930.581	4181
930.685	3994
930.79	3861
930.894	3880
930.998	3896
931.103	4105
931.207	3778
931.311	3747
931.415	3759
931.519	3587
931.623	3599
