Data from test_V78500241_1580.txt Node
Date: Fri Mar 25 16:59:59 CST 2022
User: usil
Spectrometer: V785-0024
Trigger mode: 0
Integration Time (sec): 4.000000E-1
Scans to average: 1
Nonlinearity correction enabled: false
Boxcar width: 0
Storing dark spectrum: false
XAxis mode: Wavelengths
Number of Pixels in Spectrum: 1024
>>>>>Begin Spectral Data<<<<<
801.071	8027
801.214	8024
801.356	7849
801.499	7849
801.641	7757
801.783	7837
801.926	7932
802.068	7970
802.211	8016
802.353	7906
802.496	7852
802.638	7879
802.78	7856
802.923	7917
803.065	7845
803.208	7799
803.35	7955
803.492	8065
803.635	8134
803.777	8008
803.919	8145
804.061	8438
804.204	8145
804.346	8039
804.488	7928
804.63	8062
804.773	7978
804.915	8138
805.057	8267
805.199	8202
805.341	8240
805.483	8206
805.626	8176
805.768	8050
805.91	8210
806.052	8187
806.194	8138
806.336	8301
806.478	8084
806.62	8054
806.762	8126
806.904	8256
807.046	8476
807.188	8404
807.33	8248
807.472	8355
807.614	8191
807.756	8130
807.898	7955
808.04	7765
808.182	7852
808.324	7868
808.465	7928
808.607	8069
808.749	8065
808.891	8149
809.033	8313
809.174	8149
809.316	8073
809.458	8035
809.6	7989
809.741	7936
809.883	8027
810.025	8077
810.166	8084
810.308	7970
810.45	8016
810.591	7799
810.733	7685
810.875	7632
811.016	7563
811.158	7457
811.299	7590
811.441	7750
811.582	7700
811.724	7575
811.865	7548
812.007	7533
812.148	7575
812.29	7601
812.431	7715
812.573	7894
812.714	7955
812.855	8084
812.997	8191
813.138	8271
813.279	8240
813.421	8092
813.562	7917
813.703	7841
813.845	7674
813.986	7381
814.127	7266
814.268	7152
814.41	7171
814.551	7122
814.692	7179
814.833	7107
814.974	7065
815.115	7088
815.256	6989
815.397	6909
815.539	6913
815.68	6802
815.821	6753
815.962	6825
816.103	6829
816.244	6722
816.385	6570
816.526	6620
816.666	6498
816.807	6273
816.948	6429
817.089	6407
817.23	6372
817.371	6304
817.512	6334
817.653	6365
817.793	6334
817.934	6399
818.075	6426
818.216	6342
818.356	6418
818.497	6262
818.638	6167
818.778	6114
818.919	6194
819.06	6129
819.2	6300
819.341	6296
819.481	6315
819.622	6479
819.762	6703
819.903	6681
820.043	6597
820.184	6555
820.324	6578
820.465	6669
820.605	6639
820.746	6654
820.886	6490
821.026	6707
821.167	6703
821.307	6745
821.447	6726
821.588	6642
821.728	6620
821.868	6494
822.008	6266
822.149	6327
822.289	6369
822.429	6140
822.569	6045
822.709	6110
822.849	5935
822.99	5912
823.13	5912
823.27	5897
823.41	5790
823.55	5741
823.69	5752
823.83	5760
823.97	5649
824.11	5520
824.25	5436
824.389	5535
824.529	5630
824.669	5551
824.809	5573
824.949	5630
825.089	5615
825.228	5573
825.368	5364
825.508	5315
825.648	5322
825.787	5364
825.927	5357
826.067	5284
826.206	5296
826.346	5406
826.485	5357
826.625	5364
826.765	5554
826.904	5414
827.044	5242
827.183	5155
827.323	5117
827.462	5239
827.601	5147
827.741	5132
827.88	5208
828.02	5109
828.159	5189
828.298	5280
828.437	5349
828.577	5280
828.716	5459
828.855	5277
828.994	5128
829.134	5128
829.273	5166
829.412	5155
829.551	5086
829.69	5159
829.829	5227
829.968	5372
830.107	5250
830.246	5261
830.385	5170
830.524	5117
830.663	5075
830.802	4965
830.941	4862
831.08	4881
831.219	4980
831.357	4984
831.496	5105
831.635	4896
831.774	4858
831.913	4843
832.051	4778
832.19	4698
832.329	4828
832.467	4714
832.606	4637
832.744	4721
832.883	4706
833.022	4752
833.16	4744
833.299	4801
833.437	4793
833.576	4824
833.714	4778
833.852	4873
833.991	4866
834.129	4927
834.267	4965
834.406	4885
834.544	4927
834.682	4980
834.821	4915
834.959	5121
835.097	4984
835.235	5147
835.373	5071
835.511	5113
835.65	5060
835.788	5025
835.926	4854
836.064	4877
836.202	4885
836.34	5109
836.478	5181
836.615	5071
836.753	5212
836.891	5315
837.029	5277
837.167	5189
837.305	5201
837.443	5132
837.58	5056
837.718	5197
837.856	5220
837.993	5109
838.131	5204
838.269	5201
838.406	5208
838.544	5147
838.681	5006
838.819	4961
838.956	4877
839.094	4900
839.231	4976
839.369	5056
839.506	5417
839.643	5212
839.781	5086
839.918	5079
840.055	5090
840.193	5060
840.33	5098
840.467	5121
840.604	5136
840.742	5425
840.879	5098
841.016	5067
841.153	5151
841.29	5334
841.427	5360
841.564	5273
841.701	5345
841.838	5318
841.975	5212
842.112	5265
842.249	5147
842.385	5124
842.522	5284
842.659	5113
842.796	5113
842.933	5193
843.069	5132
843.206	5128
843.343	5284
843.479	5216
843.616	5235
843.752	5025
843.889	4999
844.025	5201
844.162	4984
844.298	5178
844.435	5022
844.571	5105
844.708	5197
844.844	5307
844.98	5299
845.117	5242
845.253	5025
845.389	5056
845.525	5140
845.661	5090
845.798	5022
845.934	5086
846.07	5003
846.206	5166
846.342	5231
846.478	5117
846.614	5014
846.75	4965
846.886	4873
847.022	5083
847.158	5022
847.294	5102
847.429	5090
847.565	5033
847.701	5307
847.837	4835
847.972	4824
848.108	4987
848.244	4889
848.379	4809
848.515	4733
848.65	4710
848.786	4778
848.921	4733
849.057	4885
849.192	4934
849.328	4790
849.463	4828
849.598	4831
849.734	4763
849.869	4725
850.004	4622
850.14	4736
850.275	4637
850.41	4561
850.545	4565
850.68	4615
850.815	4618
850.95	4645
851.085	4835
851.22	4763
851.355	4668
851.49	4577
851.625	4691
851.76	4710
851.895	4542
852.03	4618
852.165	4706
852.299	4752
852.434	4858
852.569	4767
852.703	4801
852.838	4854
852.973	4976
853.107	4927
853.242	4774
853.376	4740
853.511	4565
853.645	4660
853.78	4805
853.914	4721
854.048	4721
854.183	4710
854.317	4729
854.451	4885
854.585	4675
854.72	4649
854.854	4782
854.988	4615
855.122	4698
855.256	4542
855.39	4740
855.524	4778
855.658	4778
855.792	4736
855.926	4740
856.06	4801
856.194	4843
856.327	4767
856.461	4653
856.595	4664
856.729	4630
856.862	4778
856.996	4748
857.13	4725
857.263	4755
857.397	4797
857.53	4717
857.664	4805
857.797	4786
857.931	4850
858.064	4717
858.197	4748
858.331	4649
858.464	4618
858.597	4519
858.731	4656
858.864	4653
858.997	4645
859.13	4668
859.263	4736
859.396	4744
859.529	4653
859.662	4615
859.795	4565
859.928	4622
860.061	4793
860.194	4801
860.327	4683
860.46	4588
860.592	4714
860.725	4767
860.858	4725
860.99	4615
861.123	4569
861.256	4558
861.388	4634
861.521	5303
861.653	4512
861.786	4485
861.918	4508
862.05	4577
862.183	4531
862.315	4603
862.447	4675
862.58	4656
862.712	4436
862.844	4360
862.976	4527
863.108	4485
863.24	4774
863.372	4394
863.504	4478
863.636	4409
863.768	4531
863.9	4451
864.032	4405
864.164	4402
864.296	4447
864.428	4569
864.559	4641
864.691	4538
864.823	4455
864.954	4478
865.086	4538
865.217	4504
865.349	4432
865.48	4516
865.612	4500
865.743	4664
865.875	4455
866.006	4485
866.137	4478
866.269	4493
866.4	4481
866.531	4474
866.662	4394
866.793	4447
866.924	4413
867.055	4489
867.186	4447
867.317	4409
867.448	4405
867.579	4455
867.71	4421
867.841	4424
867.972	4527
868.103	4516
868.233	4470
868.364	4519
868.495	4504
868.625	4706
868.756	4736
868.886	4603
869.017	4656
869.147	4797
869.278	4812
869.408	4683
869.539	4702
869.669	4649
869.799	4706
869.929	4767
870.06	4790
870.19	5006
870.32	4908
870.45	4976
870.58	4999
870.71	5094
870.84	5140
870.97	4999
871.1	4904
871.23	5159
871.36	5098
871.489	5003
871.619	5113
871.749	5159
871.879	5166
872.008	5189
872.138	5037
872.267	4991
872.397	4892
872.526	4843
872.656	4759
872.785	4816
872.915	4984
873.044	5056
873.173	4957
873.303	5022
873.432	4953
873.561	4957
873.69	4896
873.819	4919
873.948	4942
874.077	4847
874.206	4824
874.335	4816
874.464	4965
874.593	5083
874.722	4999
874.851	5136
874.979	5136
875.108	5052
875.237	4938
875.365	4946
875.494	4942
875.623	5003
875.751	4854
875.88	4870
876.008	5041
876.136	5041
876.265	5246
876.393	5357
876.521	5250
876.65	5265
876.778	5166
876.906	5083
877.034	5018
877.162	5094
877.29	4980
877.418	5113
877.546	5075
877.674	5098
877.802	5041
877.93	5079
878.058	4949
878.185	4904
878.313	4976
878.441	4965
878.568	4850
878.696	4866
878.824	4946
878.951	4995
879.079	5189
879.206	5280
879.333	5151
879.461	5052
879.588	5075
879.715	5181
879.842	5231
879.97	5037
880.097	4820
880.224	4793
880.351	4801
880.478	4866
880.605	4790
880.732	4839
880.859	5067
880.986	4972
881.112	4972
881.239	4797
881.366	4729
881.493	4626
881.619	4611
881.746	4664
881.872	4683
881.999	4694
882.125	4702
882.252	4805
882.378	4850
882.505	4976
882.631	4797
882.757	4694
882.883	4801
883.01	4755
883.136	4717
883.262	4641
883.388	4653
883.514	4873
883.64	4881
883.766	4793
883.892	4691
884.018	4752
884.143	4923
884.269	5029
884.395	4668
884.52	4603
884.646	4645
884.772	4603
884.897	4558
885.023	4653
885.148	4782
885.274	4873
885.399	4828
885.524	4733
885.65	4706
885.775	4748
885.9	4679
886.025	4896
886.15	4774
886.275	4748
886.4	4656
886.525	4767
886.65	4683
886.775	4733
886.9	4923
887.025	5052
887.149	4782
887.274	4702
887.399	4584
887.523	4653
887.648	4615
887.773	4664
887.897	4793
888.021	4828
888.146	4710
888.27	4839
888.395	4911
888.519	4809
888.643	4812
888.767	4870
888.891	4717
889.015	4634
889.139	4618
889.263	4592
889.387	4797
889.511	4889
889.635	4820
889.759	4656
889.883	4679
890.006	4710
890.13	4850
890.254	4565
890.377	4717
890.501	4512
890.624	4508
890.748	4641
890.871	4516
890.995	4436
891.118	4409
891.241	4558
891.364	4550
891.488	4641
891.611	4500
891.734	4565
891.857	4675
891.98	4558
892.103	4698
892.226	4615
892.349	4565
892.471	4432
892.594	4603
892.717	4607
892.839	4653
892.962	4649
893.085	4675
893.207	4573
893.33	4459
893.452	4561
893.575	4687
893.697	4615
893.819	4866
893.941	4858
894.064	4755
894.186	4622
894.308	4580
894.43	4778
894.552	4801
894.674	4748
894.796	4546
894.918	4569
895.04	4577
895.161	4725
895.283	4649
895.405	4527
895.526	4645
895.648	4691
895.769	4710
895.891	4740
896.012	4771
896.134	4725
896.255	4694
896.376	4626
896.498	4615
896.619	4656
896.74	4630
896.861	4622
896.982	4949
897.103	5090
897.224	4850
897.345	4748
897.466	4672
897.587	4771
897.708	4858
897.828	4786
897.949	4683
898.07	4558
898.19	4649
898.311	4850
898.431	4725
898.552	4698
898.672	4831
898.792	4824
898.913	4755
899.033	4653
899.153	4550
899.273	4436
899.393	4558
899.513	4512
899.633	4565
899.753	4588
899.873	4527
899.993	4630
900.113	4523
900.232	4618
900.352	4596
900.472	4512
900.591	4459
900.711	4478
900.83	4451
900.95	4618
901.069	4710
901.189	4519
901.308	4371
901.427	4322
901.546	4363
901.665	4481
901.784	4535
901.904	4413
902.023	4329
902.141	4204
902.26	4204
902.379	4329
902.498	4185
902.617	4223
902.735	4333
902.854	4481
902.973	4318
903.091	4211
903.21	4223
903.328	4299
903.446	4200
903.565	4246
903.683	4394
903.801	4318
903.919	4405
904.038	4421
904.156	4352
904.274	4447
904.392	4417
904.51	4428
904.627	4478
904.745	4569
904.863	4641
904.981	4428
905.098	4341
905.216	4394
905.334	4383
905.451	4462
905.569	4432
905.686	4558
905.803	4626
905.921	4428
906.038	4569
906.155	4478
906.272	4421
906.389	4474
906.506	4352
906.623	4417
906.74	4394
906.857	4310
906.974	4348
907.091	4577
907.208	4637
907.324	4588
907.441	4531
907.557	4379
907.674	4383
907.79	4337
907.907	4428
908.023	4508
908.139	4508
908.256	4421
908.372	4481
908.488	4432
908.604	4348
908.72	4348
908.836	4390
908.952	4348
909.068	4386
909.184	4565
909.3	4516
909.415	4596
909.531	4542
909.647	4363
909.762	4386
909.878	4314
909.993	4409
910.108	4497
910.224	4398
910.339	4459
910.454	4459
910.57	4356
910.685	4341
910.8	4660
910.915	4626
911.03	4523
911.145	4291
911.259	4337
911.374	4386
911.489	4303
911.604	4291
911.718	4200
911.833	4169
911.947	4097
912.062	4040
912.176	4188
912.291	4207
912.405	4291
912.519	4550
912.633	4523
912.748	4394
912.862	4310
912.976	4185
913.09	4105
913.204	4173
913.318	4223
913.431	4375
913.545	4398
913.659	4421
913.772	4360
913.886	4261
914	4295
914.113	4428
914.226	4462
914.34	4390
914.453	4318
914.566	4451
914.68	4303
914.793	4337
914.906	4219
915.019	4128
915.132	4055
915.245	4188
915.358	4230
915.47	4276
915.583	4310
915.696	4329
915.809	4417
915.921	4402
916.034	4291
916.146	4276
916.259	4230
916.371	4405
916.483	4360
916.595	4284
916.708	4352
916.82	4310
916.932	4363
917.044	4383
917.156	4371
917.268	4287
917.38	4276
917.491	4306
917.603	4383
917.715	4424
917.826	4459
917.938	4398
918.049	4257
918.161	4470
918.272	4569
918.384	4516
918.495	4474
918.606	4341
918.717	4272
918.828	4348
918.939	4440
919.05	4276
919.161	4322
919.272	4166
919.383	4329
919.494	4470
919.604	4649
919.715	4455
919.826	4398
919.936	4421
920.047	4580
920.157	4573
920.267	4733
920.378	4569
920.488	4558
920.598	4748
920.708	4957
920.818	4767
920.928	4790
921.038	4984
921.148	4976
921.258	4664
921.368	4637
921.477	4565
921.587	4459
921.697	4424
921.806	4588
921.916	4432
922.025	4337
922.134	4306
922.244	4257
922.353	4379
922.462	4188
922.571	4211
922.68	4029
922.789	4006
922.898	4082
923.007	4044
923.116	4154
923.224	4105
923.333	4109
923.442	4040
923.55	4006
923.659	4063
923.767	4097
923.876	4044
923.984	4169
924.092	4013
924.201	4112
924.309	4093
924.417	4200
924.525	4124
924.633	4185
924.741	4885
924.849	3956
924.956	4158
925.064	3994
925.172	3918
925.279	4040
925.387	4101
925.494	4071
925.602	4261
925.709	4204
925.816	4097
925.924	4188
926.031	4280
926.138	4196
926.245	4166
926.352	4109
926.459	4333
926.566	4386
926.673	4211
926.779	4116
926.886	4120
926.993	4025
927.099	4036
927.206	3968
927.312	3994
927.419	4078
927.525	4059
927.631	4169
927.737	3968
927.843	3926
927.95	3892
928.056	4006
928.162	4021
928.267	4101
928.373	4615
928.479	4139
928.585	3896
928.69	4025
928.796	4097
928.901	4010
929.007	3869
929.112	4082
929.218	3994
929.323	3972
929.428	3972
929.533	4131
929.638	3953
929.743	3987
929.848	4128
929.953	3991
930.058	3937
930.163	3835
930.267	3854
930.372	4013
930.477	3827
930.581	4109
930.685	3953
930.79	3892
930.894	3869
930.998	3896
931.103	4067
931.207	3751
931.311	3747
931.415	3690
931.519	3564
931.623	3614
