Data from test_V78500241_714.txt Node
Date: Fri Mar 25 16:53:57 CST 2022
User: usil
Spectrometer: V785-0024
Trigger mode: 0
Integration Time (sec): 4.000000E-1
Scans to average: 1
Nonlinearity correction enabled: false
Boxcar width: 0
Storing dark spectrum: false
XAxis mode: Wavelengths
Number of Pixels in Spectrum: 1024
>>>>>Begin Spectral Data<<<<<
801.071	7959
801.214	7967
801.356	7883
801.499	7784
801.641	7772
801.783	7803
801.926	7989
802.068	7940
802.211	7936
802.353	7982
802.496	7845
802.638	7894
802.78	7909
802.923	7921
803.065	7871
803.208	7841
803.35	7989
803.492	8054
803.635	8168
803.777	7993
803.919	8142
804.061	8434
804.204	8149
804.346	7974
804.488	7951
804.63	8088
804.773	8062
804.915	8027
805.057	8263
805.199	8149
805.341	8130
805.483	8202
805.626	8248
805.768	8119
805.91	8134
806.052	8259
806.194	8054
806.336	8214
806.478	8077
806.62	8012
806.762	8123
806.904	8248
807.046	8465
807.188	8294
807.33	8229
807.472	8328
807.614	8149
807.756	8054
807.898	7928
808.04	7841
808.182	7788
808.324	7860
808.465	7826
808.607	8008
808.749	8050
808.891	8202
809.033	8294
809.174	8202
809.316	8039
809.458	8058
809.6	7963
809.741	8001
809.883	8024
810.025	8065
810.166	8058
810.308	8027
810.45	8050
810.591	7898
810.733	7772
810.875	7689
811.016	7483
811.158	7510
811.299	7540
811.441	7719
811.582	7624
811.724	7575
811.865	7540
812.007	7586
812.148	7597
812.29	7537
812.431	7704
812.573	7826
812.714	7917
812.855	8100
812.997	8218
813.138	8286
813.279	8180
813.421	8134
813.562	7940
813.703	7883
813.845	7776
813.986	7468
814.127	7274
814.268	7213
814.41	7247
814.551	7088
814.692	7129
814.833	7027
814.974	7137
815.115	7069
815.256	6985
815.397	6977
815.539	6973
815.68	6894
815.821	6825
815.962	6867
816.103	6802
816.244	6734
816.385	6639
816.526	6570
816.666	6452
816.807	6315
816.948	6410
817.089	6490
817.23	6445
817.371	6388
817.512	6403
817.653	6403
817.793	6372
817.934	6418
818.075	6445
818.216	6471
818.356	6346
818.497	6213
818.638	6114
818.778	6125
818.919	6155
819.06	6110
819.2	6327
819.341	6376
819.481	6327
819.622	6517
819.762	6700
819.903	6639
820.043	6578
820.184	6547
820.324	6517
820.465	6654
820.605	6650
820.746	6585
820.886	6456
821.026	6528
821.167	6715
821.307	6798
821.447	6719
821.588	6662
821.728	6544
821.868	6441
822.008	6247
822.149	6331
822.289	6323
822.429	6216
822.569	6019
822.709	6098
822.849	5942
822.99	5931
823.13	5893
823.27	5908
823.41	5786
823.55	5775
823.69	5745
823.83	5794
823.97	5699
824.11	5535
824.25	5532
824.389	5592
824.529	5532
824.669	5524
824.809	5608
824.949	5657
825.089	5600
825.228	5516
825.368	5391
825.508	5269
825.648	5326
825.787	5345
825.927	5349
826.067	5277
826.206	5315
826.346	5402
826.485	5349
826.625	5315
826.765	5520
826.904	5395
827.044	5235
827.183	5265
827.323	5098
827.462	5185
827.601	5159
827.741	5162
827.88	5212
828.02	5098
828.159	5181
828.298	5273
828.437	5315
828.577	5311
828.716	5455
828.855	5330
828.994	5151
829.134	5193
829.273	5166
829.412	5140
829.551	5105
829.69	5174
829.829	5189
829.968	5326
830.107	5269
830.246	5273
830.385	5155
830.524	5109
830.663	5064
830.802	4965
830.941	4911
831.08	4881
831.219	4953
831.357	5003
831.496	5109
831.635	4919
831.774	4843
831.913	4847
832.051	4721
832.19	4721
832.329	4835
832.467	4702
832.606	4618
832.744	4740
832.883	4782
833.022	4725
833.16	4786
833.299	4793
833.437	4805
833.576	4824
833.714	4858
833.852	4812
833.991	4904
834.129	4953
834.267	4927
834.406	4885
834.544	4987
834.682	5010
834.821	4965
834.959	5128
835.097	4972
835.235	5124
835.373	5083
835.511	5143
835.65	5010
835.788	5025
835.926	4854
836.064	4930
836.202	4923
836.34	5178
836.478	5273
836.615	5128
836.753	5216
836.891	5296
837.029	5261
837.167	5174
837.305	5128
837.443	5121
837.58	5048
837.718	5239
837.856	5181
837.993	5124
838.131	5204
838.269	5170
838.406	5204
838.544	5185
838.681	5041
838.819	5010
838.956	4911
839.094	4927
839.231	5010
839.369	5124
839.506	5398
839.643	5250
839.781	5079
839.918	5018
840.055	5105
840.193	5098
840.33	5079
840.467	5189
840.604	5193
840.742	5448
840.879	5075
841.016	5090
841.153	5132
841.29	5345
841.427	5337
841.564	5273
841.701	5337
841.838	5197
841.975	5212
842.112	5246
842.249	5143
842.385	5045
842.522	5273
842.659	5227
842.796	5178
842.933	5159
843.069	5178
843.206	5170
843.343	5273
843.479	5242
843.616	5223
843.752	5045
843.889	4972
844.025	5212
844.162	4980
844.298	5204
844.435	5083
844.571	5067
844.708	5201
844.844	5311
844.98	5349
845.117	5280
845.253	5155
845.389	5098
845.525	5159
845.661	5121
845.798	4999
845.934	5151
846.07	4980
846.206	5170
846.342	5261
846.478	5166
846.614	5003
846.75	4949
846.886	4892
847.022	5162
847.158	4976
847.294	5025
847.429	5098
847.565	5025
847.701	5303
847.837	4877
847.972	4771
848.108	4957
848.244	4915
848.379	4771
848.515	4729
848.65	4706
848.786	4675
848.921	4759
849.057	4828
849.192	4892
849.328	4805
849.463	4805
849.598	4782
849.734	4725
849.869	4672
850.004	4611
850.14	4626
850.275	4626
850.41	4565
850.545	4573
850.68	4599
850.815	4584
850.95	4607
851.085	4843
851.22	4729
851.355	4618
851.49	4630
851.625	4645
851.76	4660
851.895	4561
852.03	4531
852.165	4611
852.299	4748
852.434	4767
852.569	4755
852.703	4729
852.838	4847
852.973	4949
853.107	4873
853.242	4702
853.376	4679
853.511	4542
853.645	4569
853.78	4778
853.914	4675
854.048	4660
854.183	4584
854.317	4710
854.451	4885
854.585	4675
854.72	4599
854.854	4729
854.988	4535
855.122	4626
855.256	4485
855.39	4668
855.524	4793
855.658	4683
855.792	4672
855.926	4736
856.06	4782
856.194	4752
856.327	4641
856.461	4569
856.595	4569
856.729	4668
856.862	4706
856.996	4626
857.13	4740
857.263	4790
857.397	4748
857.53	4615
857.664	4664
857.797	4744
857.931	4820
858.064	4656
858.197	4733
858.331	4664
858.464	4634
858.597	4542
858.731	4599
858.864	4668
858.997	4573
859.13	4637
859.263	4649
859.396	4649
859.529	4535
859.662	4558
859.795	4561
859.928	4599
860.061	4733
860.194	4733
860.327	4584
860.46	4542
860.592	4641
860.725	4687
860.858	4714
860.99	4603
861.123	4531
861.256	4519
861.388	4596
861.521	5421
861.653	4466
861.786	4462
861.918	4443
862.05	4481
862.183	4519
862.315	4596
862.447	4656
862.58	4508
862.712	4379
862.844	4329
862.976	4497
863.108	4409
863.24	4854
863.372	4314
863.504	4409
863.636	4363
863.768	4481
863.9	4485
864.032	4337
864.164	4344
864.296	4455
864.428	4493
864.559	4531
864.691	4546
864.823	4519
864.954	4455
865.086	4508
865.217	4455
865.349	4390
865.48	4459
865.612	4504
865.743	4626
865.875	4466
866.006	4447
866.137	4455
866.269	4413
866.4	4413
866.531	4375
866.662	4371
866.793	4443
866.924	4379
867.055	4470
867.186	4424
867.317	4402
867.448	4383
867.579	4379
867.71	4398
867.841	4371
867.972	4432
868.103	4432
868.233	4451
868.364	4440
868.495	4500
868.625	4626
868.756	4740
868.886	4546
869.017	4645
869.147	4733
869.278	4778
869.408	4622
869.539	4615
869.669	4698
869.799	4634
869.929	4755
870.06	4774
870.19	4877
870.32	4889
870.45	4934
870.58	4991
870.71	5060
870.84	5064
870.97	4968
871.1	4930
871.23	5143
871.36	5121
871.489	5025
871.619	5079
871.749	5071
871.879	5181
872.008	5128
872.138	5045
872.267	4957
872.397	4889
872.526	4767
872.656	4721
872.785	4805
872.915	4949
873.044	4965
873.173	4965
873.303	4980
873.432	4957
873.561	4965
873.69	4877
873.819	4885
873.948	4881
874.077	4793
874.206	4774
874.335	4782
874.464	4885
874.593	5052
874.722	4930
874.851	5105
874.979	5071
875.108	5102
875.237	4934
875.365	4900
875.494	4889
875.623	4942
875.751	4778
875.88	4858
876.008	4927
876.136	5056
876.265	5181
876.393	5288
876.521	5246
876.65	5189
876.778	5109
876.906	5041
877.034	4946
877.162	5014
877.29	4991
877.418	5113
877.546	4965
877.674	5022
877.802	5029
877.93	4953
878.058	4896
878.185	4870
878.313	4919
878.441	4919
878.568	4812
878.696	4870
878.824	4889
878.951	4995
879.079	5124
879.206	5254
879.333	5086
879.461	4949
879.588	5041
879.715	5105
879.842	5189
879.97	4965
880.097	4763
880.224	4767
880.351	4873
880.478	4786
880.605	4793
880.732	4782
880.859	5045
880.986	4828
881.112	4904
881.239	4729
881.366	4672
881.493	4592
881.619	4569
881.746	4603
881.872	4607
881.999	4615
882.125	4698
882.252	4740
882.378	4774
882.505	4915
882.631	4831
882.757	4668
882.883	4744
883.01	4752
883.136	4645
883.262	4607
883.388	4596
883.514	4835
883.64	4828
883.766	4797
883.892	4687
884.018	4710
884.143	4873
884.269	5033
884.395	4702
884.52	4596
884.646	4672
884.772	4596
884.897	4542
885.023	4634
885.148	4763
885.274	4862
885.399	4839
885.524	4767
885.65	4694
885.775	4763
885.9	4733
886.025	4892
886.15	4782
886.275	4771
886.4	4683
886.525	4748
886.65	4748
886.775	4706
886.9	4915
887.025	5094
887.149	4858
887.274	4691
887.399	4630
887.523	4611
887.648	4641
887.773	4599
887.897	4809
888.021	4809
888.146	4683
888.27	4820
888.395	4911
888.519	4839
888.643	4862
888.767	4885
888.891	4702
889.015	4618
889.139	4675
889.263	4615
889.387	4793
889.511	4949
889.635	4809
889.759	4725
889.883	4702
890.006	4801
890.13	4866
890.254	4687
890.377	4748
890.501	4542
890.624	4584
890.748	4634
890.871	4569
890.995	4470
891.118	4428
891.241	4523
891.364	4599
891.488	4626
891.611	4542
891.734	4615
891.857	4618
891.98	4592
892.103	4679
892.226	4630
892.349	4550
892.471	4447
892.594	4588
892.717	4596
892.839	4618
892.962	4607
893.085	4714
893.207	4615
893.33	4508
893.452	4558
893.575	4725
893.697	4603
893.819	4866
893.941	4866
894.064	4843
894.186	4577
894.308	4603
894.43	4759
894.552	4843
894.674	4694
894.796	4596
894.918	4656
895.04	4656
895.161	4736
895.283	4656
895.405	4596
895.526	4641
895.648	4698
895.769	4691
895.891	4752
896.012	4828
896.134	4771
896.255	4710
896.376	4660
896.498	4645
896.619	4717
896.74	4596
896.861	4679
896.982	4927
897.103	5045
897.224	4881
897.345	4801
897.466	4683
897.587	4748
897.708	4904
897.828	4831
897.949	4664
898.07	4599
898.19	4622
898.311	4889
898.431	4717
898.552	4748
898.672	4793
898.792	4820
898.913	4771
899.033	4653
899.153	4577
899.273	4470
899.393	4493
899.513	4508
899.633	4512
899.753	4531
899.873	4542
899.993	4580
900.113	4577
900.232	4599
900.352	4569
900.472	4542
900.591	4405
900.711	4504
900.83	4443
900.95	4649
901.069	4736
901.189	4550
901.308	4402
901.427	4341
901.546	4390
901.665	4531
901.784	4504
901.904	4417
902.023	4325
902.141	4238
902.26	4223
902.379	4337
902.498	4325
902.617	4242
902.735	4352
902.854	4386
902.973	4375
903.091	4242
903.21	4268
903.328	4333
903.446	4280
903.565	4310
903.683	4405
903.801	4310
903.919	4424
904.038	4485
904.156	4310
904.274	4470
904.392	4413
904.51	4451
904.627	4466
904.745	4592
904.863	4599
904.981	4352
905.098	4344
905.216	4424
905.334	4447
905.451	4466
905.569	4485
905.686	4580
905.803	4626
905.921	4436
906.038	4580
906.155	4500
906.272	4440
906.389	4459
906.506	4363
906.623	4394
906.74	4417
906.857	4337
906.974	4386
907.091	4558
907.208	4702
907.324	4649
907.441	4535
907.557	4375
907.674	4413
907.79	4375
907.907	4451
908.023	4493
908.139	4489
908.256	4478
908.372	4493
908.488	4485
908.604	4360
908.72	4341
908.836	4394
908.952	4424
909.068	4421
909.184	4645
909.3	4493
909.415	4649
909.531	4615
909.647	4367
909.762	4386
909.878	4390
909.993	4451
910.108	4402
910.224	4443
910.339	4497
910.454	4413
910.57	4379
910.685	4299
910.8	4706
910.915	4649
911.03	4493
911.145	4371
911.259	4344
911.374	4390
911.489	4322
911.604	4295
911.718	4219
911.833	4280
911.947	4112
912.062	4055
912.176	4223
912.291	4249
912.405	4246
912.519	4512
912.633	4504
912.748	4379
912.862	4329
912.976	4249
913.09	4131
913.204	4181
913.318	4265
913.431	4432
913.545	4409
913.659	4474
913.772	4348
913.886	4234
914	4242
914.113	4402
914.226	4500
914.34	4390
914.453	4295
914.566	4432
914.68	4348
914.793	4303
914.906	4181
915.019	4177
915.132	4093
915.245	4181
915.358	4310
915.47	4276
915.583	4303
915.696	4344
915.809	4478
915.921	4413
916.034	4268
916.146	4310
916.259	4299
916.371	4417
916.483	4386
916.595	4280
916.708	4306
916.82	4333
916.932	4352
917.044	4360
917.156	4318
917.268	4253
917.38	4287
917.491	4268
917.603	4360
917.715	4424
917.826	4523
917.938	4402
918.049	4325
918.161	4405
918.272	4580
918.384	4558
918.495	4485
918.606	4314
918.717	4249
918.828	4363
918.939	4398
919.05	4287
919.161	4337
919.272	4166
919.383	4291
919.494	4459
919.604	4607
919.715	4421
919.826	4310
919.936	4428
920.047	4531
920.157	4516
920.267	4755
920.378	4550
920.488	4531
920.598	4740
920.708	4927
920.818	4744
920.928	4771
921.038	4923
921.148	4942
921.258	4653
921.368	4599
921.477	4500
921.587	4485
921.697	4443
921.806	4580
921.916	4428
922.025	4284
922.134	4299
922.244	4265
922.353	4356
922.462	4223
922.571	4128
922.68	4032
922.789	4032
922.898	4086
923.007	4032
923.116	4128
923.224	4082
923.333	4109
923.442	3998
923.55	4010
923.659	4036
923.767	4124
923.876	3987
923.984	4173
924.092	4006
924.201	4109
924.309	4109
924.417	4154
924.525	4078
924.633	4120
924.741	5056
924.849	3922
924.956	4185
925.064	3994
925.172	3888
925.279	4017
925.387	4078
925.494	4105
925.602	4246
925.709	4173
925.816	4112
925.924	4135
926.031	4238
926.138	4192
926.245	4200
926.352	4128
926.459	4272
926.566	4325
926.673	4158
926.779	4101
926.886	4086
926.993	4055
927.099	3983
927.206	4002
927.312	3922
927.419	4040
927.525	4044
927.631	4131
927.737	3930
927.843	4021
927.95	3892
928.056	3926
928.162	3991
928.267	4082
928.373	4687
928.479	4139
928.585	3899
928.69	4025
928.796	4086
928.901	3956
929.007	3888
929.112	4029
929.218	4059
929.323	3945
929.428	3975
929.533	4128
929.638	3911
929.743	3968
929.848	4051
929.953	4021
930.058	3953
930.163	3774
930.267	3823
930.372	3991
930.477	3838
930.581	4116
930.685	3979
930.79	3816
930.894	3899
930.998	3896
931.103	4071
931.207	3740
931.311	3701
931.415	3679
931.519	3580
931.623	3572
