Data from test_V78500241_1859.txt Node
Date: Fri Mar 25 17:01:55 CST 2022
User: usil
Spectrometer: V785-0024
Trigger mode: 0
Integration Time (sec): 4.000000E-1
Scans to average: 1
Nonlinearity correction enabled: false
Boxcar width: 0
Storing dark spectrum: false
XAxis mode: Wavelengths
Number of Pixels in Spectrum: 1024
>>>>>Begin Spectral Data<<<<<
801.071	8001
801.214	8024
801.356	7792
801.499	7860
801.641	7803
801.783	7879
801.926	8039
802.068	7974
802.211	8008
802.353	8096
802.496	7909
802.638	7871
802.78	7970
802.923	8035
803.065	7936
803.208	7890
803.35	7989
803.492	8111
803.635	8183
803.777	8016
803.919	8199
804.061	8473
804.204	8157
804.346	8157
804.488	7944
804.63	8126
804.773	8096
804.915	8123
805.057	8328
805.199	8210
805.341	8282
805.483	8199
805.626	8271
805.768	8134
805.91	8267
806.052	8210
806.194	8142
806.336	8317
806.478	8138
806.62	8084
806.762	8172
806.904	8271
807.046	8419
807.188	8454
807.33	8332
807.472	8332
807.614	8168
807.756	8191
807.898	8073
808.04	7902
808.182	7936
808.324	7951
808.465	7970
808.607	8119
808.749	8172
808.891	8286
809.033	8332
809.174	8256
809.316	8100
809.458	8100
809.6	8035
809.741	8073
809.883	8153
810.025	8161
810.166	8058
810.308	8081
810.45	8031
810.591	7902
810.733	7769
810.875	7693
811.016	7441
811.158	7537
811.299	7571
811.441	7784
811.582	7719
811.724	7601
811.865	7590
812.007	7624
812.148	7559
812.29	7609
812.431	7807
812.573	7917
812.714	8050
812.855	8153
812.997	8286
813.138	8385
813.279	8157
813.421	8172
813.562	7989
813.703	7788
813.845	7708
813.986	7453
814.127	7285
814.268	7194
814.41	7194
814.551	7206
814.692	7190
814.833	7065
814.974	7149
815.115	7190
815.256	6954
815.397	7019
815.539	6947
815.68	6810
815.821	6753
815.962	6890
816.103	6863
816.244	6783
816.385	6650
816.526	6620
816.666	6513
816.807	6376
816.948	6456
817.089	6498
817.23	6429
817.371	6407
817.512	6391
817.653	6426
817.793	6403
817.934	6422
818.075	6486
818.216	6429
818.356	6418
818.497	6304
818.638	6144
818.778	6129
818.919	6159
819.06	6159
819.2	6380
819.341	6384
819.481	6346
819.622	6506
819.762	6696
819.903	6700
820.043	6662
820.184	6616
820.324	6620
820.465	6700
820.605	6749
820.746	6673
820.886	6585
821.026	6665
821.167	6688
821.307	6791
821.447	6772
821.588	6696
821.728	6601
821.868	6509
822.008	6391
822.149	6369
822.289	6350
822.429	6224
822.569	6133
822.709	6144
822.849	6007
822.99	5965
823.13	5950
823.27	5954
823.41	5855
823.55	5802
823.69	5790
823.83	5783
823.97	5684
824.11	5524
824.25	5543
824.389	5512
824.529	5551
824.669	5532
824.809	5642
824.949	5668
825.089	5611
825.228	5596
825.368	5383
825.508	5364
825.648	5357
825.787	5353
825.927	5402
826.067	5368
826.206	5349
826.346	5372
826.485	5406
826.625	5467
826.765	5554
826.904	5482
827.044	5246
827.183	5239
827.323	5193
827.462	5235
827.601	5242
827.741	5246
827.88	5212
828.02	5147
828.159	5227
828.298	5349
828.437	5364
828.577	5307
828.716	5528
828.855	5322
828.994	5193
829.134	5147
829.273	5197
829.412	5201
829.551	5124
829.69	5193
829.829	5292
829.968	5383
830.107	5360
830.246	5277
830.385	5239
830.524	5170
830.663	5086
830.802	4984
830.941	4984
831.08	4892
831.219	5037
831.357	4980
831.496	5201
831.635	4919
831.774	4900
831.913	4828
832.051	4729
832.19	4748
832.329	4866
832.467	4740
832.606	4607
832.744	4752
832.883	4736
833.022	4740
833.16	4809
833.299	4820
833.437	4854
833.576	4824
833.714	4873
833.852	4904
833.991	4896
834.129	4961
834.267	4938
834.406	4866
834.544	5014
834.682	4984
834.821	5029
834.959	5204
835.097	4991
835.235	5166
835.373	5132
835.511	5147
835.65	5060
835.788	5071
835.926	4991
836.064	4885
836.202	4965
836.34	5193
836.478	5311
836.615	5185
836.753	5258
836.891	5318
837.029	5246
837.167	5242
837.305	5185
837.443	5128
837.58	5128
837.718	5288
837.856	5231
837.993	5113
838.131	5246
838.269	5250
838.406	5197
838.544	5178
838.681	5071
838.819	5075
838.956	4911
839.094	4900
839.231	4999
839.369	5045
839.506	5452
839.643	5246
839.781	5064
839.918	5060
840.055	5136
840.193	5052
840.33	5109
840.467	5170
840.604	5197
840.742	5440
840.879	5056
841.016	5098
841.153	5181
841.29	5349
841.427	5391
841.564	5280
841.701	5410
841.838	5231
841.975	5258
842.112	5288
842.249	5185
842.385	5128
842.522	5330
842.659	5261
842.796	5181
842.933	5117
843.069	5189
843.206	5162
843.343	5391
843.479	5258
843.616	5311
843.752	5018
843.889	5064
844.025	5212
844.162	5033
844.298	5208
844.435	5071
844.571	5113
844.708	5235
844.844	5288
844.98	5368
845.117	5284
845.253	5159
845.389	5075
845.525	5162
845.661	5181
845.798	5029
845.934	5102
846.07	5075
846.206	5197
846.342	5322
846.478	5170
846.614	5052
846.75	4976
846.886	4927
847.022	5181
847.158	5029
847.294	5033
847.429	5151
847.565	5025
847.701	5303
847.837	4866
847.972	4820
848.108	5018
848.244	4942
848.379	4797
848.515	4755
848.65	4740
848.786	4714
848.921	4839
849.057	4892
849.192	4873
849.328	4831
849.463	4831
849.598	4816
849.734	4786
849.869	4710
850.004	4611
850.14	4721
850.275	4622
850.41	4569
850.545	4577
850.68	4615
850.815	4641
850.95	4645
851.085	4786
851.22	4755
851.355	4672
851.49	4634
851.625	4649
851.76	4630
851.895	4554
852.03	4527
852.165	4679
852.299	4721
852.434	4778
852.569	4744
852.703	4774
852.838	4805
852.973	4938
853.107	4911
853.242	4793
853.376	4634
853.511	4596
853.645	4603
853.78	4843
853.914	4714
854.048	4691
854.183	4714
854.317	4694
854.451	4911
854.585	4729
854.72	4706
854.854	4714
854.988	4573
855.122	4637
855.256	4592
855.39	4698
855.524	4809
855.658	4759
855.792	4702
855.926	4771
856.06	4820
856.194	4812
856.327	4687
856.461	4675
856.595	4592
856.729	4660
856.862	4763
856.996	4721
857.13	4721
857.263	4748
857.397	4767
857.53	4660
857.664	4736
857.797	4744
857.931	4820
858.064	4668
858.197	4759
858.331	4649
858.464	4577
858.597	4546
858.731	4656
858.864	4618
858.997	4592
859.13	4645
859.263	4706
859.396	4687
859.529	4641
859.662	4569
859.795	4561
859.928	4622
860.061	4820
860.194	4729
860.327	4626
860.46	4573
860.592	4763
860.725	4710
860.858	4672
860.99	4603
861.123	4527
861.256	4535
861.388	4626
861.521	5402
861.653	4462
861.786	4500
861.918	4443
862.05	4519
862.183	4577
862.315	4599
862.447	4672
862.58	4512
862.712	4428
862.844	4303
862.976	4436
863.108	4417
863.24	4904
863.372	4314
863.504	4409
863.636	4417
863.768	4512
863.9	4451
864.032	4390
864.164	4459
864.296	4466
864.428	4573
864.559	4493
864.691	4523
864.823	4546
864.954	4504
865.086	4497
865.217	4512
865.349	4379
865.48	4504
865.612	4493
865.743	4630
865.875	4402
866.006	4428
866.137	4478
866.269	4497
866.4	4455
866.531	4440
866.662	4398
866.793	4421
866.924	4417
867.055	4489
867.186	4489
867.317	4443
867.448	4371
867.579	4424
867.71	4440
867.841	4375
867.972	4481
868.103	4451
868.233	4459
868.364	4508
868.495	4470
868.625	4672
868.756	4736
868.886	4558
869.017	4573
869.147	4816
869.278	4778
869.408	4653
869.539	4618
869.669	4710
869.799	4592
869.929	4714
870.06	4755
870.19	4953
870.32	4915
870.45	4930
870.58	4987
870.71	5143
870.84	5094
870.97	4972
871.1	4877
871.23	5090
871.36	5117
871.489	5029
871.619	5056
871.749	5109
871.879	5132
872.008	5208
872.138	5052
872.267	4999
872.397	4892
872.526	4850
872.656	4809
872.785	4774
872.915	4968
873.044	5022
873.173	4946
873.303	4930
873.432	4927
873.561	4987
873.69	4877
873.819	4896
873.948	4927
874.077	4850
874.206	4687
874.335	4790
874.464	4949
874.593	5037
874.722	4949
874.851	5094
874.979	5094
875.108	5041
875.237	4915
875.365	4930
875.494	4831
875.623	4934
875.751	4812
875.88	4866
876.008	4930
876.136	4987
876.265	5174
876.393	5341
876.521	5269
876.65	5288
876.778	5181
876.906	5124
877.034	5010
877.162	5090
877.29	5003
877.418	5018
877.546	4999
877.674	5029
877.802	5094
877.93	5010
878.058	4938
878.185	4843
878.313	4938
878.441	4908
878.568	4797
878.696	4911
878.824	4927
878.951	5003
879.079	5174
879.206	5250
879.333	5124
879.461	4987
879.588	4972
879.715	5124
879.842	5204
879.97	4972
880.097	4805
880.224	4797
880.351	4835
880.478	4847
880.605	4812
880.732	4778
880.859	5060
880.986	4881
881.112	4942
881.239	4801
881.366	4664
881.493	4580
881.619	4565
881.746	4626
881.872	4630
881.999	4637
882.125	4637
882.252	4778
882.378	4850
882.505	4957
882.631	4793
882.757	4710
882.883	4702
883.01	4721
883.136	4710
883.262	4626
883.388	4596
883.514	4812
883.64	4843
883.766	4744
883.892	4729
884.018	4702
884.143	4904
884.269	5022
884.395	4694
884.52	4615
884.646	4634
884.772	4561
884.897	4599
885.023	4664
885.148	4793
885.274	4881
885.399	4778
885.524	4694
885.65	4653
885.775	4748
885.9	4729
886.025	4820
886.15	4774
886.275	4710
886.4	4637
886.525	4736
886.65	4702
886.775	4683
886.9	4881
887.025	5056
887.149	4816
887.274	4668
887.399	4622
887.523	4607
887.648	4573
887.773	4519
887.897	4748
888.021	4786
888.146	4710
888.27	4843
888.395	4915
888.519	4774
888.643	4759
888.767	4812
888.891	4694
889.015	4554
889.139	4691
889.263	4622
889.387	4729
889.511	4812
889.635	4786
889.759	4611
889.883	4653
890.006	4717
890.13	4782
890.254	4599
890.377	4698
890.501	4481
890.624	4519
890.748	4653
890.871	4470
890.995	4451
891.118	4379
891.241	4527
891.364	4523
891.488	4649
891.611	4489
891.734	4519
891.857	4577
891.98	4512
892.103	4653
892.226	4569
892.349	4531
892.471	4451
892.594	4500
892.717	4546
892.839	4561
892.962	4554
893.085	4653
893.207	4592
893.33	4466
893.452	4527
893.575	4702
893.697	4615
893.819	4790
893.941	4759
894.064	4774
894.186	4558
894.308	4558
894.43	4702
894.552	4771
894.674	4729
894.796	4554
894.918	4618
895.04	4550
895.161	4706
895.283	4626
895.405	4580
895.526	4634
895.648	4660
895.769	4694
895.891	4672
896.012	4729
896.134	4736
896.255	4664
896.376	4615
896.498	4588
896.619	4607
896.74	4599
896.861	4664
896.982	4995
897.103	5075
897.224	4831
897.345	4748
897.466	4653
897.587	4714
897.708	4873
897.828	4774
897.949	4691
898.07	4527
898.19	4637
898.311	4828
898.431	4691
898.552	4740
898.672	4778
898.792	4782
898.913	4721
899.033	4607
899.153	4519
899.273	4436
899.393	4535
899.513	4497
899.633	4519
899.753	4500
899.873	4489
899.993	4611
900.113	4519
900.232	4592
900.352	4481
900.472	4481
900.591	4356
900.711	4462
900.83	4405
900.95	4573
901.069	4668
901.189	4599
901.308	4341
901.427	4295
901.546	4360
901.665	4481
901.784	4481
901.904	4409
902.023	4287
902.141	4177
902.26	4166
902.379	4299
902.498	4219
902.617	4253
902.735	4379
902.854	4394
902.973	4348
903.091	4185
903.21	4249
903.328	4291
903.446	4261
903.565	4242
903.683	4360
903.801	4265
903.919	4436
904.038	4493
904.156	4310
904.274	4485
904.392	4402
904.51	4424
904.627	4489
904.745	4554
904.863	4630
904.981	4394
905.098	4291
905.216	4360
905.334	4462
905.451	4466
905.569	4440
905.686	4546
905.803	4558
905.921	4428
906.038	4519
906.155	4481
906.272	4424
906.389	4462
906.506	4341
906.623	4394
906.74	4409
906.857	4310
906.974	4402
907.091	4523
907.208	4679
907.324	4573
907.441	4542
907.557	4333
907.674	4341
907.79	4322
907.907	4402
908.023	4500
908.139	4459
908.256	4413
908.372	4443
908.488	4424
908.604	4329
908.72	4348
908.836	4405
908.952	4394
909.068	4447
909.184	4573
909.3	4481
909.415	4558
909.531	4538
909.647	4409
909.762	4333
909.878	4333
909.993	4428
910.108	4329
910.224	4390
910.339	4432
910.454	4402
910.57	4337
910.685	4337
910.8	4645
910.915	4561
911.03	4493
911.145	4284
911.259	4375
911.374	4398
911.489	4318
911.604	4249
911.718	4177
911.833	4166
911.947	4044
912.062	4082
912.176	4185
912.291	4204
912.405	4261
912.519	4485
912.633	4531
912.748	4348
912.862	4291
912.976	4211
913.09	4128
913.204	4135
913.318	4223
913.431	4383
913.545	4360
913.659	4481
913.772	4341
913.886	4318
914	4204
914.113	4417
914.226	4421
914.34	4417
914.453	4253
914.566	4394
914.68	4314
914.793	4363
914.906	4166
915.019	4150
915.132	4074
915.245	4188
915.358	4219
915.47	4246
915.583	4287
915.696	4242
915.809	4440
915.921	4386
916.034	4230
916.146	4253
916.259	4207
916.371	4352
916.483	4337
916.595	4257
916.708	4287
916.82	4337
916.932	4291
917.044	4329
917.156	4287
917.268	4227
917.38	4284
917.491	4280
917.603	4367
917.715	4398
917.826	4474
917.938	4405
918.049	4246
918.161	4390
918.272	4508
918.384	4603
918.495	4466
918.606	4306
918.717	4211
918.828	4303
918.939	4394
919.05	4192
919.161	4295
919.272	4158
919.383	4234
919.494	4383
919.604	4607
919.715	4417
919.826	4318
919.936	4413
920.047	4546
920.157	4474
920.267	4660
920.378	4554
920.488	4455
920.598	4683
920.708	4900
920.818	4763
920.928	4778
921.038	4946
921.148	4934
921.258	4618
921.368	4561
921.477	4527
921.587	4447
921.697	4363
921.806	4519
921.916	4417
922.025	4249
922.134	4265
922.244	4272
922.353	4356
922.462	4128
922.571	4135
922.68	3979
922.789	3941
922.898	4017
923.007	3964
923.116	4078
923.224	4071
923.333	4086
923.442	3956
923.55	3972
923.659	4017
923.767	4063
923.876	3983
923.984	4162
924.092	3979
924.201	4097
924.309	4093
924.417	4135
924.525	4044
924.633	4086
924.741	5079
924.849	3899
924.956	4124
925.064	3926
925.172	3915
925.279	3945
925.387	4048
925.494	4040
925.602	4211
925.709	4188
925.816	4032
925.924	4082
926.031	4219
926.138	4158
926.245	4192
926.352	4051
926.459	4265
926.566	4287
926.673	4147
926.779	4097
926.886	4071
926.993	3949
927.099	3915
927.206	3915
927.312	3956
927.419	4059
927.525	3994
927.631	4101
927.737	3922
927.843	3892
927.95	3827
928.056	3949
928.162	3949
928.267	4063
928.373	4580
928.479	4078
928.585	3865
928.69	3975
928.796	4074
928.901	3960
929.007	3842
929.112	4021
929.218	3987
929.323	3911
929.428	3922
929.533	4150
929.638	3903
929.743	3922
929.848	4029
929.953	3964
930.058	3896
930.163	3778
930.267	3846
930.372	3964
930.477	3762
930.581	4105
930.685	4002
930.79	3812
930.894	3896
930.998	3838
931.103	4044
931.207	3663
931.311	3709
931.415	3656
931.519	3538
931.623	3561
