Data from test_V78500241_608.txt Node
Date: Fri Mar 25 16:53:13 CST 2022
User: usil
Spectrometer: V785-0024
Trigger mode: 0
Integration Time (sec): 4.000000E-1
Scans to average: 1
Nonlinearity correction enabled: false
Boxcar width: 0
Storing dark spectrum: false
XAxis mode: Wavelengths
Number of Pixels in Spectrum: 1024
>>>>>Begin Spectral Data<<<<<
801.071	8008
801.214	8054
801.356	7902
801.499	7917
801.641	7799
801.783	7898
801.926	8043
802.068	8054
802.211	7974
802.353	8039
802.496	7944
802.638	7997
802.78	7928
802.923	7955
803.065	7833
803.208	7811
803.35	7936
803.492	8168
803.635	8115
803.777	8043
803.919	8149
804.061	8408
804.204	8187
804.346	8024
804.488	8008
804.63	8123
804.773	8050
804.915	8073
805.057	8286
805.199	8176
805.341	8237
805.483	8305
805.626	8248
805.768	8119
805.91	8149
806.052	8225
806.194	8115
806.336	8237
806.478	8123
806.62	8031
806.762	8130
806.904	8229
807.046	8511
807.188	8336
807.33	8248
807.472	8324
807.614	8069
807.756	8180
807.898	8001
808.04	7822
808.182	7890
808.324	7871
808.465	7928
808.607	8069
808.749	8100
808.891	8294
809.033	8290
809.174	8195
809.316	8145
809.458	8012
809.6	7989
809.741	8001
809.883	8088
810.025	8039
810.166	7959
810.308	8043
810.45	8043
810.591	7898
810.733	7681
810.875	7666
811.016	7590
811.158	7525
811.299	7605
811.441	7708
811.582	7670
811.724	7647
811.865	7586
812.007	7537
812.148	7586
812.29	7674
812.431	7765
812.573	7879
812.714	7978
812.855	8111
812.997	8279
813.138	8389
813.279	8229
813.421	8157
813.562	8039
813.703	7868
813.845	7830
813.986	7457
814.127	7339
814.268	7285
814.41	7213
814.551	7175
814.692	7152
814.833	7091
814.974	7141
815.115	7076
815.256	6954
815.397	6859
815.539	6939
815.68	6738
815.821	6814
815.962	6840
816.103	6901
816.244	6726
816.385	6566
816.526	6696
816.666	6563
816.807	6346
816.948	6429
817.089	6456
817.23	6490
817.371	6380
817.512	6403
817.653	6369
817.793	6395
817.934	6407
818.075	6486
818.216	6403
818.356	6471
818.497	6254
818.638	6136
818.778	6194
818.919	6171
819.06	6136
819.2	6258
819.341	6338
819.481	6350
819.622	6570
819.762	6779
819.903	6707
820.043	6555
820.184	6551
820.324	6563
820.465	6639
820.605	6612
820.746	6673
820.886	6467
821.026	6650
821.167	6673
821.307	6818
821.447	6745
821.588	6639
821.728	6597
821.868	6506
822.008	6262
822.149	6376
822.289	6395
822.429	6095
822.569	6064
822.709	6102
822.849	5954
822.99	5939
823.13	5882
823.27	5939
823.41	5802
823.55	5764
823.69	5745
823.83	5764
823.97	5615
824.11	5535
824.25	5570
824.389	5570
824.529	5547
824.669	5509
824.809	5589
824.949	5653
825.089	5665
825.228	5615
825.368	5368
825.508	5372
825.648	5353
825.787	5337
825.927	5353
826.067	5296
826.206	5296
826.346	5395
826.485	5395
826.625	5417
826.765	5539
826.904	5482
827.044	5284
827.183	5162
827.323	5189
827.462	5265
827.601	5174
827.741	5151
827.88	5204
828.02	5102
828.159	5265
828.298	5307
828.437	5395
828.577	5284
828.716	5436
828.855	5315
828.994	5193
829.134	5155
829.273	5216
829.412	5124
829.551	5132
829.69	5178
829.829	5223
829.968	5372
830.107	5269
830.246	5242
830.385	5223
830.524	5102
830.663	5048
830.802	4965
830.941	4930
831.08	4866
831.219	4949
831.357	4961
831.496	5151
831.635	4961
831.774	4850
831.913	4824
832.051	4729
832.19	4778
832.329	4809
832.467	4691
832.606	4645
832.744	4736
832.883	4717
833.022	4687
833.16	4774
833.299	4858
833.437	4782
833.576	4911
833.714	4900
833.852	4831
833.991	4881
834.129	4949
834.267	4946
834.406	4900
834.544	4946
834.682	4984
834.821	4923
834.959	5147
835.097	4987
835.235	5102
835.373	5113
835.511	5105
835.65	5064
835.788	5067
835.926	4923
836.064	4881
836.202	4911
836.34	5136
836.478	5216
836.615	5143
836.753	5208
836.891	5265
837.029	5201
837.167	5197
837.305	5147
837.443	5162
837.58	5090
837.718	5242
837.856	5181
837.993	5132
838.131	5261
838.269	5174
838.406	5208
838.544	5140
838.681	5006
838.819	5060
838.956	4915
839.094	4877
839.231	5025
839.369	5037
839.506	5425
839.643	5284
839.781	5083
839.918	5052
840.055	5155
840.193	5098
840.33	5113
840.467	5147
840.604	5178
840.742	5429
840.879	5098
841.016	5102
841.153	5162
841.29	5364
841.427	5318
841.564	5322
841.701	5330
841.838	5280
841.975	5193
842.112	5296
842.249	5124
842.385	5124
842.522	5326
842.659	5216
842.796	5162
842.933	5193
843.069	5117
843.206	5155
843.343	5318
843.479	5250
843.616	5227
843.752	5033
843.889	5056
844.025	5220
844.162	4961
844.298	5212
844.435	5098
844.571	5075
844.708	5220
844.844	5288
844.98	5334
845.117	5330
845.253	5117
845.389	5083
845.525	5189
845.661	5155
845.798	5083
845.934	5132
846.07	5010
846.206	5143
846.342	5265
846.478	5208
846.614	5052
846.75	4991
846.886	4949
847.022	5147
847.158	5033
847.294	5018
847.429	5109
847.565	5048
847.701	5311
847.837	4900
847.972	4797
848.108	4923
848.244	4953
848.379	4786
848.515	4698
848.65	4725
848.786	4721
848.921	4828
849.057	4866
849.192	4870
849.328	4816
849.463	4877
849.598	4774
849.734	4755
849.869	4725
850.004	4630
850.14	4660
850.275	4588
850.41	4538
850.545	4584
850.68	4596
850.815	4615
850.95	4622
851.085	4843
851.22	4786
851.355	4698
851.49	4626
851.625	4599
851.76	4626
851.895	4607
852.03	4508
852.165	4645
852.299	4740
852.434	4824
852.569	4752
852.703	4733
852.838	4866
852.973	4843
853.107	4919
853.242	4694
853.376	4691
853.511	4584
853.645	4603
853.78	4797
853.914	4698
854.048	4683
854.183	4664
854.317	4740
854.451	4866
854.585	4637
854.72	4653
854.854	4763
854.988	4622
855.122	4622
855.256	4478
855.39	4683
855.524	4771
855.658	4694
855.792	4698
855.926	4752
856.06	4740
856.194	4816
856.327	4672
856.461	4611
856.595	4603
856.729	4596
856.862	4759
856.996	4694
857.13	4748
857.263	4733
857.397	4763
857.53	4637
857.664	4725
857.797	4755
857.931	4778
858.064	4687
858.197	4752
858.331	4641
858.464	4584
858.597	4531
858.731	4656
858.864	4641
858.997	4649
859.13	4649
859.263	4649
859.396	4660
859.529	4577
859.662	4569
859.795	4573
859.928	4596
860.061	4767
860.194	4816
860.327	4588
860.46	4531
860.592	4706
860.725	4733
860.858	4721
860.99	4577
861.123	4519
861.256	4516
861.388	4641
861.521	5402
861.653	4462
861.786	4440
861.918	4481
862.05	4538
862.183	4535
862.315	4637
862.447	4615
862.58	4554
862.712	4367
862.844	4306
862.976	4459
863.108	4413
863.24	4873
863.372	4352
863.504	4417
863.636	4417
863.768	4504
863.9	4451
864.032	4344
864.164	4386
864.296	4447
864.428	4516
864.559	4577
864.691	4531
864.823	4531
864.954	4504
865.086	4538
865.217	4424
865.349	4466
865.48	4459
865.612	4508
865.743	4668
865.875	4489
866.006	4474
866.137	4500
866.269	4417
866.4	4428
866.531	4421
866.662	4383
866.793	4348
866.924	4413
867.055	4500
867.186	4455
867.317	4436
867.448	4337
867.579	4390
867.71	4413
867.841	4402
867.972	4447
868.103	4451
868.233	4417
868.364	4451
868.495	4485
868.625	4622
868.756	4752
868.886	4558
869.017	4630
869.147	4774
869.278	4786
869.408	4653
869.539	4634
869.669	4694
869.799	4725
869.929	4744
870.06	4721
870.19	4949
870.32	4927
870.45	4946
870.58	5037
870.71	5132
870.84	5102
870.97	4949
871.1	4908
871.23	5136
871.36	5140
871.489	5052
871.619	5067
871.749	5071
871.879	5109
872.008	5140
872.138	5086
872.267	5010
872.397	4877
872.526	4809
872.656	4694
872.785	4782
872.915	4915
873.044	5010
873.173	4949
873.303	5010
873.432	4965
873.561	4987
873.69	4847
873.819	4824
873.948	4908
874.077	4763
874.206	4778
874.335	4831
874.464	4915
874.593	5060
874.722	4991
874.851	5086
874.979	5056
875.108	5064
875.237	4908
875.365	4892
875.494	4877
875.623	4991
875.751	4873
875.88	4870
876.008	4991
876.136	5010
876.265	5212
876.393	5341
876.521	5197
876.65	5223
876.778	5151
876.906	5041
877.034	5067
877.162	5067
877.29	4968
877.418	5071
877.546	5022
877.674	5041
877.802	4987
877.93	5067
878.058	4961
878.185	4862
878.313	4934
878.441	4946
878.568	4870
878.696	4881
878.824	4968
878.951	5022
879.079	5136
879.206	5292
879.333	5052
879.461	5010
879.588	5018
879.715	5136
879.842	5162
879.97	5014
880.097	4774
880.224	4736
880.351	4771
880.478	4862
880.605	4752
880.732	4820
880.859	5056
880.986	4911
881.112	4885
881.239	4809
881.366	4691
881.493	4573
881.619	4622
881.746	4611
881.872	4611
881.999	4626
882.125	4664
882.252	4759
882.378	4847
882.505	4934
882.631	4793
882.757	4611
882.883	4721
883.01	4748
883.136	4672
883.262	4592
883.388	4599
883.514	4847
883.64	4843
883.766	4733
883.892	4653
884.018	4717
884.143	4919
884.269	4976
884.395	4687
884.52	4596
884.646	4637
884.772	4584
884.897	4596
885.023	4664
885.148	4828
885.274	4881
885.399	4801
885.524	4752
885.65	4706
885.775	4694
885.9	4691
886.025	4839
886.15	4767
886.275	4721
886.4	4683
886.525	4725
886.65	4664
886.775	4691
886.9	4892
887.025	4984
887.149	4824
887.274	4630
887.399	4592
887.523	4603
887.648	4561
887.773	4588
887.897	4740
888.021	4778
888.146	4656
888.27	4771
888.395	4881
888.519	4816
888.643	4824
888.767	4831
888.891	4649
889.015	4580
889.139	4675
889.263	4561
889.387	4755
889.511	4835
889.635	4740
889.759	4630
889.883	4569
890.006	4736
890.13	4774
890.254	4637
890.377	4687
890.501	4573
890.624	4504
890.748	4607
890.871	4493
890.995	4413
891.118	4394
891.241	4493
891.364	4580
891.488	4660
891.611	4531
891.734	4538
891.857	4618
891.98	4577
892.103	4634
892.226	4615
892.349	4558
892.471	4443
892.594	4569
892.717	4588
892.839	4558
892.962	4542
893.085	4603
893.207	4603
893.33	4493
893.452	4538
893.575	4687
893.697	4584
893.819	4801
893.941	4816
894.064	4774
894.186	4561
894.308	4618
894.43	4763
894.552	4870
894.674	4748
894.796	4558
894.918	4584
895.04	4573
895.161	4656
895.283	4668
895.405	4607
895.526	4641
895.648	4683
895.769	4675
895.891	4706
896.012	4763
896.134	4691
896.255	4664
896.376	4634
896.498	4615
896.619	4656
896.74	4630
896.861	4641
896.982	4961
897.103	5075
897.224	4835
897.345	4763
897.466	4698
897.587	4801
897.708	4831
897.828	4767
897.949	4675
898.07	4577
898.19	4653
898.311	4831
898.431	4679
898.552	4744
898.672	4778
898.792	4816
898.913	4733
899.033	4615
899.153	4550
899.273	4436
899.393	4493
899.513	4489
899.633	4489
899.753	4561
899.873	4531
899.993	4580
900.113	4584
900.232	4607
900.352	4546
900.472	4558
900.591	4428
900.711	4497
900.83	4413
900.95	4603
901.069	4672
901.189	4523
901.308	4363
901.427	4303
901.546	4402
901.665	4440
901.784	4474
901.904	4424
902.023	4318
902.141	4204
902.26	4120
902.379	4341
902.498	4230
902.617	4234
902.735	4352
902.854	4421
902.973	4348
903.091	4200
903.21	4211
903.328	4329
903.446	4291
903.565	4204
903.683	4428
903.801	4299
903.919	4405
904.038	4455
904.156	4325
904.274	4394
904.392	4394
904.51	4394
904.627	4459
904.745	4527
904.863	4630
904.981	4459
905.098	4325
905.216	4341
905.334	4413
905.451	4432
905.569	4417
905.686	4493
905.803	4577
905.921	4459
906.038	4561
906.155	4474
906.272	4371
906.389	4428
906.506	4363
906.623	4371
906.74	4424
906.857	4265
906.974	4413
907.091	4603
907.208	4694
907.324	4626
907.441	4451
907.557	4356
907.674	4360
907.79	4337
907.907	4409
908.023	4481
908.139	4481
908.256	4409
908.372	4478
908.488	4443
908.604	4341
908.72	4299
908.836	4383
908.952	4405
909.068	4394
909.184	4577
909.3	4470
909.415	4607
909.531	4561
909.647	4367
909.762	4371
909.878	4325
909.993	4451
910.108	4386
910.224	4443
910.339	4489
910.454	4356
910.57	4356
910.685	4352
910.8	4694
910.915	4599
911.03	4451
911.145	4310
911.259	4363
911.374	4383
911.489	4314
911.604	4257
911.718	4150
911.833	4211
911.947	4086
912.062	4059
912.176	4192
912.291	4234
912.405	4268
912.519	4516
912.633	4527
912.748	4352
912.862	4291
912.976	4265
913.09	4063
913.204	4162
913.318	4238
913.431	4386
913.545	4348
913.659	4466
913.772	4375
913.886	4261
914	4242
914.113	4363
914.226	4466
914.34	4394
914.453	4291
914.566	4447
914.68	4280
914.793	4291
914.906	4124
915.019	4120
915.132	4124
915.245	4185
915.358	4234
915.47	4238
915.583	4310
915.696	4272
915.809	4459
915.921	4451
916.034	4257
916.146	4219
916.259	4242
916.371	4394
916.483	4341
916.595	4257
916.708	4337
916.82	4280
916.932	4337
917.044	4329
917.156	4325
917.268	4223
917.38	4299
917.491	4306
917.603	4287
917.715	4451
917.826	4436
917.938	4333
918.049	4253
918.161	4367
918.272	4519
918.384	4546
918.495	4470
918.606	4284
918.717	4227
918.828	4314
918.939	4379
919.05	4299
919.161	4363
919.272	4120
919.383	4253
919.494	4432
919.604	4634
919.715	4424
919.826	4379
919.936	4413
920.047	4538
920.157	4466
920.267	4721
920.378	4550
920.488	4512
920.598	4744
920.708	4892
920.818	4824
920.928	4755
921.038	4930
921.148	4972
921.258	4634
921.368	4561
921.477	4459
921.587	4462
921.697	4462
921.806	4580
921.916	4417
922.025	4268
922.134	4257
922.244	4230
922.353	4318
922.462	4162
922.571	4147
922.68	3979
922.789	3972
922.898	4040
923.007	3987
923.116	4112
923.224	4090
923.333	4120
923.442	3972
923.55	3998
923.659	4025
923.767	4120
923.876	3960
923.984	4147
924.092	3975
924.201	4055
924.309	4143
924.417	4135
924.525	4071
924.633	4147
924.741	5018
924.849	3899
924.956	4173
925.064	3960
925.172	3918
925.279	3972
925.387	4067
925.494	4055
925.602	4253
925.709	4200
925.816	4029
925.924	4090
926.031	4234
926.138	4166
926.245	4207
926.352	4086
926.459	4268
926.566	4310
926.673	4173
926.779	4048
926.886	4120
926.993	3987
927.099	3975
927.206	3953
927.312	3949
927.419	4040
927.525	3983
927.631	4074
927.737	3994
927.843	3953
927.95	3850
928.056	3953
928.162	4002
928.267	4109
928.373	4637
928.479	4147
928.585	3865
928.69	4040
928.796	4040
928.901	3975
929.007	3880
929.112	3991
929.218	3983
929.323	3918
929.428	3994
929.533	4090
929.638	3892
929.743	4006
929.848	4013
929.953	4025
930.058	3949
930.163	3751
930.267	3846
930.372	4021
930.477	3781
930.581	4101
930.685	3960
930.79	3819
930.894	3892
930.998	3876
931.103	4036
931.207	3728
931.311	3679
931.415	3663
931.519	3519
931.623	3568
