Data from test_V78500241_567.txt Node
Date: Fri Mar 25 16:52:56 CST 2022
User: usil
Spectrometer: V785-0024
Trigger mode: 0
Integration Time (sec): 4.000000E-1
Scans to average: 1
Nonlinearity correction enabled: false
Boxcar width: 0
Storing dark spectrum: false
XAxis mode: Wavelengths
Number of Pixels in Spectrum: 1024
>>>>>Begin Spectral Data<<<<<
801.071	8024
801.214	8058
801.356	7909
801.499	7845
801.641	7803
801.783	7845
801.926	8035
802.068	8069
802.211	8039
802.353	8065
802.496	7883
802.638	8012
802.78	8012
802.923	7944
803.065	7845
803.208	7856
803.35	7978
803.492	8092
803.635	8183
803.777	8107
803.919	8164
804.061	8419
804.204	8134
804.346	8046
804.488	7940
804.63	8115
804.773	7997
804.915	8123
805.057	8252
805.199	8195
805.341	8294
805.483	8301
805.626	8176
805.768	8088
805.91	8115
806.052	8237
806.194	8119
806.336	8202
806.478	8100
806.62	8092
806.762	8062
806.904	8271
807.046	8434
807.188	8282
807.33	8191
807.472	8320
807.614	8126
807.756	8153
807.898	7986
808.04	7807
808.182	7997
808.324	7947
808.465	7864
808.607	8069
808.749	8111
808.891	8259
809.033	8294
809.174	8126
809.316	8024
809.458	8039
809.6	7989
809.741	8016
809.883	8012
810.025	8058
810.166	8100
810.308	8020
810.45	8035
810.591	7852
810.733	7772
810.875	7655
811.016	7540
811.158	7540
811.299	7586
811.441	7727
811.582	7662
811.724	7529
811.865	7537
812.007	7643
812.148	7601
812.29	7655
812.431	7784
812.573	7906
812.714	7978
812.855	8153
812.997	8320
813.138	8374
813.279	8271
813.421	8180
813.562	8035
813.703	7879
813.845	7780
813.986	7529
814.127	7335
814.268	7331
814.41	7305
814.551	7156
814.692	7160
814.833	7061
814.974	7133
815.115	7110
815.256	6905
815.397	6962
815.539	6962
815.68	6871
815.821	6829
815.962	6821
816.103	6802
816.244	6700
816.385	6669
816.526	6662
816.666	6506
816.807	6285
816.948	6445
817.089	6502
817.23	6429
817.371	6403
817.512	6338
817.653	6407
817.793	6388
817.934	6426
818.075	6509
818.216	6456
818.356	6388
818.497	6239
818.638	6205
818.778	6106
818.919	6136
819.06	6144
819.2	6311
819.341	6281
819.481	6334
819.622	6483
819.762	6726
819.903	6688
820.043	6627
820.184	6582
820.324	6601
820.465	6639
820.605	6620
820.746	6658
820.886	6388
821.026	6589
821.167	6688
821.307	6772
821.447	6764
821.588	6642
821.728	6616
821.868	6464
822.008	6304
822.149	6346
822.289	6327
822.429	6182
822.569	6083
822.709	6125
822.849	5904
822.99	5908
823.13	5977
823.27	5931
823.41	5756
823.55	5767
823.69	5729
823.83	5775
823.97	5630
824.11	5532
824.25	5501
824.389	5558
824.529	5623
824.669	5573
824.809	5699
824.949	5634
825.089	5604
825.228	5566
825.368	5364
825.508	5353
825.648	5315
825.787	5387
825.927	5368
826.067	5284
826.206	5357
826.346	5376
826.485	5383
826.625	5444
826.765	5551
826.904	5509
827.044	5292
827.183	5185
827.323	5147
827.462	5265
827.601	5155
827.741	5174
827.88	5181
828.02	5136
828.159	5174
828.298	5318
828.437	5341
828.577	5250
828.716	5444
828.855	5334
828.994	5124
829.134	5155
829.273	5216
829.412	5151
829.551	5098
829.69	5124
829.829	5185
829.968	5387
830.107	5299
830.246	5280
830.385	5201
830.524	5197
830.663	5102
830.802	5006
830.941	4892
831.08	4858
831.219	4984
831.357	5037
831.496	5178
831.635	4885
831.774	4858
831.913	4812
832.051	4710
832.19	4744
832.329	4797
832.467	4679
832.606	4618
832.744	4729
832.883	4672
833.022	4729
833.16	4801
833.299	4816
833.437	4778
833.576	4831
833.714	4797
833.852	4824
833.991	4885
834.129	4961
834.267	4972
834.406	4877
834.544	4972
834.682	4946
834.821	4946
834.959	5147
835.097	5003
835.235	5170
835.373	5147
835.511	5083
835.65	5071
835.788	4999
835.926	4900
836.064	4862
836.202	4908
836.34	5151
836.478	5254
836.615	5151
836.753	5216
836.891	5227
837.029	5208
837.167	5170
837.305	5147
837.443	5170
837.58	5079
837.718	5189
837.856	5159
837.993	5181
838.131	5231
838.269	5208
838.406	5227
838.544	5212
838.681	5006
838.819	5025
838.956	4915
839.094	4881
839.231	5018
839.369	5102
839.506	5398
839.643	5231
839.781	5056
839.918	4999
840.055	5105
840.193	5079
840.33	5098
840.467	5147
840.604	5185
840.742	5387
840.879	5094
841.016	5136
841.153	5151
841.29	5379
841.427	5372
841.564	5341
841.701	5326
841.838	5303
841.975	5181
842.112	5254
842.249	5128
842.385	5098
842.522	5318
842.659	5143
842.796	5162
842.933	5159
843.069	5178
843.206	5147
843.343	5261
843.479	5197
843.616	5284
843.752	5025
843.889	5003
844.025	5197
844.162	5037
844.298	5220
844.435	5094
844.571	5037
844.708	5216
844.844	5307
844.98	5334
845.117	5341
845.253	5132
845.389	5132
845.525	5162
845.661	5155
845.798	5075
845.934	5159
846.07	5052
846.206	5174
846.342	5250
846.478	5185
846.614	5033
846.75	4980
846.886	4953
847.022	5086
847.158	5048
847.294	5083
847.429	5098
847.565	5033
847.701	5258
847.837	4839
847.972	4839
848.108	4965
848.244	4938
848.379	4809
848.515	4721
848.65	4774
848.786	4752
848.921	4740
849.057	4892
849.192	4858
849.328	4816
849.463	4862
849.598	4816
849.734	4759
849.869	4645
850.004	4611
850.14	4630
850.275	4615
850.41	4493
850.545	4538
850.68	4611
850.815	4588
850.95	4584
851.085	4831
851.22	4736
851.355	4687
851.49	4653
851.625	4660
851.76	4683
851.895	4599
852.03	4489
852.165	4660
852.299	4733
852.434	4812
852.569	4809
852.703	4771
852.838	4824
852.973	4972
853.107	4938
853.242	4771
853.376	4740
853.511	4535
853.645	4596
853.78	4797
853.914	4664
854.048	4694
854.183	4592
854.317	4702
854.451	4881
854.585	4664
854.72	4637
854.854	4797
854.988	4611
855.122	4588
855.256	4504
855.39	4611
855.524	4763
855.658	4698
855.792	4706
855.926	4748
856.06	4748
856.194	4771
856.327	4664
856.461	4592
856.595	4584
856.729	4672
856.862	4755
856.996	4706
857.13	4744
857.263	4752
857.397	4824
857.53	4603
857.664	4736
857.797	4698
857.931	4778
858.064	4710
858.197	4740
858.331	4641
858.464	4599
858.597	4497
858.731	4645
858.864	4660
858.997	4634
859.13	4683
859.263	4668
859.396	4675
859.529	4577
859.662	4580
859.795	4519
859.928	4641
860.061	4740
860.194	4752
860.327	4618
860.46	4592
860.592	4714
860.725	4729
860.858	4702
860.99	4584
861.123	4497
861.256	4535
861.388	4599
861.521	5402
861.653	4508
861.786	4443
861.918	4436
862.05	4565
862.183	4550
862.315	4615
862.447	4615
862.58	4584
862.712	4447
862.844	4325
862.976	4504
863.108	4428
863.24	4847
863.372	4341
863.504	4417
863.636	4405
863.768	4519
863.9	4402
864.032	4352
864.164	4405
864.296	4443
864.428	4523
864.559	4538
864.691	4519
864.823	4481
864.954	4481
865.086	4474
865.217	4405
865.349	4432
865.48	4459
865.612	4485
865.743	4599
865.875	4519
866.006	4428
866.137	4447
866.269	4440
866.4	4432
866.531	4409
866.662	4402
866.793	4440
866.924	4440
867.055	4451
867.186	4405
867.317	4421
867.448	4383
867.579	4375
867.71	4375
867.841	4371
867.972	4436
868.103	4440
868.233	4489
868.364	4451
868.495	4497
868.625	4672
868.756	4767
868.886	4573
869.017	4653
869.147	4801
869.278	4763
869.408	4656
869.539	4630
869.669	4710
869.799	4622
869.929	4748
870.06	4717
870.19	4980
870.32	4919
870.45	4957
870.58	5010
870.71	5064
870.84	5090
870.97	4980
871.1	4908
871.23	5132
871.36	5113
871.489	4961
871.619	5075
871.749	5124
871.879	5105
872.008	5189
872.138	5067
872.267	4965
872.397	4820
872.526	4809
872.656	4714
872.785	4812
872.915	4930
873.044	5048
873.173	4957
873.303	4968
873.432	4980
873.561	5003
873.69	4862
873.819	4881
873.948	4896
874.077	4839
874.206	4774
874.335	4763
874.464	4946
874.593	5010
874.722	4972
874.851	5079
874.979	5090
875.108	5014
875.237	4946
875.365	4850
875.494	4904
875.623	4972
875.751	4881
875.88	4835
876.008	5010
876.136	5033
876.265	5151
876.393	5337
876.521	5280
876.65	5220
876.778	5151
876.906	5079
877.034	4999
877.162	5098
877.29	4957
877.418	5060
877.546	5006
877.674	5064
877.802	5022
877.93	4987
878.058	4930
878.185	4870
878.313	4965
878.441	4934
878.568	4801
878.696	4881
878.824	4968
878.951	5003
879.079	5151
879.206	5280
879.333	5121
879.461	4965
879.588	5014
879.715	5094
879.842	5223
879.97	5006
880.097	4812
880.224	4805
880.351	4835
880.478	4801
880.605	4793
880.732	4767
880.859	5090
880.986	4885
881.112	4873
881.239	4771
881.366	4634
881.493	4603
881.619	4580
881.746	4622
881.872	4653
881.999	4637
882.125	4698
882.252	4809
882.378	4816
882.505	4957
882.631	4812
882.757	4717
882.883	4733
883.01	4675
883.136	4672
883.262	4596
883.388	4599
883.514	4870
883.64	4831
883.766	4793
883.892	4679
884.018	4744
884.143	4908
884.269	5025
884.395	4649
884.52	4588
884.646	4656
884.772	4584
884.897	4554
885.023	4653
885.148	4809
885.274	4854
885.399	4797
885.524	4717
885.65	4683
885.775	4752
885.9	4668
886.025	4850
886.15	4801
886.275	4733
886.4	4645
886.525	4748
886.65	4672
886.775	4645
886.9	4870
887.025	5045
887.149	4824
887.274	4607
887.399	4599
887.523	4599
887.648	4577
887.773	4592
887.897	4767
888.021	4767
888.146	4649
888.27	4786
888.395	4938
888.519	4782
888.643	4774
888.767	4839
888.891	4679
889.015	4588
889.139	4584
889.263	4580
889.387	4752
889.511	4812
889.635	4786
889.759	4584
889.883	4649
890.006	4729
890.13	4858
890.254	4637
890.377	4637
890.501	4519
890.624	4538
890.748	4679
890.871	4489
890.995	4440
891.118	4386
891.241	4512
891.364	4516
891.488	4599
891.611	4470
891.734	4485
891.857	4596
891.98	4546
892.103	4603
892.226	4645
892.349	4516
892.471	4390
892.594	4573
892.717	4599
892.839	4569
892.962	4603
893.085	4615
893.207	4645
893.33	4451
893.452	4573
893.575	4634
893.697	4516
893.819	4748
893.941	4847
894.064	4763
894.186	4573
894.308	4599
894.43	4771
894.552	4778
894.674	4752
894.796	4565
894.918	4592
895.04	4618
895.161	4702
895.283	4710
895.405	4561
895.526	4615
895.648	4694
895.769	4698
895.891	4706
896.012	4714
896.134	4710
896.255	4668
896.376	4630
896.498	4603
896.619	4664
896.74	4645
896.861	4592
896.982	4911
897.103	5090
897.224	4824
897.345	4793
897.466	4691
897.587	4759
897.708	4877
897.828	4767
897.949	4664
898.07	4561
898.19	4637
898.311	4835
898.431	4698
898.552	4752
898.672	4809
898.792	4786
898.913	4771
899.033	4653
899.153	4497
899.273	4417
899.393	4531
899.513	4550
899.633	4512
899.753	4516
899.873	4500
899.993	4577
900.113	4542
900.232	4538
900.352	4596
900.472	4459
900.591	4398
900.711	4508
900.83	4440
900.95	4607
901.069	4683
901.189	4527
901.308	4303
901.427	4287
901.546	4402
901.665	4436
901.784	4538
901.904	4417
902.023	4303
902.141	4181
902.26	4207
902.379	4341
902.498	4249
902.617	4246
902.735	4379
902.854	4352
902.973	4348
903.091	4204
903.21	4257
903.328	4333
903.446	4242
903.565	4276
903.683	4341
903.801	4253
903.919	4371
904.038	4428
904.156	4310
904.274	4459
904.392	4405
904.51	4462
904.627	4474
904.745	4584
904.863	4599
904.981	4413
905.098	4325
905.216	4383
905.334	4432
905.451	4440
905.569	4470
905.686	4573
905.803	4535
905.921	4405
906.038	4516
906.155	4500
906.272	4383
906.389	4409
906.506	4329
906.623	4394
906.74	4398
906.857	4265
906.974	4379
907.091	4599
907.208	4717
907.324	4573
907.441	4455
907.557	4352
907.674	4363
907.79	4367
907.907	4371
908.023	4481
908.139	4459
908.256	4436
908.372	4455
908.488	4470
908.604	4363
908.72	4325
908.836	4409
908.952	4310
909.068	4413
909.184	4519
909.3	4481
909.415	4592
909.531	4523
909.647	4356
909.762	4398
909.878	4291
909.993	4402
910.108	4413
910.224	4409
910.339	4466
910.454	4405
910.57	4341
910.685	4299
910.8	4622
910.915	4569
911.03	4455
911.145	4287
911.259	4348
911.374	4341
911.489	4287
911.604	4284
911.718	4211
911.833	4200
911.947	4063
912.062	4055
912.176	4158
912.291	4291
912.405	4211
912.519	4462
912.633	4519
912.748	4352
912.862	4325
912.976	4166
913.09	4112
913.204	4154
913.318	4249
913.431	4360
913.545	4322
913.659	4455
913.772	4344
913.886	4272
914	4242
914.113	4371
914.226	4432
914.34	4360
914.453	4230
914.566	4428
914.68	4284
914.793	4276
914.906	4112
915.019	4090
915.132	4105
915.245	4238
915.358	4169
915.47	4223
915.583	4284
915.696	4287
915.809	4379
915.921	4428
916.034	4287
916.146	4261
916.259	4246
916.371	4375
916.483	4360
916.595	4265
916.708	4344
916.82	4303
916.932	4325
917.044	4333
917.156	4337
917.268	4246
917.38	4261
917.491	4230
917.603	4325
917.715	4421
917.826	4405
917.938	4367
918.049	4215
918.161	4447
918.272	4500
918.384	4538
918.495	4413
918.606	4310
918.717	4249
918.828	4329
918.939	4383
919.05	4238
919.161	4333
919.272	4143
919.383	4238
919.494	4462
919.604	4683
919.715	4443
919.826	4375
919.936	4367
920.047	4500
920.157	4485
920.267	4733
920.378	4599
920.488	4474
920.598	4698
920.708	4873
920.818	4759
920.928	4755
921.038	5014
921.148	4934
921.258	4577
921.368	4622
921.477	4497
921.587	4440
921.697	4405
921.806	4474
921.916	4443
922.025	4276
922.134	4306
922.244	4211
922.353	4322
922.462	4223
922.571	4139
922.68	4002
922.789	3983
922.898	4029
923.007	4029
923.116	4090
923.224	4002
923.333	4105
923.442	4010
923.55	3998
923.659	4017
923.767	4082
923.876	4025
923.984	4128
924.092	3991
924.201	4036
924.309	4109
924.417	4112
924.525	4074
924.633	4116
924.741	5109
924.849	3930
924.956	4139
925.064	3968
925.172	3907
925.279	3964
925.387	4051
925.494	4093
925.602	4223
925.709	4200
925.816	3998
925.924	4158
926.031	4196
926.138	4166
926.245	4253
926.352	4067
926.459	4249
926.566	4352
926.673	4154
926.779	4071
926.886	4086
926.993	4002
927.099	3953
927.206	3972
927.312	3903
927.419	4040
927.525	3998
927.631	4063
927.737	3960
927.843	3922
927.95	3876
928.056	3941
928.162	4013
928.267	4071
928.373	4687
928.479	4074
928.585	3896
928.69	3956
928.796	4074
928.901	4013
929.007	3876
929.112	3983
929.218	3972
929.323	3926
929.428	3953
929.533	4086
929.638	3930
929.743	4002
929.848	4044
929.953	3994
930.058	3922
930.163	3759
930.267	3816
930.372	3991
930.477	3823
930.581	4105
930.685	4006
930.79	3800
930.894	3888
930.998	3857
931.103	4017
931.207	3743
931.311	3717
931.415	3682
931.519	3523
931.623	3576
