Data from test_V78500241_1332.txt Node
Date: Fri Mar 25 16:58:15 CST 2022
User: usil
Spectrometer: V785-0024
Trigger mode: 0
Integration Time (sec): 4.000000E-1
Scans to average: 1
Nonlinearity correction enabled: false
Boxcar width: 0
Storing dark spectrum: false
XAxis mode: Wavelengths
Number of Pixels in Spectrum: 1024
>>>>>Begin Spectral Data<<<<<
801.071	7997
801.214	8035
801.356	7940
801.499	7849
801.641	7830
801.783	7792
801.926	7947
802.068	7898
802.211	7944
802.353	7894
802.496	7822
802.638	7883
802.78	7887
802.923	7871
803.065	7811
803.208	7852
803.35	7940
803.492	8084
803.635	8088
803.777	7989
803.919	8115
804.061	8473
804.204	8119
804.346	8024
804.488	7944
804.63	8096
804.773	8046
804.915	8077
805.057	8328
805.199	8157
805.341	8282
805.483	8252
805.626	8161
805.768	8157
805.91	8088
806.052	8206
806.194	8077
806.336	8237
806.478	8043
806.62	8027
806.762	8103
806.904	8282
807.046	8526
807.188	8347
807.33	8244
807.472	8248
807.614	8176
807.756	8126
807.898	7978
808.04	7982
808.182	7868
808.324	7856
808.465	7894
808.607	8119
808.749	8115
808.891	8081
809.033	8240
809.174	8164
809.316	8054
809.458	8008
809.6	7974
809.741	8001
809.883	7925
810.025	8081
810.166	8008
810.308	7967
810.45	7951
810.591	7890
810.733	7681
810.875	7658
811.016	7514
811.158	7487
811.299	7578
811.441	7738
811.582	7693
811.724	7582
811.865	7571
812.007	7521
812.148	7491
812.29	7578
812.431	7712
812.573	7833
812.714	8001
812.855	8058
812.997	8123
813.138	8259
813.279	8187
813.421	8062
813.562	8008
813.703	7818
813.845	7704
813.986	7327
814.127	7190
814.268	7251
814.41	7168
814.551	7126
814.692	7175
814.833	7050
814.974	7042
815.115	7103
815.256	6993
815.397	6882
815.539	6932
815.68	6802
815.821	6783
815.962	6867
816.103	6852
816.244	6741
816.385	6620
816.526	6585
816.666	6441
816.807	6300
816.948	6353
817.089	6460
817.23	6426
817.371	6296
817.512	6342
817.653	6361
817.793	6300
817.934	6437
818.075	6418
818.216	6418
818.356	6384
818.497	6232
818.638	6098
818.778	6155
818.919	6136
819.06	6140
819.2	6281
819.341	6323
819.481	6365
819.622	6483
819.762	6730
819.903	6650
820.043	6574
820.184	6536
820.324	6570
820.465	6730
820.605	6631
820.746	6597
820.886	6506
821.026	6650
821.167	6711
821.307	6783
821.447	6768
821.588	6646
821.728	6506
821.868	6388
822.008	6289
822.149	6350
822.289	6311
822.429	6182
822.569	6060
822.709	6125
822.849	5931
822.99	5931
823.13	5912
823.27	5935
823.41	5798
823.55	5741
823.69	5703
823.83	5779
823.97	5657
824.11	5570
824.25	5535
824.389	5600
824.529	5577
824.669	5543
824.809	5657
824.949	5665
825.089	5604
825.228	5551
825.368	5391
825.508	5376
825.648	5296
825.787	5353
825.927	5391
826.067	5364
826.206	5357
826.346	5387
826.485	5452
826.625	5444
826.765	5619
826.904	5528
827.044	5250
827.183	5204
827.323	5117
827.462	5178
827.601	5223
827.741	5208
827.88	5269
828.02	5204
828.159	5284
828.298	5334
828.437	5360
828.577	5296
828.716	5528
828.855	5345
828.994	5197
829.134	5124
829.273	5227
829.412	5185
829.551	5170
829.69	5159
829.829	5258
829.968	5433
830.107	5322
830.246	5318
830.385	5193
830.524	5140
830.663	5121
830.802	4999
830.941	4896
831.08	4877
831.219	5056
831.357	5003
831.496	5155
831.635	4984
831.774	4889
831.913	4866
832.051	4733
832.19	4771
832.329	4854
832.467	4714
832.606	4630
832.744	4733
832.883	4752
833.022	4763
833.16	4778
833.299	4870
833.437	4828
833.576	4862
833.714	4942
833.852	4892
833.991	4927
834.129	4953
834.267	5018
834.406	4938
834.544	4991
834.682	4991
834.821	4961
834.959	5178
835.097	4995
835.235	5174
835.373	5117
835.511	5128
835.65	5025
835.788	4991
835.926	4919
836.064	4900
836.202	4961
836.34	5181
836.478	5231
836.615	5151
836.753	5231
836.891	5265
837.029	5231
837.167	5246
837.305	5197
837.443	5197
837.58	5102
837.718	5292
837.856	5204
837.993	5151
838.131	5261
838.269	5166
838.406	5265
838.544	5159
838.681	5075
838.819	5056
838.956	4934
839.094	4927
839.231	5025
839.369	5105
839.506	5425
839.643	5273
839.781	5071
839.918	5033
840.055	5094
840.193	5098
840.33	5147
840.467	5193
840.604	5235
840.742	5474
840.879	5117
841.016	5143
841.153	5170
841.29	5429
841.427	5391
841.564	5337
841.701	5345
841.838	5284
841.975	5261
842.112	5250
842.249	5201
842.385	5090
842.522	5353
842.659	5143
842.796	5155
842.933	5201
843.069	5155
843.206	5128
843.343	5303
843.479	5201
843.616	5311
843.752	5098
843.889	5033
844.025	5220
844.162	5060
844.298	5212
844.435	5109
844.571	5075
844.708	5189
844.844	5311
844.98	5360
845.117	5296
845.253	5178
845.389	5102
845.525	5155
845.661	5140
845.798	5041
845.934	5155
846.07	5094
846.206	5204
846.342	5322
846.478	5159
846.614	5029
846.75	5003
846.886	4923
847.022	5159
847.158	4976
847.294	5102
847.429	5083
847.565	5132
847.701	5318
847.837	4881
847.972	4812
848.108	4995
848.244	4953
848.379	4740
848.515	4778
848.65	4793
848.786	4744
848.921	4782
849.057	4927
849.192	4934
849.328	4873
849.463	4797
849.598	4835
849.734	4790
849.869	4714
850.004	4641
850.14	4687
850.275	4675
850.41	4577
850.545	4573
850.68	4630
850.815	4679
850.95	4668
851.085	4873
851.22	4771
851.355	4679
851.49	4603
851.625	4675
851.76	4656
851.895	4596
852.03	4573
852.165	4721
852.299	4740
852.434	4812
852.569	4771
852.703	4793
852.838	4923
852.973	4949
853.107	4919
853.242	4763
853.376	4706
853.511	4573
853.645	4622
853.78	4828
853.914	4710
854.048	4714
854.183	4653
854.317	4778
854.451	4858
854.585	4714
854.72	4683
854.854	4748
854.988	4656
855.122	4698
855.256	4531
855.39	4752
855.524	4790
855.658	4725
855.792	4710
855.926	4759
856.06	4801
856.194	4816
856.327	4672
856.461	4649
856.595	4649
856.729	4596
856.862	4774
856.996	4721
857.13	4748
857.263	4786
857.397	4809
857.53	4675
857.664	4717
857.797	4733
857.931	4809
858.064	4710
858.197	4733
858.331	4649
858.464	4596
858.597	4535
858.731	4660
858.864	4630
858.997	4653
859.13	4634
859.263	4729
859.396	4729
859.529	4596
859.662	4596
859.795	4580
859.928	4599
860.061	4778
860.194	4733
860.327	4603
860.46	4584
860.592	4714
860.725	4763
860.858	4721
860.99	4592
861.123	4573
861.256	4519
861.388	4656
861.521	5113
861.653	4538
861.786	4424
861.918	4432
862.05	4512
862.183	4588
862.315	4637
862.447	4694
862.58	4569
862.712	4386
862.844	4352
862.976	4512
863.108	4440
863.24	4904
863.372	4306
863.504	4466
863.636	4417
863.768	4508
863.9	4447
864.032	4424
864.164	4405
864.296	4508
864.428	4615
864.559	4546
864.691	4603
864.823	4500
864.954	4542
865.086	4531
865.217	4436
865.349	4440
865.48	4470
865.612	4565
865.743	4630
865.875	4535
866.006	4474
866.137	4474
866.269	4451
866.4	4470
866.531	4470
866.662	4402
866.793	4455
866.924	4451
867.055	4554
867.186	4474
867.317	4459
867.448	4409
867.579	4409
867.71	4375
867.841	4409
867.972	4519
868.103	4459
868.233	4459
868.364	4466
868.495	4504
868.625	4683
868.756	4801
868.886	4580
869.017	4622
869.147	4782
869.278	4763
869.408	4649
869.539	4626
869.669	4729
869.799	4637
869.929	4736
870.06	4729
870.19	4972
870.32	4949
870.45	5006
870.58	5003
870.71	5132
870.84	5090
870.97	5003
871.1	4911
871.23	5083
871.36	5128
871.489	5041
871.619	5098
871.749	5090
871.879	5174
872.008	5178
872.138	5136
872.267	5018
872.397	4843
872.526	4831
872.656	4778
872.785	4831
872.915	4908
873.044	5003
873.173	4961
873.303	4961
873.432	4927
873.561	4987
873.69	4896
873.819	4850
873.948	4934
874.077	4839
874.206	4786
874.335	4816
874.464	4987
874.593	5102
874.722	4930
874.851	5166
874.979	5071
875.108	5056
875.237	4923
875.365	4862
875.494	4949
875.623	5010
875.751	4866
875.88	4900
876.008	5048
876.136	5025
876.265	5204
876.393	5345
876.521	5269
876.65	5223
876.778	5143
876.906	5079
877.034	5052
877.162	5045
877.29	4987
877.418	5075
877.546	5048
877.674	5025
877.802	5060
877.93	4991
878.058	4995
878.185	4839
878.313	4923
878.441	4911
878.568	4812
878.696	4862
878.824	4984
878.951	4957
879.079	5159
879.206	5280
879.333	5170
879.461	4999
879.588	5022
879.715	5117
879.842	5235
879.97	5029
880.097	4816
880.224	4774
880.351	4809
880.478	4816
880.605	4763
880.732	4782
880.859	5079
880.986	4866
881.112	4885
881.239	4778
881.366	4656
881.493	4615
881.619	4580
881.746	4679
881.872	4672
881.999	4679
882.125	4691
882.252	4759
882.378	4862
882.505	4972
882.631	4809
882.757	4721
882.883	4725
883.01	4706
883.136	4702
883.262	4584
883.388	4626
883.514	4748
883.64	4927
883.766	4790
883.892	4706
884.018	4706
884.143	4904
884.269	5018
884.395	4683
884.52	4725
884.646	4698
884.772	4645
884.897	4584
885.023	4687
885.148	4850
885.274	4847
885.399	4862
885.524	4694
885.65	4714
885.775	4729
885.9	4736
886.025	4877
886.15	4801
886.275	4691
886.4	4637
886.525	4710
886.65	4702
886.775	4694
886.9	4900
887.025	5045
887.149	4820
887.274	4626
887.399	4573
887.523	4603
887.648	4603
887.773	4565
887.897	4797
888.021	4786
888.146	4630
888.27	4843
888.395	4919
888.519	4782
888.643	4809
888.767	4786
888.891	4603
889.015	4611
889.139	4698
889.263	4615
889.387	4725
889.511	4862
889.635	4778
889.759	4679
889.883	4664
890.006	4736
890.13	4809
890.254	4634
890.377	4725
890.501	4531
890.624	4531
890.748	4607
890.871	4466
890.995	4478
891.118	4417
891.241	4519
891.364	4508
891.488	4622
891.611	4504
891.734	4535
891.857	4611
891.98	4546
892.103	4672
892.226	4618
892.349	4542
892.471	4436
892.594	4554
892.717	4596
892.839	4554
892.962	4649
893.085	4729
893.207	4577
893.33	4451
893.452	4504
893.575	4672
893.697	4561
893.819	4774
893.941	4801
894.064	4812
894.186	4577
894.308	4558
894.43	4725
894.552	4809
894.674	4767
894.796	4580
894.918	4603
895.04	4599
895.161	4733
895.283	4645
895.405	4584
895.526	4630
895.648	4725
895.769	4653
895.891	4706
896.012	4755
896.134	4679
896.255	4645
896.376	4607
896.498	4634
896.619	4672
896.74	4626
896.861	4668
896.982	4938
897.103	5071
897.224	4839
897.345	4801
897.466	4615
897.587	4721
897.708	4831
897.828	4782
897.949	4656
898.07	4588
898.19	4634
898.311	4839
898.431	4641
898.552	4774
898.672	4847
898.792	4774
898.913	4736
899.033	4622
899.153	4462
899.273	4417
899.393	4500
899.513	4504
899.633	4546
899.753	4500
899.873	4523
899.993	4542
900.113	4550
900.232	4573
900.352	4554
900.472	4500
900.591	4379
900.711	4455
900.83	4443
900.95	4637
901.069	4698
901.189	4538
901.308	4322
901.427	4322
901.546	4386
901.665	4462
901.784	4447
901.904	4379
902.023	4341
902.141	4219
902.26	4158
902.379	4295
902.498	4234
902.617	4230
902.735	4325
902.854	4379
902.973	4375
903.091	4207
903.21	4227
903.328	4329
903.446	4303
903.565	4268
903.683	4337
903.801	4257
903.919	4383
904.038	4500
904.156	4310
904.274	4470
904.392	4432
904.51	4409
904.627	4474
904.745	4630
904.863	4668
904.981	4432
905.098	4333
905.216	4417
905.334	4436
905.451	4481
905.569	4447
905.686	4580
905.803	4565
905.921	4386
906.038	4592
906.155	4512
906.272	4341
906.389	4493
906.506	4417
906.623	4421
906.74	4440
906.857	4344
906.974	4379
907.091	4615
907.208	4706
907.324	4622
907.441	4546
907.557	4371
907.674	4371
907.79	4371
907.907	4432
908.023	4516
908.139	4523
908.256	4512
908.372	4485
908.488	4527
908.604	4386
908.72	4371
908.836	4363
908.952	4440
909.068	4542
909.184	4584
909.3	4523
909.415	4607
909.531	4664
909.647	4394
909.762	4417
909.878	4383
909.993	4440
910.108	4459
910.224	4443
910.339	4546
910.454	4440
910.57	4421
910.685	4310
910.8	4672
910.915	4641
911.03	4527
911.145	4402
911.259	4386
911.374	4405
911.489	4329
911.604	4268
911.718	4253
911.833	4242
911.947	4124
912.062	4109
912.176	4238
912.291	4238
912.405	4284
912.519	4489
912.633	4554
912.748	4413
912.862	4379
912.976	4204
913.09	4109
913.204	4227
913.318	4314
913.431	4394
913.545	4424
913.659	4497
913.772	4428
913.886	4230
914	4265
914.113	4459
914.226	4470
914.34	4447
914.453	4318
914.566	4436
914.68	4337
914.793	4371
914.906	4173
915.019	4162
915.132	4109
915.245	4230
915.358	4230
915.47	4299
915.583	4314
915.696	4272
915.809	4432
915.921	4436
916.034	4268
916.146	4306
916.259	4246
916.371	4447
916.483	4413
916.595	4295
916.708	4386
916.82	4337
916.932	4329
917.044	4390
917.156	4409
917.268	4287
917.38	4295
917.491	4303
917.603	4344
917.715	4478
917.826	4512
917.938	4402
918.049	4280
918.161	4398
918.272	4580
918.384	4516
918.495	4497
918.606	4371
918.717	4223
918.828	4383
918.939	4428
919.05	4280
919.161	4383
919.272	4188
919.383	4291
919.494	4474
919.604	4622
919.715	4497
919.826	4363
919.936	4440
920.047	4516
920.157	4538
920.267	4748
920.378	4573
920.488	4512
920.598	4706
920.708	4908
920.818	4839
920.928	4801
921.038	4965
921.148	4915
921.258	4649
921.368	4569
921.477	4573
921.587	4493
921.697	4436
921.806	4565
921.916	4485
922.025	4287
922.134	4303
922.244	4207
922.353	4379
922.462	4303
922.571	4135
922.68	4067
922.789	3994
922.898	4048
923.007	3979
923.116	4112
923.224	4078
923.333	4162
923.442	4029
923.55	4017
923.659	4090
923.767	4131
923.876	4078
923.984	4135
924.092	3983
924.201	4082
924.309	4105
924.417	4181
924.525	4101
924.633	4135
924.741	5064
924.849	3968
924.956	4154
925.064	3941
925.172	3911
925.279	4017
925.387	4109
925.494	4071
925.602	4219
925.709	4215
925.816	4097
925.924	4135
926.031	4265
926.138	4188
926.245	4257
926.352	4097
926.459	4257
926.566	4341
926.673	4177
926.779	4086
926.886	4074
926.993	4040
927.099	4002
927.206	3956
927.312	3953
927.419	4059
927.525	3994
927.631	4124
927.737	3964
927.843	3975
927.95	3873
928.056	3964
928.162	4029
928.267	4063
928.373	4702
928.479	4128
928.585	3876
928.69	4048
928.796	4074
928.901	3991
929.007	3888
929.112	4048
929.218	3964
929.323	3979
929.428	3956
929.533	4101
929.638	3918
929.743	3945
929.848	4097
929.953	4013
930.058	3926
930.163	3835
930.267	3857
930.372	4010
930.477	3861
930.581	4143
930.685	3922
930.79	3869
930.894	3911
930.998	3926
931.103	4109
931.207	3728
931.311	3740
931.415	3663
931.519	3538
931.623	3591
