Data from test_V78500241_2251.txt Node
Date: Fri Mar 25 17:04:39 CST 2022
User: usil
Spectrometer: V785-0024
Trigger mode: 0
Integration Time (sec): 4.000000E-1
Scans to average: 1
Nonlinearity correction enabled: false
Boxcar width: 0
Storing dark spectrum: false
XAxis mode: Wavelengths
Number of Pixels in Spectrum: 1024
>>>>>Begin Spectral Data<<<<<
801.071	7963
801.214	7986
801.356	7837
801.499	7894
801.641	7769
801.783	7837
801.926	7982
802.068	7967
802.211	8012
802.353	8065
802.496	7845
802.638	7860
802.78	7856
802.923	7970
803.065	7898
803.208	7909
803.35	7997
803.492	8012
803.635	8123
803.777	8058
803.919	8126
804.061	8454
804.204	8115
804.346	8062
804.488	7890
804.63	8058
804.773	7951
804.915	8134
805.057	8320
805.199	8172
805.341	8202
805.483	8237
805.626	8229
805.768	8115
805.91	8210
806.052	8290
806.194	8077
806.336	8366
806.478	8096
806.62	8069
806.762	8103
806.904	8298
807.046	8438
807.188	8324
807.33	8317
807.472	8332
807.614	8153
807.756	8088
807.898	7978
808.04	7871
808.182	7883
808.324	7841
808.465	7879
808.607	8024
808.749	8088
808.891	8183
809.033	8332
809.174	8138
809.316	8039
809.458	8062
809.6	7928
809.741	8100
809.883	8046
810.025	8123
810.166	8130
810.308	8005
810.45	7986
810.591	7856
810.733	7723
810.875	7632
811.016	7525
811.158	7415
811.299	7556
811.441	7693
811.582	7616
811.724	7575
811.865	7548
812.007	7540
812.148	7567
812.29	7628
812.431	7712
812.573	7837
812.714	8008
812.855	8123
812.997	8195
813.138	8279
813.279	8107
813.421	8054
813.562	7986
813.703	7837
813.845	7750
813.986	7377
814.127	7232
814.268	7213
814.41	7183
814.551	7164
814.692	7240
814.833	7110
814.974	7133
815.115	7080
815.256	6985
815.397	6932
815.539	6844
815.68	6806
815.821	6783
815.962	6916
816.103	6795
816.244	6639
816.385	6589
816.526	6570
816.666	6448
816.807	6323
816.948	6460
817.089	6467
817.23	6426
817.371	6399
817.512	6384
817.653	6357
817.793	6308
817.934	6361
818.075	6506
818.216	6410
818.356	6376
818.497	6292
818.638	6117
818.778	6110
818.919	6114
819.06	6197
819.2	6334
819.341	6338
819.481	6350
819.622	6471
819.762	6734
819.903	6692
820.043	6597
820.184	6509
820.324	6540
820.465	6711
820.605	6734
820.746	6601
820.886	6467
821.026	6631
821.167	6684
821.307	6844
821.447	6783
821.588	6639
821.728	6532
821.868	6506
822.008	6338
822.149	6418
822.289	6311
822.429	6186
822.569	6053
822.709	6114
822.849	5847
822.99	5889
823.13	5954
823.27	5939
823.41	5764
823.55	5756
823.69	5775
823.83	5756
823.97	5691
824.11	5520
824.25	5490
824.389	5528
824.529	5581
824.669	5539
824.809	5642
824.949	5665
825.089	5665
825.228	5516
825.368	5379
825.508	5296
825.648	5364
825.787	5349
825.927	5360
826.067	5220
826.206	5284
826.346	5341
826.485	5334
826.625	5379
826.765	5547
826.904	5509
827.044	5242
827.183	5121
827.323	5132
827.462	5235
827.601	5151
827.741	5208
827.88	5185
828.02	5083
828.159	5273
828.298	5303
828.437	5337
828.577	5273
828.716	5490
828.855	5311
828.994	5170
829.134	5109
829.273	5121
829.412	5121
829.551	5067
829.69	5128
829.829	5189
829.968	5353
830.107	5261
830.246	5235
830.385	5143
830.524	5033
830.663	5041
830.802	4968
830.941	4866
831.08	4866
831.219	4972
831.357	4987
831.496	5128
831.635	4881
831.774	4835
831.913	4824
832.051	4698
832.19	4717
832.329	4828
832.467	4668
832.606	4626
832.744	4683
832.883	4759
833.022	4740
833.16	4763
833.299	4870
833.437	4820
833.576	4843
833.714	4870
833.852	4881
833.991	4889
834.129	4995
834.267	4946
834.406	4904
834.544	5029
834.682	4995
834.821	5003
834.959	5151
835.097	4991
835.235	5193
835.373	5086
835.511	5124
835.65	5033
835.788	5075
835.926	4923
836.064	4911
836.202	4957
836.34	5208
836.478	5258
836.615	5178
836.753	5280
836.891	5311
837.029	5273
837.167	5231
837.305	5223
837.443	5132
837.58	5140
837.718	5288
837.856	5265
837.993	5159
838.131	5239
838.269	5277
838.406	5242
838.544	5208
838.681	5064
838.819	4984
838.956	4919
839.094	4900
839.231	5041
839.369	5147
839.506	5448
839.643	5315
839.781	5086
839.918	5094
840.055	5102
840.193	5094
840.33	5132
840.467	5189
840.604	5178
840.742	5444
840.879	5105
841.016	5086
841.153	5166
841.29	5459
841.427	5299
841.564	5368
841.701	5357
841.838	5334
841.975	5326
842.112	5303
842.249	5193
842.385	5162
842.522	5379
842.659	5239
842.796	5185
842.933	5261
843.069	5201
843.206	5147
843.343	5337
843.479	5273
843.616	5311
843.752	5045
843.889	5052
844.025	5265
844.162	5064
844.298	5280
844.435	5102
844.571	5056
844.708	5216
844.844	5337
844.98	5326
845.117	5322
845.253	5166
845.389	5064
845.525	5185
845.661	5174
845.798	5071
845.934	5147
846.07	5090
846.206	5216
846.342	5269
846.478	5197
846.614	5064
846.75	5010
846.886	4957
847.022	5212
847.158	5060
847.294	5121
847.429	5102
847.565	5094
847.701	5372
847.837	4870
847.972	4786
848.108	4949
848.244	4949
848.379	4835
848.515	4755
848.65	4736
848.786	4778
848.921	4771
849.057	4900
849.192	4908
849.328	4873
849.463	4881
849.598	4839
849.734	4774
849.869	4774
850.004	4660
850.14	4668
850.275	4653
850.41	4577
850.545	4599
850.68	4653
850.815	4592
850.95	4664
851.085	4896
851.22	4736
851.355	4733
851.49	4603
851.625	4637
851.76	4694
851.895	4588
852.03	4577
852.165	4691
852.299	4767
852.434	4752
852.569	4809
852.703	4828
852.838	4927
852.973	4930
853.107	4976
853.242	4786
853.376	4736
853.511	4580
853.645	4641
853.78	4820
853.914	4744
854.048	4736
854.183	4637
854.317	4698
854.451	4854
854.585	4748
854.72	4656
854.854	4736
854.988	4637
855.122	4668
855.256	4538
855.39	4694
855.524	4771
855.658	4778
855.792	4702
855.926	4736
856.06	4740
856.194	4831
856.327	4733
856.461	4645
856.595	4653
856.729	4645
856.862	4820
856.996	4729
857.13	4771
857.263	4809
857.397	4858
857.53	4691
857.664	4767
857.797	4797
857.931	4828
858.064	4778
858.197	4801
858.331	4672
858.464	4599
858.597	4588
858.731	4691
858.864	4634
858.997	4615
859.13	4717
859.263	4702
859.396	4725
859.529	4599
859.662	4622
859.795	4561
859.928	4687
860.061	4778
860.194	4763
860.327	4637
860.46	4675
860.592	4714
860.725	4778
860.858	4729
860.99	4634
861.123	4588
861.256	4592
861.388	4664
861.521	5315
861.653	4508
861.786	4485
861.918	4531
862.05	4508
862.183	4603
862.315	4664
862.447	4622
862.58	4630
862.712	4421
862.844	4402
862.976	4527
863.108	4474
863.24	4904
863.372	4352
863.504	4462
863.636	4398
863.768	4497
863.9	4508
864.032	4360
864.164	4440
864.296	4493
864.428	4565
864.559	4580
864.691	4546
864.823	4561
864.954	4550
865.086	4565
865.217	4504
865.349	4455
865.48	4478
865.612	4500
865.743	4668
865.875	4516
866.006	4485
866.137	4538
866.269	4474
866.4	4459
866.531	4443
866.662	4405
866.793	4409
866.924	4451
867.055	4481
867.186	4455
867.317	4462
867.448	4417
867.579	4386
867.71	4367
867.841	4432
867.972	4519
868.103	4500
868.233	4447
868.364	4493
868.495	4512
868.625	4694
868.756	4744
868.886	4596
869.017	4664
869.147	4812
869.278	4782
869.408	4637
869.539	4641
869.669	4778
869.799	4679
869.929	4763
870.06	4774
870.19	4946
870.32	4984
870.45	4911
870.58	5022
870.71	5113
870.84	5086
870.97	4957
871.1	4949
871.23	5155
871.36	5159
871.489	5064
871.619	5132
871.749	5109
871.879	5113
872.008	5151
872.138	5056
872.267	4999
872.397	4854
872.526	4831
872.656	4736
872.785	4858
872.915	4965
873.044	5067
873.173	4949
873.303	4984
873.432	4999
873.561	4980
873.69	4870
873.819	4904
873.948	4999
874.077	4881
874.206	4828
874.335	4812
874.464	4934
874.593	5052
874.722	4953
874.851	5090
874.979	5124
875.108	5075
875.237	4957
875.365	4934
875.494	4908
875.623	4991
875.751	4835
875.88	4877
876.008	5025
876.136	4999
876.265	5193
876.393	5337
876.521	5265
876.65	5254
876.778	5185
876.906	5113
877.034	5018
877.162	5094
877.29	4976
877.418	5083
877.546	5045
877.674	5067
877.802	5029
877.93	4987
878.058	4927
878.185	4866
878.313	4984
878.441	4980
878.568	4809
878.696	4862
878.824	5003
878.951	5018
879.079	5166
879.206	5292
879.333	5162
879.461	5014
879.588	5029
879.715	5136
879.842	5197
879.97	5045
880.097	4793
880.224	4729
880.351	4839
880.478	4877
880.605	4889
880.732	4801
880.859	5113
880.986	4904
881.112	4957
881.239	4805
881.366	4714
881.493	4618
881.619	4622
881.746	4691
881.872	4702
881.999	4653
882.125	4717
882.252	4831
882.378	4831
882.505	5003
882.631	4862
882.757	4702
882.883	4790
883.01	4763
883.136	4725
883.262	4637
883.388	4618
883.514	4801
883.64	4873
883.766	4809
883.892	4672
884.018	4706
884.143	4908
884.269	5041
884.395	4653
884.52	4596
884.646	4660
884.772	4607
884.897	4596
885.023	4698
885.148	4843
885.274	4881
885.399	4839
885.524	4744
885.65	4672
885.775	4790
885.9	4740
886.025	4858
886.15	4831
886.275	4710
886.4	4683
886.525	4717
886.65	4717
886.775	4702
886.9	4980
887.025	5006
887.149	4858
887.274	4679
887.399	4573
887.523	4580
887.648	4565
887.773	4634
887.897	4809
888.021	4812
888.146	4660
888.27	4835
888.395	4919
888.519	4774
888.643	4809
888.767	4839
888.891	4717
889.015	4622
889.139	4668
889.263	4653
889.387	4824
889.511	4847
889.635	4831
889.759	4630
889.883	4694
890.006	4710
890.13	4835
890.254	4626
890.377	4668
890.501	4561
890.624	4527
890.748	4626
890.871	4516
890.995	4432
891.118	4402
891.241	4531
891.364	4546
891.488	4622
891.611	4470
891.734	4569
891.857	4607
891.98	4558
892.103	4683
892.226	4580
892.349	4523
892.471	4459
892.594	4558
892.717	4626
892.839	4615
892.962	4577
893.085	4706
893.207	4656
893.33	4459
893.452	4542
893.575	4714
893.697	4630
893.819	4812
893.941	4847
894.064	4801
894.186	4618
894.308	4558
894.43	4782
894.552	4812
894.674	4763
894.796	4519
894.918	4584
895.04	4596
895.161	4721
895.283	4672
895.405	4599
895.526	4683
895.648	4721
895.769	4694
895.891	4702
896.012	4736
896.134	4740
896.255	4653
896.376	4653
896.498	4580
896.619	4736
896.74	4683
896.861	4668
896.982	4911
897.103	5102
897.224	4805
897.345	4759
897.466	4668
897.587	4736
897.708	4900
897.828	4839
897.949	4653
898.07	4569
898.19	4668
898.311	4870
898.431	4675
898.552	4714
898.672	4839
898.792	4752
898.913	4733
899.033	4649
899.153	4519
899.273	4440
899.393	4538
899.513	4451
899.633	4558
899.753	4569
899.873	4493
899.993	4603
900.113	4523
900.232	4618
900.352	4580
900.472	4474
900.591	4428
900.711	4497
900.83	4459
900.95	4599
901.069	4702
901.189	4542
901.308	4356
901.427	4314
901.546	4375
901.665	4508
901.784	4535
901.904	4379
902.023	4352
902.141	4158
902.26	4200
902.379	4371
902.498	4246
902.617	4227
902.735	4383
902.854	4413
902.973	4371
903.091	4253
903.21	4287
903.328	4276
903.446	4265
903.565	4238
903.683	4348
903.801	4322
903.919	4409
904.038	4440
904.156	4329
904.274	4428
904.392	4424
904.51	4443
904.627	4489
904.745	4603
904.863	4634
904.981	4344
905.098	4329
905.216	4405
905.334	4428
905.451	4409
905.569	4417
905.686	4554
905.803	4573
905.921	4440
906.038	4607
906.155	4508
906.272	4421
906.389	4485
906.506	4322
906.623	4386
906.74	4402
906.857	4272
906.974	4394
907.091	4542
907.208	4660
907.324	4630
907.441	4489
907.557	4352
907.674	4417
907.79	4310
907.907	4360
908.023	4481
908.139	4462
908.256	4436
908.372	4500
908.488	4466
908.604	4394
908.72	4348
908.836	4367
908.952	4383
909.068	4417
909.184	4573
909.3	4478
909.415	4588
909.531	4527
909.647	4386
909.762	4371
909.878	4383
909.993	4440
910.108	4447
910.224	4451
910.339	4535
910.454	4390
910.57	4356
910.685	4348
910.8	4664
910.915	4626
911.03	4523
911.145	4341
911.259	4322
911.374	4394
911.489	4322
911.604	4265
911.718	4158
911.833	4162
911.947	4078
912.062	4032
912.176	4230
912.291	4249
912.405	4230
912.519	4455
912.633	4500
912.748	4379
912.862	4341
912.976	4211
913.09	4090
913.204	4185
913.318	4265
913.431	4375
913.545	4421
913.659	4447
913.772	4379
913.886	4261
914	4227
914.113	4417
914.226	4470
914.34	4386
914.453	4227
914.566	4417
914.68	4272
914.793	4318
914.906	4166
915.019	4135
915.132	4124
915.245	4204
915.358	4215
915.47	4192
915.583	4299
915.696	4318
915.809	4455
915.921	4424
916.034	4200
916.146	4272
916.259	4253
916.371	4409
916.483	4310
916.595	4272
916.708	4303
916.82	4329
916.932	4344
917.044	4276
917.156	4318
917.268	4230
917.38	4261
917.491	4280
917.603	4329
917.715	4428
917.826	4409
917.938	4322
918.049	4227
918.161	4402
918.272	4497
918.384	4531
918.495	4424
918.606	4333
918.717	4181
918.828	4325
918.939	4390
919.05	4257
919.161	4325
919.272	4154
919.383	4265
919.494	4440
919.604	4653
919.715	4459
919.826	4341
919.936	4383
920.047	4489
920.157	4481
920.267	4698
920.378	4546
920.488	4508
920.598	4717
920.708	4862
920.818	4797
920.928	4771
921.038	4953
921.148	4927
921.258	4656
921.368	4588
921.477	4523
921.587	4432
921.697	4375
921.806	4554
921.916	4436
922.025	4291
922.134	4268
922.244	4238
922.353	4325
922.462	4158
922.571	4139
922.68	3998
922.789	3994
922.898	4036
923.007	3983
923.116	4120
923.224	4074
923.333	4071
923.442	3998
923.55	3983
923.659	4017
923.767	4082
923.876	4021
923.984	4143
924.092	3983
924.201	4090
924.309	4082
924.417	4131
924.525	4063
924.633	4150
924.741	5010
924.849	3869
924.956	4188
925.064	3964
925.172	3922
925.279	3994
925.387	4010
925.494	4071
925.602	4192
925.709	4131
925.816	4044
925.924	4135
926.031	4246
926.138	4204
926.245	4185
926.352	4120
926.459	4204
926.566	4306
926.673	4173
926.779	4063
926.886	4071
926.993	3964
927.099	3934
927.206	3922
927.312	3945
927.419	4071
927.525	4074
927.631	4097
927.737	3930
927.843	3949
927.95	3819
928.056	3934
928.162	3998
928.267	4097
928.373	4664
928.479	4105
928.585	3888
928.69	4040
928.796	4067
928.901	4006
929.007	3873
929.112	3998
929.218	3956
929.323	3926
929.428	3907
929.533	4139
929.638	3880
929.743	3968
929.848	4055
929.953	3987
930.058	3907
930.163	3770
930.267	3831
930.372	3960
930.477	3846
930.581	4086
930.685	3972
930.79	3819
930.894	3876
930.998	3838
931.103	4032
931.207	3690
931.311	3705
931.415	3648
931.519	3511
931.623	3538
