Data from test_V78500241_1666.txt Node
Date: Fri Mar 25 17:00:35 CST 2022
User: usil
Spectrometer: V785-0024
Trigger mode: 0
Integration Time (sec): 4.000000E-1
Scans to average: 1
Nonlinearity correction enabled: false
Boxcar width: 0
Storing dark spectrum: false
XAxis mode: Wavelengths
Number of Pixels in Spectrum: 1024
>>>>>Begin Spectral Data<<<<<
801.071	7967
801.214	8039
801.356	7879
801.499	7845
801.641	7818
801.783	7860
801.926	7993
802.068	7917
802.211	8020
802.353	7959
802.496	7849
802.638	7871
802.78	7902
802.923	7959
803.065	7902
803.208	7860
803.35	7944
803.492	8027
803.635	8103
803.777	8043
803.919	8157
804.061	8438
804.204	8058
804.346	8081
804.488	7906
804.63	8092
804.773	8024
804.915	8157
805.057	8286
805.199	8183
805.341	8233
805.483	8301
805.626	8263
805.768	8100
805.91	8256
806.052	8202
806.194	8111
806.336	8317
806.478	8138
806.62	8084
806.762	8157
806.904	8294
807.046	8530
807.188	8419
807.33	8286
807.472	8305
807.614	8195
807.756	8195
807.898	7963
808.04	7894
808.182	7951
808.324	7925
808.465	7917
808.607	8100
808.749	8161
808.891	8199
809.033	8366
809.174	8214
809.316	8107
809.458	8092
809.6	8035
809.741	8024
809.883	8092
810.025	8138
810.166	8020
810.308	8035
810.45	8077
810.591	7951
810.733	7715
810.875	7636
811.016	7518
811.158	7464
811.299	7575
811.441	7685
811.582	7616
811.724	7613
811.865	7567
812.007	7628
812.148	7552
812.29	7643
812.431	7814
812.573	7928
812.714	8020
812.855	8157
812.997	8244
813.138	8324
813.279	8191
813.421	8100
813.562	8005
813.703	7799
813.845	7780
813.986	7419
814.127	7263
814.268	7240
814.41	7221
814.551	7179
814.692	7266
814.833	7114
814.974	7099
815.115	7149
815.256	6962
815.397	6916
815.539	6985
815.68	6837
815.821	6757
815.962	6844
816.103	6867
816.244	6673
816.385	6597
816.526	6589
816.666	6593
816.807	6300
816.948	6445
817.089	6509
817.23	6433
817.371	6418
817.512	6388
817.653	6418
817.793	6331
817.934	6418
818.075	6445
818.216	6460
818.356	6433
818.497	6266
818.638	6129
818.778	6163
818.919	6102
819.06	6175
819.2	6323
819.341	6331
819.481	6395
819.622	6509
819.762	6722
819.903	6639
820.043	6623
820.184	6521
820.324	6593
820.465	6703
820.605	6722
820.746	6665
820.886	6544
821.026	6616
821.167	6662
821.307	6848
821.447	6810
821.588	6707
821.728	6593
821.868	6486
822.008	6334
822.149	6365
822.289	6376
822.429	6171
822.569	6095
822.709	6144
822.849	5912
822.99	5923
823.13	5958
823.27	5931
823.41	5813
823.55	5805
823.69	5729
823.83	5828
823.97	5703
824.11	5547
824.25	5501
824.389	5611
824.529	5570
824.669	5524
824.809	5661
824.949	5657
825.089	5577
825.228	5539
825.368	5395
825.508	5353
825.648	5341
825.787	5391
825.927	5421
826.067	5330
826.206	5273
826.346	5368
826.485	5372
826.625	5440
826.765	5520
826.904	5474
827.044	5223
827.183	5239
827.323	5170
827.462	5299
827.601	5208
827.741	5208
827.88	5216
828.02	5151
828.159	5242
828.298	5318
828.437	5345
828.577	5258
828.716	5463
828.855	5395
828.994	5174
829.134	5143
829.273	5204
829.412	5117
829.551	5174
829.69	5181
829.829	5269
829.968	5410
830.107	5246
830.246	5292
830.385	5212
830.524	5136
830.663	5071
830.802	4953
830.941	4889
831.08	4900
831.219	4987
831.357	5048
831.496	5208
831.635	4908
831.774	4881
831.913	4885
832.051	4702
832.19	4733
832.329	4809
832.467	4702
832.606	4672
832.744	4717
832.883	4675
833.022	4691
833.16	4778
833.299	4812
833.437	4812
833.576	4839
833.714	4877
833.852	4866
833.991	4908
834.129	4930
834.267	4953
834.406	4877
834.544	4965
834.682	4984
834.821	4961
834.959	5155
835.097	4999
835.235	5132
835.373	5045
835.511	5124
835.65	5052
835.788	5067
835.926	4896
836.064	4892
836.202	4938
836.34	5151
836.478	5220
836.615	5113
836.753	5204
836.891	5246
837.029	5227
837.167	5162
837.305	5178
837.443	5124
837.58	5090
837.718	5242
837.856	5155
837.993	5105
838.131	5223
838.269	5246
838.406	5223
838.544	5178
838.681	5083
838.819	5029
838.956	4866
839.094	4942
839.231	4980
839.369	5060
839.506	5455
839.643	5239
839.781	5037
839.918	4968
840.055	5094
840.193	5098
840.33	5140
840.467	5136
840.604	5189
840.742	5421
840.879	5102
841.016	5105
841.153	5132
841.29	5395
841.427	5299
841.564	5284
841.701	5326
841.838	5231
841.975	5223
842.112	5258
842.249	5128
842.385	5128
842.522	5391
842.659	5181
842.796	5140
842.933	5174
843.069	5056
843.206	5174
843.343	5273
843.479	5258
843.616	5284
843.752	5079
843.889	5029
844.025	5197
844.162	4991
844.298	5216
844.435	5090
844.571	5010
844.708	5239
844.844	5360
844.98	5334
845.117	5303
845.253	5128
845.389	5041
845.525	5159
845.661	5136
845.798	4984
845.934	5098
846.07	5056
846.206	5204
846.342	5254
846.478	5178
846.614	5025
846.75	4953
846.886	4934
847.022	5086
847.158	5037
847.294	5094
847.429	5102
847.565	5048
847.701	5330
847.837	4870
847.972	4778
848.108	4934
848.244	4938
848.379	4755
848.515	4759
848.65	4729
848.786	4736
848.921	4786
849.057	4908
849.192	4904
849.328	4771
849.463	4816
849.598	4824
849.734	4702
849.869	4653
850.004	4649
850.14	4691
850.275	4645
850.41	4561
850.545	4565
850.68	4603
850.815	4611
850.95	4653
851.085	4805
851.22	4763
851.355	4672
851.49	4596
851.625	4637
851.76	4649
851.895	4599
852.03	4504
852.165	4672
852.299	4736
852.434	4752
852.569	4714
852.703	4752
852.838	4820
852.973	4896
853.107	4900
853.242	4771
853.376	4679
853.511	4554
853.645	4626
853.78	4767
853.914	4691
854.048	4664
854.183	4660
854.317	4683
854.451	4847
854.585	4660
854.72	4637
854.854	4725
854.988	4584
855.122	4588
855.256	4481
855.39	4653
855.524	4778
855.658	4733
855.792	4672
855.926	4725
856.06	4729
856.194	4801
856.327	4691
856.461	4626
856.595	4577
856.729	4626
856.862	4786
856.996	4660
857.13	4733
857.263	4763
857.397	4767
857.53	4668
857.664	4755
857.797	4812
857.931	4759
858.064	4672
858.197	4656
858.331	4630
858.464	4550
858.597	4512
858.731	4611
858.864	4656
858.997	4653
859.13	4622
859.263	4637
859.396	4717
859.529	4626
859.662	4546
859.795	4512
859.928	4630
860.061	4786
860.194	4733
860.327	4577
860.46	4531
860.592	4668
860.725	4752
860.858	4698
860.99	4596
861.123	4474
861.256	4531
861.388	4611
861.521	5326
861.653	4523
861.786	4440
861.918	4485
862.05	4508
862.183	4577
862.315	4592
862.447	4653
862.58	4603
862.712	4367
862.844	4261
862.976	4440
863.108	4447
863.24	4774
863.372	4314
863.504	4447
863.636	4348
863.768	4409
863.9	4459
864.032	4371
864.164	4375
864.296	4470
864.428	4542
864.559	4493
864.691	4535
864.823	4542
864.954	4474
865.086	4493
865.217	4440
865.349	4459
865.48	4489
865.612	4489
865.743	4626
865.875	4478
866.006	4356
866.137	4485
866.269	4398
866.4	4432
866.531	4417
866.662	4398
866.793	4421
866.924	4405
867.055	4489
867.186	4470
867.317	4421
867.448	4436
867.579	4428
867.71	4356
867.841	4379
867.972	4455
868.103	4440
868.233	4443
868.364	4474
868.495	4489
868.625	4694
868.756	4752
868.886	4588
869.017	4596
869.147	4763
869.278	4774
869.408	4653
869.539	4603
869.669	4721
869.799	4675
869.929	4763
870.06	4733
870.19	5022
870.32	4839
870.45	4911
870.58	5056
870.71	5105
870.84	5094
870.97	4946
871.1	4850
871.23	5151
871.36	5105
871.489	5048
871.619	5064
871.749	5067
871.879	5128
872.008	5143
872.138	5010
872.267	5018
872.397	4828
872.526	4793
872.656	4706
872.785	4847
872.915	4991
873.044	5010
873.173	4961
873.303	4930
873.432	4961
873.561	4957
873.69	4873
873.819	4835
873.948	4877
874.077	4820
874.206	4721
874.335	4793
874.464	4938
874.593	5060
874.722	5014
874.851	5105
874.979	5052
875.108	5006
875.237	4904
875.365	4835
875.494	4908
875.623	4892
875.751	4820
875.88	4870
876.008	4961
876.136	5029
876.265	5121
876.393	5299
876.521	5250
876.65	5223
876.778	5109
876.906	5052
877.034	5006
877.162	5056
877.29	5006
877.418	5064
877.546	5067
877.674	5056
877.802	5025
877.93	4961
878.058	4976
878.185	4885
878.313	4953
878.441	4942
878.568	4790
878.696	4850
878.824	4881
878.951	4995
879.079	5117
879.206	5258
879.333	5056
879.461	4942
879.588	4961
879.715	5117
879.842	5151
879.97	4961
880.097	4805
880.224	4740
880.351	4797
880.478	4873
880.605	4812
880.732	4786
880.859	5090
880.986	4835
881.112	4923
881.239	4774
881.366	4679
881.493	4584
881.619	4580
881.746	4687
881.872	4599
881.999	4656
882.125	4656
882.252	4782
882.378	4801
882.505	4957
882.631	4790
882.757	4637
882.883	4710
883.01	4714
883.136	4660
883.262	4535
883.388	4611
883.514	4858
883.64	4850
883.766	4771
883.892	4672
884.018	4706
884.143	4870
884.269	4995
884.395	4698
884.52	4649
884.646	4618
884.772	4588
884.897	4565
885.023	4660
885.148	4725
885.274	4881
885.399	4786
885.524	4717
885.65	4675
885.775	4729
885.9	4698
886.025	4820
886.15	4797
886.275	4698
886.4	4615
886.525	4653
886.65	4649
886.775	4694
886.9	4873
887.025	5090
887.149	4824
887.274	4649
887.399	4626
887.523	4592
887.648	4569
887.773	4542
887.897	4755
888.021	4790
888.146	4653
888.27	4801
888.395	4873
888.519	4771
888.643	4866
888.767	4843
888.891	4733
889.015	4645
889.139	4645
889.263	4672
889.387	4733
889.511	4847
889.635	4812
889.759	4645
889.883	4630
890.006	4698
890.13	4805
890.254	4573
890.377	4660
890.501	4561
890.624	4478
890.748	4630
890.871	4470
890.995	4409
891.118	4356
891.241	4519
891.364	4535
891.488	4592
891.611	4577
891.734	4516
891.857	4580
891.98	4580
892.103	4664
892.226	4592
892.349	4538
892.471	4413
892.594	4531
892.717	4592
892.839	4592
892.962	4573
893.085	4630
893.207	4660
893.33	4443
893.452	4497
893.575	4637
893.697	4565
893.819	4801
893.941	4839
894.064	4786
894.186	4554
894.308	4565
894.43	4767
894.552	4862
894.674	4721
894.796	4577
894.918	4592
895.04	4607
895.161	4683
895.283	4664
895.405	4611
895.526	4630
895.648	4691
895.769	4649
895.891	4759
896.012	4714
896.134	4694
896.255	4653
896.376	4615
896.498	4599
896.619	4691
896.74	4596
896.861	4645
896.982	4911
897.103	5056
897.224	4805
897.345	4755
897.466	4683
897.587	4691
897.708	4870
897.828	4778
897.949	4634
898.07	4554
898.19	4645
898.311	4839
898.431	4679
898.552	4672
898.672	4744
898.792	4763
898.913	4733
899.033	4588
899.153	4512
899.273	4451
899.393	4459
899.513	4584
899.633	4512
899.753	4542
899.873	4455
899.993	4558
900.113	4527
900.232	4577
900.352	4550
900.472	4459
900.591	4348
900.711	4455
900.83	4462
900.95	4584
901.069	4710
901.189	4531
901.308	4363
901.427	4306
901.546	4405
901.665	4504
901.784	4493
901.904	4402
902.023	4325
902.141	4196
902.26	4154
902.379	4322
902.498	4227
902.617	4291
902.735	4413
902.854	4409
902.973	4352
903.091	4246
903.21	4265
903.328	4284
903.446	4246
903.565	4268
903.683	4367
903.801	4341
903.919	4402
904.038	4447
904.156	4280
904.274	4451
904.392	4455
904.51	4390
904.627	4516
904.745	4573
904.863	4626
904.981	4375
905.098	4314
905.216	4360
905.334	4455
905.451	4428
905.569	4436
905.686	4588
905.803	4569
905.921	4432
906.038	4558
906.155	4470
906.272	4386
906.389	4428
906.506	4371
906.623	4344
906.74	4344
906.857	4344
906.974	4356
907.091	4535
907.208	4637
907.324	4596
907.441	4466
907.557	4352
907.674	4341
907.79	4344
907.907	4402
908.023	4470
908.139	4485
908.256	4421
908.372	4497
908.488	4451
908.604	4348
908.72	4341
908.836	4360
908.952	4413
909.068	4428
909.184	4569
909.3	4455
909.415	4653
909.531	4546
909.647	4352
909.762	4375
909.878	4367
909.993	4413
910.108	4413
910.224	4402
910.339	4466
910.454	4398
910.57	4390
910.685	4276
910.8	4637
910.915	4611
911.03	4508
911.145	4322
911.259	4314
911.374	4337
911.489	4276
911.604	4291
911.718	4139
911.833	4207
911.947	4055
912.062	4017
912.176	4185
912.291	4230
912.405	4238
912.519	4417
912.633	4500
912.748	4375
912.862	4295
912.976	4230
913.09	4040
913.204	4162
913.318	4265
913.431	4375
913.545	4375
913.659	4409
913.772	4386
913.886	4238
914	4185
914.113	4394
914.226	4462
914.34	4402
914.453	4253
914.566	4447
914.68	4325
914.793	4299
914.906	4147
915.019	4116
915.132	4059
915.245	4204
915.358	4196
915.47	4196
915.583	4227
915.696	4265
915.809	4424
915.921	4413
916.034	4291
916.146	4280
916.259	4200
916.371	4352
916.483	4383
916.595	4284
916.708	4284
916.82	4257
916.932	4249
917.044	4329
917.156	4306
917.268	4204
917.38	4333
917.491	4238
917.603	4371
917.715	4440
917.826	4428
917.938	4337
918.049	4242
918.161	4405
918.272	4558
918.384	4569
918.495	4443
918.606	4329
918.717	4253
918.828	4356
918.939	4360
919.05	4257
919.161	4303
919.272	4120
919.383	4200
919.494	4428
919.604	4596
919.715	4405
919.826	4325
919.936	4310
920.047	4497
920.157	4478
920.267	4683
920.378	4561
920.488	4493
920.598	4687
920.708	4881
920.818	4774
920.928	4839
921.038	4938
921.148	4915
921.258	4588
921.368	4588
921.477	4470
921.587	4535
921.697	4360
921.806	4516
921.916	4436
922.025	4223
922.134	4265
922.244	4268
922.353	4295
922.462	4158
922.571	4139
922.68	3968
922.789	3915
922.898	4055
923.007	4006
923.116	4112
923.224	4082
923.333	4071
923.442	3979
923.55	3903
923.659	4017
923.767	4086
923.876	3991
923.984	4082
924.092	4002
924.201	4082
924.309	4029
924.417	4131
924.525	4044
924.633	4078
924.741	4900
924.849	3907
924.956	4112
925.064	3918
925.172	3892
925.279	3975
925.387	4051
925.494	4059
925.602	4253
925.709	4188
925.816	4010
925.924	4139
926.031	4246
926.138	4162
926.245	4207
926.352	4059
926.459	4261
926.566	4280
926.673	4147
926.779	4059
926.886	4071
926.993	3994
927.099	3949
927.206	3892
927.312	3941
927.419	4036
927.525	4032
927.631	4078
927.737	3960
927.843	3915
927.95	3861
928.056	3953
928.162	3991
928.267	4055
928.373	4535
928.479	4093
928.585	3865
928.69	4036
928.796	4063
928.901	3987
929.007	3804
929.112	4025
929.218	4010
929.323	3934
929.428	3941
929.533	4074
929.638	3926
929.743	3994
929.848	4048
929.953	3998
930.058	3873
930.163	3789
930.267	3800
930.372	3991
930.477	3797
930.581	4074
930.685	3953
930.79	3823
930.894	3907
930.998	3835
931.103	3983
931.207	3682
931.311	3682
931.415	3679
931.519	3473
931.623	3561
