Data from test_V78500241_847.txt Node
Date: Fri Mar 25 16:54:53 CST 2022
User: usil
Spectrometer: V785-0024
Trigger mode: 0
Integration Time (sec): 4.000000E-1
Scans to average: 1
Nonlinearity correction enabled: false
Boxcar width: 0
Storing dark spectrum: false
XAxis mode: Wavelengths
Number of Pixels in Spectrum: 1024
>>>>>Begin Spectral Data<<<<<
801.071	8024
801.214	7951
801.356	7875
801.499	7837
801.641	7830
801.783	7902
801.926	8054
802.068	7906
802.211	8001
802.353	7959
802.496	7875
802.638	7909
802.78	7898
802.923	7898
803.065	7944
803.208	7978
803.35	7955
803.492	8107
803.635	8168
803.777	8031
803.919	8115
804.061	8393
804.204	8126
804.346	8062
804.488	8035
804.63	8107
804.773	8012
804.915	8020
805.057	8225
805.199	8145
805.341	8214
805.483	8210
805.626	8187
805.768	8077
805.91	8172
806.052	8237
806.194	8115
806.336	8286
806.478	8107
806.62	8046
806.762	8096
806.904	8275
807.046	8431
807.188	8404
807.33	8294
807.472	8294
807.614	8183
807.756	8084
807.898	7974
808.04	7841
808.182	7822
808.324	7871
808.465	7852
808.607	7989
808.749	7997
808.891	8168
809.033	8309
809.174	8180
809.316	8008
809.458	7997
809.6	7974
809.741	8050
809.883	8058
810.025	8103
810.166	8039
810.308	8020
810.45	8001
810.591	7849
810.733	7765
810.875	7670
811.016	7499
811.158	7510
811.299	7533
811.441	7658
811.582	7624
811.724	7544
811.865	7521
812.007	7567
812.148	7567
812.29	7632
812.431	7647
812.573	7807
812.714	7902
812.855	8092
812.997	8187
813.138	8279
813.279	8115
813.421	8081
813.562	7940
813.703	7837
813.845	7746
813.986	7422
814.127	7293
814.268	7274
814.41	7202
814.551	7145
814.692	7175
814.833	7004
814.974	7069
815.115	7031
815.256	6947
815.397	6901
815.539	6928
815.68	6840
815.821	6791
815.962	6814
816.103	6772
816.244	6760
816.385	6673
816.526	6612
816.666	6517
816.807	6258
816.948	6414
817.089	6464
817.23	6422
817.371	6319
817.512	6376
817.653	6311
817.793	6369
817.934	6395
818.075	6426
818.216	6479
818.356	6365
818.497	6178
818.638	6060
818.778	6114
818.919	6106
819.06	6190
819.2	6334
819.341	6296
819.481	6346
819.622	6547
819.762	6662
819.903	6715
820.043	6559
820.184	6597
820.324	6559
820.465	6688
820.605	6627
820.746	6601
820.886	6551
821.026	6650
821.167	6650
821.307	6787
821.447	6730
821.588	6677
821.728	6582
821.868	6525
822.008	6319
822.149	6369
822.289	6334
822.429	6197
822.569	6117
822.709	6136
822.849	5923
822.99	5942
823.13	5965
823.27	5973
823.41	5832
823.55	5844
823.69	5817
823.83	5840
823.97	5714
824.11	5539
824.25	5543
824.389	5543
824.529	5615
824.669	5524
824.809	5653
824.949	5661
825.089	5619
825.228	5592
825.368	5410
825.508	5345
825.648	5341
825.787	5398
825.927	5410
826.067	5311
826.206	5311
826.346	5376
826.485	5452
826.625	5444
826.765	5558
826.904	5520
827.044	5250
827.183	5292
827.323	5181
827.462	5292
827.601	5212
827.741	5246
827.88	5258
828.02	5151
828.159	5280
828.298	5303
828.437	5364
828.577	5349
828.716	5497
828.855	5395
828.994	5227
829.134	5193
829.273	5201
829.412	5201
829.551	5136
829.69	5208
829.829	5280
829.968	5387
830.107	5277
830.246	5284
830.385	5227
830.524	5113
830.663	5121
830.802	5010
830.941	4927
831.08	4911
831.219	5025
831.357	5048
831.496	5216
831.635	4957
831.774	4915
831.913	4866
832.051	4759
832.19	4767
832.329	4889
832.467	4691
832.606	4721
832.744	4782
832.883	4755
833.022	4710
833.16	4812
833.299	4847
833.437	4820
833.576	4839
833.714	4877
833.852	4930
833.991	4847
834.129	4976
834.267	4946
834.406	4942
834.544	5022
834.682	4980
834.821	5029
834.959	5136
835.097	5014
835.235	5189
835.373	5132
835.511	5105
835.65	5037
835.788	5010
835.926	4919
836.064	4923
836.202	4923
836.34	5227
836.478	5280
836.615	5132
836.753	5296
836.891	5326
837.029	5254
837.167	5178
837.305	5159
837.443	5162
837.58	5117
837.718	5280
837.856	5197
837.993	5143
838.131	5231
838.269	5216
838.406	5231
838.544	5170
838.681	5064
838.819	5045
838.956	4904
839.094	4949
839.231	4999
839.369	5079
839.506	5406
839.643	5315
839.781	5052
839.918	4972
840.055	5056
840.193	5132
840.33	5143
840.467	5151
840.604	5204
840.742	5497
840.879	5090
841.016	5117
841.153	5162
841.29	5357
841.427	5406
841.564	5292
841.701	5398
841.838	5296
841.975	5261
842.112	5322
842.249	5189
842.385	5132
842.522	5364
842.659	5166
842.796	5155
842.933	5204
843.069	5189
843.206	5181
843.343	5311
843.479	5235
843.616	5303
843.752	5094
843.889	5056
844.025	5212
844.162	5064
844.298	5223
844.435	5098
844.571	5064
844.708	5227
844.844	5341
844.98	5341
845.117	5288
845.253	5143
845.389	5136
845.525	5193
845.661	5159
845.798	5075
845.934	5136
846.07	5121
846.206	5220
846.342	5364
846.478	5170
846.614	5045
846.75	5025
846.886	4949
847.022	5189
847.158	5041
847.294	5067
847.429	5102
847.565	5079
847.701	5360
847.837	4870
847.972	4805
848.108	4965
848.244	4900
848.379	4767
848.515	4694
848.65	4740
848.786	4752
848.921	4778
849.057	4877
849.192	4946
849.328	4839
849.463	4870
849.598	4824
849.734	4812
849.869	4748
850.004	4592
850.14	4683
850.275	4618
850.41	4573
850.545	4641
850.68	4645
850.815	4649
850.95	4607
851.085	4854
851.22	4793
851.355	4683
851.49	4611
851.625	4660
851.76	4660
851.895	4580
852.03	4538
852.165	4645
852.299	4744
852.434	4805
852.569	4752
852.703	4816
852.838	4839
852.973	4965
853.107	4957
853.242	4782
853.376	4668
853.511	4538
853.645	4637
853.78	4831
853.914	4710
854.048	4675
854.183	4649
854.317	4755
854.451	4870
854.585	4702
854.72	4649
854.854	4744
854.988	4580
855.122	4618
855.256	4519
855.39	4634
855.524	4797
855.658	4740
855.792	4687
855.926	4748
856.06	4755
856.194	4820
856.327	4702
856.461	4656
856.595	4618
856.729	4668
856.862	4755
856.996	4660
857.13	4725
857.263	4782
857.397	4858
857.53	4698
857.664	4752
857.797	4812
857.931	4820
858.064	4744
858.197	4793
858.331	4672
858.464	4596
858.597	4512
858.731	4656
858.864	4611
858.997	4596
859.13	4660
859.263	4653
859.396	4717
859.529	4596
859.662	4584
859.795	4561
859.928	4618
860.061	4763
860.194	4816
860.327	4607
860.46	4584
860.592	4710
860.725	4767
860.858	4748
860.99	4596
861.123	4588
861.256	4550
861.388	4573
861.521	5330
861.653	4516
861.786	4478
861.918	4500
862.05	4512
862.183	4599
862.315	4603
862.447	4660
862.58	4558
862.712	4436
862.844	4379
862.976	4455
863.108	4497
863.24	4733
863.372	4337
863.504	4417
863.636	4424
863.768	4504
863.9	4466
864.032	4383
864.164	4398
864.296	4428
864.428	4577
864.559	4519
864.691	4558
864.823	4538
864.954	4561
865.086	4447
865.217	4462
865.349	4424
865.48	4527
865.612	4459
865.743	4694
865.875	4523
866.006	4421
866.137	4478
866.269	4485
866.4	4459
866.531	4413
866.662	4455
866.793	4451
866.924	4367
867.055	4535
867.186	4451
867.317	4443
867.448	4383
867.579	4383
867.71	4352
867.841	4367
867.972	4462
868.103	4481
868.233	4470
868.364	4424
868.495	4459
868.625	4649
868.756	4748
868.886	4561
869.017	4611
869.147	4782
869.278	4759
869.408	4679
869.539	4634
869.669	4763
869.799	4702
869.929	4782
870.06	4694
870.19	4999
870.32	4949
870.45	4923
870.58	5010
870.71	5105
870.84	5159
870.97	4930
871.1	4930
871.23	5170
871.36	5174
871.489	5003
871.619	5094
871.749	5086
871.879	5090
872.008	5181
872.138	5105
872.267	4953
872.397	4877
872.526	4816
872.656	4748
872.785	4805
872.915	4976
873.044	5033
873.173	4953
873.303	4953
873.432	4972
873.561	4991
873.69	4889
873.819	4831
873.948	4934
874.077	4873
874.206	4778
874.335	4801
874.464	4927
874.593	5075
874.722	4995
874.851	5094
874.979	5022
875.108	5010
875.237	4904
875.365	4885
875.494	4885
875.623	5022
875.751	4858
875.88	4938
876.008	4946
876.136	4995
876.265	5181
876.393	5326
876.521	5258
876.65	5201
876.778	5189
876.906	5094
877.034	5060
877.162	5033
877.29	4961
877.418	5045
877.546	4987
877.674	5079
877.802	5045
877.93	5033
878.058	4938
878.185	4820
878.313	5022
878.441	4991
878.568	4835
878.696	4866
878.824	4961
878.951	4957
879.079	5151
879.206	5337
879.333	5098
879.461	4968
879.588	4995
879.715	5064
879.842	5258
879.97	4972
880.097	4767
880.224	4733
880.351	4778
880.478	4843
880.605	4782
880.732	4793
880.859	5064
880.986	4858
881.112	4919
881.239	4790
881.366	4668
881.493	4615
881.619	4588
881.746	4649
881.872	4679
881.999	4645
882.125	4645
882.252	4763
882.378	4809
882.505	4961
882.631	4870
882.757	4687
882.883	4744
883.01	4702
883.136	4630
883.262	4580
883.388	4599
883.514	4820
883.64	4873
883.766	4797
883.892	4660
884.018	4721
884.143	4930
884.269	5018
884.395	4691
884.52	4672
884.646	4668
884.772	4531
884.897	4546
885.023	4675
885.148	4812
885.274	4877
885.399	4805
885.524	4733
885.65	4748
885.775	4733
885.9	4653
886.025	4881
886.15	4774
886.275	4683
886.4	4679
886.525	4729
886.65	4771
886.775	4675
886.9	4919
887.025	5060
887.149	4828
887.274	4668
887.399	4569
887.523	4580
887.648	4592
887.773	4550
887.897	4793
888.021	4816
888.146	4702
888.27	4797
888.395	4900
888.519	4774
888.643	4801
888.767	4790
888.891	4714
889.015	4615
889.139	4645
889.263	4618
889.387	4729
889.511	4904
889.635	4748
889.759	4687
889.883	4641
890.006	4744
890.13	4873
890.254	4622
890.377	4683
890.501	4542
890.624	4531
890.748	4634
890.871	4527
890.995	4424
891.118	4386
891.241	4565
891.364	4538
891.488	4641
891.611	4489
891.734	4538
891.857	4641
891.98	4550
892.103	4641
892.226	4599
892.349	4580
892.471	4390
892.594	4561
892.717	4618
892.839	4561
892.962	4611
893.085	4691
893.207	4573
893.33	4481
893.452	4504
893.575	4641
893.697	4554
893.819	4835
893.941	4820
894.064	4790
894.186	4538
894.308	4615
894.43	4721
894.552	4816
894.674	4763
894.796	4573
894.918	4573
895.04	4622
895.161	4687
895.283	4637
895.405	4573
895.526	4630
895.648	4725
895.769	4664
895.891	4702
896.012	4691
896.134	4736
896.255	4653
896.376	4664
896.498	4645
896.619	4656
896.74	4645
896.861	4660
896.982	4881
897.103	5067
897.224	4862
897.345	4729
897.466	4645
897.587	4672
897.708	4847
897.828	4797
897.949	4641
898.07	4584
898.19	4634
898.311	4790
898.431	4691
898.552	4725
898.672	4801
898.792	4801
898.913	4740
899.033	4649
899.153	4497
899.273	4462
899.393	4478
899.513	4519
899.633	4500
899.753	4561
899.873	4478
899.993	4599
900.113	4523
900.232	4535
900.352	4561
900.472	4451
900.591	4428
900.711	4500
900.83	4405
900.95	4649
901.069	4691
901.189	4542
901.308	4379
901.427	4325
901.546	4409
901.665	4455
901.784	4478
901.904	4383
902.023	4291
902.141	4207
902.26	4177
902.379	4314
902.498	4234
902.617	4196
902.735	4344
902.854	4344
902.973	4375
903.091	4249
903.21	4181
903.328	4299
903.446	4265
903.565	4242
903.683	4306
903.801	4318
903.919	4398
904.038	4443
904.156	4333
904.274	4436
904.392	4405
904.51	4462
904.627	4436
904.745	4565
904.863	4656
904.981	4390
905.098	4337
905.216	4383
905.334	4436
905.451	4383
905.569	4478
905.686	4558
905.803	4523
905.921	4386
906.038	4558
906.155	4459
906.272	4383
906.389	4478
906.506	4356
906.623	4356
906.74	4409
906.857	4318
906.974	4348
907.091	4558
907.208	4672
907.324	4561
907.441	4432
907.557	4341
907.674	4371
907.79	4303
907.907	4367
908.023	4466
908.139	4462
908.256	4447
908.372	4481
908.488	4409
908.604	4356
908.72	4287
908.836	4379
908.952	4348
909.068	4424
909.184	4550
909.3	4485
909.415	4573
909.531	4546
909.647	4333
909.762	4394
909.878	4325
909.993	4462
910.108	4394
910.224	4424
910.339	4455
910.454	4367
910.57	4329
910.685	4280
910.8	4691
910.915	4592
911.03	4531
911.145	4310
911.259	4322
911.374	4325
911.489	4299
911.604	4318
911.718	4162
911.833	4177
911.947	4101
912.062	4021
912.176	4177
912.291	4219
912.405	4230
912.519	4466
912.633	4546
912.748	4383
912.862	4333
912.976	4188
913.09	4093
913.204	4192
913.318	4253
913.431	4371
913.545	4322
913.659	4409
913.772	4390
913.886	4261
914	4177
914.113	4375
914.226	4417
914.34	4356
914.453	4246
914.566	4371
914.68	4291
914.793	4360
914.906	4131
915.019	4120
915.132	4036
915.245	4173
915.358	4253
915.47	4268
915.583	4268
915.696	4265
915.809	4360
915.921	4394
916.034	4227
916.146	4215
916.259	4211
916.371	4356
916.483	4367
916.595	4287
916.708	4322
916.82	4329
916.932	4341
917.044	4375
917.156	4325
917.268	4227
917.38	4284
917.491	4238
917.603	4356
917.715	4424
917.826	4421
917.938	4322
918.049	4246
918.161	4363
918.272	4550
918.384	4523
918.495	4478
918.606	4287
918.717	4207
918.828	4367
918.939	4390
919.05	4204
919.161	4299
919.272	4143
919.383	4211
919.494	4451
919.604	4637
919.715	4413
919.826	4363
919.936	4405
920.047	4535
920.157	4451
920.267	4691
920.378	4546
920.488	4519
920.598	4710
920.708	4911
920.818	4752
920.928	4786
921.038	4946
921.148	4953
921.258	4622
921.368	4546
921.477	4527
921.587	4447
921.697	4352
921.806	4531
921.916	4421
922.025	4276
922.134	4249
922.244	4249
922.353	4238
922.462	4188
922.571	4162
922.68	3998
922.789	3975
922.898	4055
923.007	3964
923.116	4109
923.224	4051
923.333	4105
923.442	3964
923.55	3945
923.659	3968
923.767	4105
923.876	4010
923.984	4105
924.092	3994
924.201	4059
924.309	4097
924.417	4131
924.525	4032
924.633	4090
924.741	4858
924.849	3937
924.956	4154
925.064	3949
925.172	3880
925.279	3949
925.387	4090
925.494	4063
925.602	4204
925.709	4166
925.816	4013
925.924	4116
926.031	4234
926.138	4177
926.245	4227
926.352	4059
926.459	4230
926.566	4284
926.673	4185
926.779	4059
926.886	4120
926.993	4013
927.099	3987
927.206	3926
927.312	3972
927.419	4082
927.525	4036
927.631	4071
927.737	3964
927.843	3972
927.95	3793
928.056	3934
928.162	4044
928.267	4109
928.373	4649
928.479	4154
928.585	3831
928.69	4051
928.796	4071
928.901	3994
929.007	3842
929.112	4002
929.218	3972
929.323	3918
929.428	3949
929.533	4067
929.638	3934
929.743	3899
929.848	4006
929.953	4002
930.058	3880
930.163	3755
930.267	3884
930.372	3998
930.477	3808
930.581	4040
930.685	3964
930.79	3808
930.894	3922
930.998	3831
931.103	4032
931.207	3705
931.311	3679
931.415	3667
931.519	3488
931.623	3545
