Data from test_V78500241_1448.txt Node
Date: Fri Mar 25 16:59:04 CST 2022
User: usil
Spectrometer: V785-0024
Trigger mode: 0
Integration Time (sec): 4.000000E-1
Scans to average: 1
Nonlinearity correction enabled: false
Boxcar width: 0
Storing dark spectrum: false
XAxis mode: Wavelengths
Number of Pixels in Spectrum: 1024
>>>>>Begin Spectral Data<<<<<
801.071	8081
801.214	7986
801.356	7795
801.499	7868
801.641	7769
801.783	7769
801.926	7936
802.068	7845
802.211	7955
802.353	7947
802.496	7830
802.638	7871
802.78	7894
802.923	7902
803.065	7864
803.208	7845
803.35	7887
803.492	8077
803.635	8058
803.777	7963
803.919	8069
804.061	8442
804.204	8100
804.346	8058
804.488	7982
804.63	8039
804.773	8035
804.915	8035
805.057	8279
805.199	8172
805.341	8172
805.483	8263
805.626	8176
805.768	8138
805.91	8126
806.052	8271
806.194	8176
806.336	8351
806.478	8134
806.62	8031
806.762	8168
806.904	8332
807.046	8431
807.188	8309
807.33	8275
807.472	8271
807.614	8126
807.756	8161
807.898	8058
808.04	7860
808.182	7917
808.324	7883
808.465	7936
808.607	8065
808.749	8103
808.891	8195
809.033	8275
809.174	8233
809.316	8054
809.458	8043
809.6	7932
809.741	8024
809.883	8031
810.025	8092
810.166	8035
810.308	8020
810.45	8027
810.591	7830
810.733	7742
810.875	7715
811.016	7457
811.158	7544
811.299	7601
811.441	7708
811.582	7693
811.724	7582
811.865	7472
812.007	7571
812.148	7563
812.29	7689
812.431	7696
812.573	7917
812.714	7974
812.855	8043
812.997	8164
813.138	8263
813.279	8225
813.421	8157
813.562	7887
813.703	7822
813.845	7784
813.986	7434
814.127	7244
814.268	7198
814.41	7179
814.551	7152
814.692	7110
814.833	7160
814.974	7091
815.115	7034
815.256	6924
815.397	6928
815.539	6924
815.68	6802
815.821	6760
815.962	6856
816.103	6787
816.244	6681
816.385	6620
816.526	6677
816.666	6525
816.807	6289
816.948	6414
817.089	6502
817.23	6372
817.371	6391
817.512	6357
817.653	6365
817.793	6361
817.934	6418
818.075	6479
818.216	6441
818.356	6380
818.497	6232
818.638	6163
818.778	6095
818.919	6076
819.06	6140
819.2	6369
819.341	6304
819.481	6319
819.622	6467
819.762	6681
819.903	6665
820.043	6616
820.184	6555
820.324	6551
820.465	6722
820.605	6654
820.746	6631
820.886	6509
821.026	6642
821.167	6711
821.307	6753
821.447	6825
821.588	6722
821.728	6551
821.868	6498
822.008	6292
822.149	6323
822.289	6304
822.429	6136
822.569	6053
822.709	6095
822.849	5969
822.99	5866
823.13	5920
823.27	5958
823.41	5794
823.55	5824
823.69	5745
823.83	5786
823.97	5638
824.11	5501
824.25	5463
824.389	5562
824.529	5592
824.669	5551
824.809	5611
824.949	5653
825.089	5554
825.228	5528
825.368	5383
825.508	5311
825.648	5357
825.787	5376
825.927	5334
826.067	5280
826.206	5231
826.346	5398
826.485	5433
826.625	5444
826.765	5558
826.904	5402
827.044	5178
827.183	5178
827.323	5143
827.462	5193
827.601	5128
827.741	5155
827.88	5204
828.02	5052
828.159	5242
828.298	5269
828.437	5337
828.577	5303
828.716	5501
828.855	5288
828.994	5178
829.134	5140
829.273	5193
829.412	5140
829.551	5128
829.69	5147
829.829	5254
829.968	5376
830.107	5193
830.246	5223
830.385	5159
830.524	5178
830.663	5010
830.802	4976
830.941	4870
831.08	4881
831.219	4984
831.357	4923
831.496	5109
831.635	4904
831.774	4892
831.913	4881
832.051	4714
832.19	4706
832.329	4809
832.467	4664
832.606	4622
832.744	4702
832.883	4706
833.022	4714
833.16	4820
833.299	4847
833.437	4797
833.576	4809
833.714	4816
833.852	4873
833.991	4870
834.129	4889
834.267	4900
834.406	4866
834.544	4995
834.682	4999
834.821	4949
834.959	5143
835.097	4991
835.235	5109
835.373	5060
835.511	5006
835.65	4965
835.788	4987
835.926	4854
836.064	4847
836.202	4896
836.34	5102
836.478	5162
836.615	5083
836.753	5181
836.891	5239
837.029	5261
837.167	5166
837.305	5185
837.443	5102
837.58	5109
837.718	5261
837.856	5162
837.993	5159
838.131	5166
838.269	5201
838.406	5193
838.544	5212
838.681	5003
838.819	5010
838.956	4870
839.094	4892
839.231	4968
839.369	5083
839.506	5414
839.643	5216
839.781	5045
839.918	5018
840.055	5071
840.193	5124
840.33	5094
840.467	5155
840.604	5155
840.742	5421
840.879	5067
841.016	5060
841.153	5124
841.29	5337
841.427	5273
841.564	5273
841.701	5360
841.838	5250
841.975	5235
842.112	5239
842.249	5098
842.385	5067
842.522	5326
842.659	5178
842.796	5132
842.933	5166
843.069	5166
843.206	5170
843.343	5307
843.479	5265
843.616	5254
843.752	5033
843.889	4957
844.025	5242
844.162	4976
844.298	5208
844.435	5060
844.571	4987
844.708	5178
844.844	5296
844.98	5368
845.117	5303
845.253	5113
845.389	4987
845.525	5132
845.661	5155
845.798	5022
845.934	5086
846.07	5056
846.206	5204
846.342	5223
846.478	5136
846.614	5018
846.75	4953
846.886	4915
847.022	5162
847.158	5056
847.294	5014
847.429	5060
847.565	5025
847.701	5261
847.837	4854
847.972	4725
848.108	4915
848.244	4900
848.379	4725
848.515	4714
848.65	4714
848.786	4710
848.921	4725
849.057	4847
849.192	4854
849.328	4786
849.463	4805
849.598	4805
849.734	4778
849.869	4649
850.004	4634
850.14	4668
850.275	4596
850.41	4493
850.545	4542
850.68	4565
850.815	4622
850.95	4569
851.085	4847
851.22	4774
851.355	4679
851.49	4615
851.625	4634
851.76	4660
851.895	4542
852.03	4485
852.165	4630
852.299	4706
852.434	4763
852.569	4748
852.703	4778
852.838	4805
852.973	4877
853.107	4885
853.242	4748
853.376	4672
853.511	4558
853.645	4592
853.78	4797
853.914	4672
854.048	4664
854.183	4603
854.317	4717
854.451	4805
854.585	4691
854.72	4637
854.854	4774
854.988	4588
855.122	4626
855.256	4531
855.39	4672
855.524	4782
855.658	4744
855.792	4691
855.926	4733
856.06	4812
856.194	4801
856.327	4717
856.461	4656
856.595	4660
856.729	4649
856.862	4793
856.996	4717
857.13	4729
857.263	4793
857.397	4809
857.53	4672
857.664	4767
857.797	4786
857.931	4793
858.064	4725
858.197	4805
858.331	4687
858.464	4634
858.597	4554
858.731	4637
858.864	4706
858.997	4626
859.13	4706
859.263	4714
859.396	4752
859.529	4656
859.662	4565
859.795	4527
859.928	4653
860.061	4809
860.194	4797
860.327	4672
860.46	4554
860.592	4774
860.725	4782
860.858	4778
860.99	4596
861.123	4584
861.256	4607
861.388	4675
861.521	5440
861.653	4481
861.786	4504
861.918	4489
862.05	4531
862.183	4577
862.315	4649
862.447	4717
862.58	4588
862.712	4424
862.844	4329
862.976	4504
863.108	4523
863.24	4900
863.372	4356
863.504	4421
863.636	4394
863.768	4489
863.9	4523
864.032	4390
864.164	4440
864.296	4527
864.428	4550
864.559	4577
864.691	4596
864.823	4580
864.954	4512
865.086	4478
865.217	4481
865.349	4470
865.48	4436
865.612	4497
865.743	4664
865.875	4519
866.006	4470
866.137	4523
866.269	4485
866.4	4493
866.531	4459
866.662	4474
866.793	4405
866.924	4493
867.055	4489
867.186	4497
867.317	4459
867.448	4390
867.579	4424
867.71	4402
867.841	4413
867.972	4462
868.103	4424
868.233	4493
868.364	4481
868.495	4516
868.625	4694
868.756	4831
868.886	4603
869.017	4653
869.147	4820
869.278	4793
869.408	4702
869.539	4656
869.669	4774
869.799	4675
869.929	4778
870.06	4778
870.19	4938
870.32	4942
870.45	4923
870.58	5014
870.71	5151
870.84	5102
870.97	4923
871.1	4908
871.23	5204
871.36	5132
871.489	5071
871.619	5128
871.749	5083
871.879	5166
872.008	5242
872.138	5083
872.267	5025
872.397	4885
872.526	4866
872.656	4752
872.785	4790
872.915	4949
873.044	5071
873.173	4965
873.303	5018
873.432	4968
873.561	5010
873.69	4938
873.819	4881
873.948	4873
874.077	4862
874.206	4831
874.335	4797
874.464	4984
874.593	5113
874.722	4980
874.851	5121
874.979	5041
875.108	5037
875.237	4987
875.365	4873
875.494	4904
875.623	5006
875.751	4915
875.88	4843
876.008	4987
876.136	5010
876.265	5235
876.393	5311
876.521	5273
876.65	5269
876.778	5181
876.906	5105
877.034	5124
877.162	5041
877.29	4995
877.418	5041
877.546	5086
877.674	5098
877.802	5064
877.93	5006
878.058	4965
878.185	4866
878.313	5006
878.441	4965
878.568	4824
878.696	4858
878.824	4976
878.951	5014
879.079	5117
879.206	5288
879.333	5117
879.461	5014
879.588	5052
879.715	5132
879.842	5223
879.97	5037
880.097	4877
880.224	4733
880.351	4854
880.478	4847
880.605	4828
880.732	4778
880.859	5117
880.986	4908
881.112	4942
881.239	4828
881.366	4683
881.493	4626
881.619	4592
881.746	4672
881.872	4649
881.999	4668
882.125	4687
882.252	4786
882.378	4824
882.505	5010
882.631	4831
882.757	4733
882.883	4702
883.01	4763
883.136	4672
883.262	4630
883.388	4637
883.514	4820
883.64	4870
883.766	4733
883.892	4679
884.018	4740
884.143	4927
884.269	5022
884.395	4675
884.52	4641
884.646	4634
884.772	4637
884.897	4550
885.023	4733
885.148	4835
885.274	4896
885.399	4824
885.524	4744
885.65	4675
885.775	4706
885.9	4740
886.025	4839
886.15	4805
886.275	4729
886.4	4725
886.525	4771
886.65	4729
886.775	4717
886.9	4911
887.025	5052
887.149	4797
887.274	4660
887.399	4615
887.523	4641
887.648	4584
887.773	4588
887.897	4782
888.021	4755
888.146	4698
888.27	4816
888.395	4908
888.519	4809
888.643	4870
888.767	4904
888.891	4714
889.015	4653
889.139	4641
889.263	4607
889.387	4729
889.511	4911
889.635	4828
889.759	4694
889.883	4653
890.006	4702
890.13	4828
890.254	4634
890.377	4714
890.501	4573
890.624	4561
890.748	4656
890.871	4523
890.995	4455
891.118	4432
891.241	4546
891.364	4603
891.488	4668
891.611	4478
891.734	4531
891.857	4626
891.98	4592
892.103	4668
892.226	4641
892.349	4558
892.471	4451
892.594	4577
892.717	4588
892.839	4565
892.962	4622
893.085	4668
893.207	4634
893.33	4481
893.452	4493
893.575	4660
893.697	4611
893.819	4809
893.941	4862
894.064	4744
894.186	4580
894.308	4596
894.43	4767
894.552	4854
894.674	4729
894.796	4580
894.918	4611
895.04	4611
895.161	4721
895.283	4656
895.405	4607
895.526	4672
895.648	4744
895.769	4736
895.891	4733
896.012	4755
896.134	4759
896.255	4630
896.376	4660
896.498	4596
896.619	4694
896.74	4641
896.861	4637
896.982	5006
897.103	5102
897.224	4866
897.345	4706
897.466	4664
897.587	4767
897.708	4877
897.828	4805
897.949	4691
898.07	4554
898.19	4634
898.311	4850
898.431	4660
898.552	4736
898.672	4835
898.792	4782
898.913	4736
899.033	4656
899.153	4451
899.273	4424
899.393	4478
899.513	4535
899.633	4554
899.753	4561
899.873	4512
899.993	4641
900.113	4538
900.232	4580
900.352	4508
900.472	4504
900.591	4459
900.711	4523
900.83	4493
900.95	4592
901.069	4626
901.189	4550
901.308	4371
901.427	4303
901.546	4402
901.665	4462
901.784	4561
901.904	4413
902.023	4375
902.141	4173
902.26	4173
902.379	4265
902.498	4299
902.617	4242
902.735	4409
902.854	4375
902.973	4386
903.091	4238
903.21	4227
903.328	4325
903.446	4310
903.565	4314
903.683	4333
903.801	4257
903.919	4402
904.038	4459
904.156	4329
904.274	4474
904.392	4409
904.51	4432
904.627	4508
904.745	4599
904.863	4653
904.981	4367
905.098	4284
905.216	4333
905.334	4459
905.451	4489
905.569	4478
905.686	4584
905.803	4577
905.921	4398
906.038	4519
906.155	4542
906.272	4424
906.389	4462
906.506	4348
906.623	4424
906.74	4367
906.857	4341
906.974	4375
907.091	4573
907.208	4691
907.324	4592
907.441	4485
907.557	4363
907.674	4371
907.79	4344
907.907	4352
908.023	4478
908.139	4470
908.256	4428
908.372	4455
908.488	4440
908.604	4348
908.72	4310
908.836	4417
908.952	4390
909.068	4459
909.184	4599
909.3	4512
909.415	4527
909.531	4516
909.647	4367
909.762	4356
909.878	4363
909.993	4455
910.108	4447
910.224	4386
910.339	4504
910.454	4398
910.57	4398
910.685	4348
910.8	4645
910.915	4618
911.03	4504
911.145	4367
911.259	4341
911.374	4383
911.489	4295
911.604	4268
911.718	4181
911.833	4196
911.947	4120
912.062	4044
912.176	4234
912.291	4238
912.405	4234
912.519	4493
912.633	4516
912.748	4371
912.862	4291
912.976	4215
913.09	4131
913.204	4192
913.318	4272
913.431	4379
913.545	4341
913.659	4432
913.772	4432
913.886	4238
914	4196
914.113	4447
914.226	4459
914.34	4432
914.453	4242
914.566	4417
914.68	4337
914.793	4348
914.906	4177
915.019	4101
915.132	4044
915.245	4200
915.358	4196
915.47	4238
915.583	4253
915.696	4303
915.809	4432
915.921	4436
916.034	4257
916.146	4230
916.259	4261
916.371	4379
916.483	4375
916.595	4249
916.708	4329
916.82	4325
916.932	4310
917.044	4363
917.156	4341
917.268	4253
917.38	4219
917.491	4291
917.603	4337
917.715	4432
917.826	4436
917.938	4379
918.049	4295
918.161	4386
918.272	4542
918.384	4565
918.495	4432
918.606	4306
918.717	4230
918.828	4337
918.939	4344
919.05	4246
919.161	4314
919.272	4093
919.383	4238
919.494	4455
919.604	4615
919.715	4432
919.826	4356
919.936	4478
920.047	4512
920.157	4497
920.267	4626
920.378	4561
920.488	4500
920.598	4721
920.708	4877
920.818	4729
920.928	4748
921.038	4987
921.148	4866
921.258	4596
921.368	4588
921.477	4588
921.587	4481
921.697	4417
921.806	4531
921.916	4459
922.025	4287
922.134	4322
922.244	4276
922.353	4344
922.462	4223
922.571	4147
922.68	4051
922.789	4017
922.898	4048
923.007	4017
923.116	4147
923.224	4101
923.333	4105
923.442	4032
923.55	3968
923.659	4040
923.767	4101
923.876	3987
923.984	4192
924.092	4010
924.201	4109
924.309	4097
924.417	4169
924.525	4143
924.633	4177
924.741	5109
924.849	3964
924.956	4124
925.064	3968
925.172	3956
925.279	4006
925.387	4055
925.494	4078
925.602	4253
925.709	4219
925.816	4109
925.924	4227
926.031	4253
926.138	4204
926.245	4253
926.352	4139
926.459	4261
926.566	4360
926.673	4234
926.779	4105
926.886	4135
926.993	3972
927.099	3964
927.206	3949
927.312	3968
927.419	4101
927.525	4090
927.631	4112
927.737	4032
927.843	4017
927.95	3892
928.056	4017
928.162	4059
928.267	4150
928.373	4615
928.479	4147
928.585	3930
928.69	4105
928.796	4158
928.901	3975
929.007	3915
929.112	4025
929.218	4025
929.323	3979
929.428	3968
929.533	4120
929.638	3956
929.743	4021
929.848	4097
929.953	4059
930.058	3964
930.163	3793
930.267	3819
930.372	4040
930.477	3838
930.581	4090
930.685	3941
930.79	3842
930.894	3964
930.998	3922
931.103	4086
931.207	3751
931.311	3732
931.415	3690
931.519	3580
931.623	3576
