Data from test_V78500241_2017.txt Node
Date: Fri Mar 25 17:03:01 CST 2022
User: usil
Spectrometer: V785-0024
Trigger mode: 0
Integration Time (sec): 4.000000E-1
Scans to average: 1
Nonlinearity correction enabled: false
Boxcar width: 0
Storing dark spectrum: false
XAxis mode: Wavelengths
Number of Pixels in Spectrum: 1024
>>>>>Begin Spectral Data<<<<<
801.071	7967
801.214	7925
801.356	7803
801.499	7769
801.641	7780
801.783	7860
801.926	8008
802.068	7967
802.211	7978
802.353	7936
802.496	7799
802.638	7761
802.78	7849
802.923	7875
803.065	7875
803.208	7852
803.35	7974
803.492	8062
803.635	8119
803.777	8035
803.919	8134
804.061	8480
804.204	8145
804.346	8031
804.488	7936
804.63	8092
804.773	7955
804.915	8069
805.057	8275
805.199	8142
805.341	8252
805.483	8240
805.626	8138
805.768	8035
805.91	8248
806.052	8240
806.194	8119
806.336	8324
806.478	8103
806.62	7993
806.762	8115
806.904	8271
807.046	8476
807.188	8408
807.33	8339
807.472	8290
807.614	8157
807.756	8161
807.898	7932
808.04	7852
808.182	7837
808.324	7856
808.465	7864
808.607	8031
808.749	8123
808.891	8214
809.033	8279
809.174	8210
809.316	8069
809.458	8092
809.6	7902
809.741	8081
809.883	8058
810.025	8084
810.166	8058
810.308	8008
810.45	8035
810.591	7837
810.733	7731
810.875	7655
811.016	7548
811.158	7480
811.299	7537
811.441	7704
811.582	7677
811.724	7540
811.865	7510
812.007	7540
812.148	7601
812.29	7636
812.431	7784
812.573	7871
812.714	7982
812.855	8065
812.997	8187
813.138	8317
813.279	8157
813.421	8077
813.562	7951
813.703	7803
813.845	7696
813.986	7415
814.127	7255
814.268	7209
814.41	7156
814.551	7145
814.692	7213
814.833	7080
814.974	7080
815.115	7107
815.256	6951
815.397	6863
815.539	6947
815.68	6852
815.821	6719
815.962	6795
816.103	6741
816.244	6745
816.385	6639
816.526	6604
816.666	6426
816.807	6323
816.948	6422
817.089	6475
817.23	6467
817.371	6342
817.512	6376
817.653	6388
817.793	6365
817.934	6410
818.075	6460
818.216	6376
818.356	6391
818.497	6213
818.638	6159
818.778	6133
818.919	6148
819.06	6144
819.2	6296
819.341	6331
819.481	6365
819.622	6521
819.762	6688
819.903	6707
820.043	6631
820.184	6502
820.324	6593
820.465	6635
820.605	6665
820.746	6612
820.886	6536
821.026	6631
821.167	6654
821.307	6791
821.447	6768
821.588	6654
821.728	6585
821.868	6490
822.008	6308
822.149	6350
822.289	6369
822.429	6205
822.569	6121
822.709	6068
822.849	5920
822.99	5950
823.13	5935
823.27	5878
823.41	5809
823.55	5794
823.69	5748
823.83	5756
823.97	5691
824.11	5547
824.25	5467
824.389	5573
824.529	5623
824.669	5524
824.809	5676
824.949	5741
825.089	5661
825.228	5551
825.368	5429
825.508	5353
825.648	5372
825.787	5417
825.927	5410
826.067	5307
826.206	5318
826.346	5379
826.485	5425
826.625	5493
826.765	5554
826.904	5512
827.044	5273
827.183	5212
827.323	5132
827.462	5296
827.601	5181
827.741	5204
827.88	5269
828.02	5151
828.159	5250
828.298	5326
828.437	5364
828.577	5311
828.716	5524
828.855	5334
828.994	5162
829.134	5185
829.273	5288
829.412	5151
829.551	5178
829.69	5208
829.829	5315
829.968	5364
830.107	5330
830.246	5299
830.385	5254
830.524	5189
830.663	5132
830.802	5018
830.941	4957
831.08	4908
831.219	5014
831.357	5022
831.496	5227
831.635	4927
831.774	4885
831.913	4881
832.051	4774
832.19	4774
832.329	4862
832.467	4687
832.606	4691
832.744	4778
832.883	4763
833.022	4771
833.16	4778
833.299	4862
833.437	4858
833.576	4831
833.714	4908
833.852	4900
833.991	4889
834.129	4995
834.267	4980
834.406	4915
834.544	4995
834.682	4984
834.821	4968
834.959	5155
835.097	5025
835.235	5204
835.373	5132
835.511	5166
835.65	5060
835.788	5045
835.926	4930
836.064	4896
836.202	4934
836.34	5193
836.478	5235
836.615	5159
836.753	5223
836.891	5345
837.029	5223
837.167	5189
837.305	5166
837.443	5170
837.58	5102
837.718	5277
837.856	5201
837.993	5208
838.131	5265
838.269	5246
838.406	5261
838.544	5246
838.681	5029
838.819	5060
838.956	4980
839.094	4930
839.231	5010
839.369	5094
839.506	5478
839.643	5284
839.781	5071
839.918	4995
840.055	5162
840.193	5094
840.33	5136
840.467	5132
840.604	5193
840.742	5486
840.879	5151
841.016	5155
841.153	5140
841.29	5398
841.427	5383
841.564	5315
841.701	5402
841.838	5307
841.975	5303
842.112	5288
842.249	5151
842.385	5102
842.522	5345
842.659	5162
842.796	5212
842.933	5216
843.069	5201
843.206	5223
843.343	5292
843.479	5307
843.616	5284
843.752	5105
843.889	5022
844.025	5269
844.162	5056
844.298	5227
844.435	5151
844.571	5086
844.708	5254
844.844	5318
844.98	5311
845.117	5326
845.253	5181
845.389	5102
845.525	5155
845.661	5178
845.798	5052
845.934	5151
846.07	5098
846.206	5299
846.342	5318
846.478	5239
846.614	5037
846.75	4995
846.886	4957
847.022	5185
847.158	5071
847.294	5102
847.429	5140
847.565	5048
847.701	5357
847.837	4908
847.972	4908
848.108	4995
848.244	5041
848.379	4797
848.515	4771
848.65	4733
848.786	4782
848.921	4812
849.057	4889
849.192	4896
849.328	4843
849.463	4870
849.598	4835
849.734	4809
849.869	4729
850.004	4630
850.14	4660
850.275	4679
850.41	4554
850.545	4630
850.68	4622
850.815	4672
850.95	4649
851.085	4850
851.22	4740
851.355	4664
851.49	4637
851.625	4637
851.76	4649
851.895	4538
852.03	4554
852.165	4698
852.299	4748
852.434	4831
852.569	4778
852.703	4797
852.838	4866
852.973	4980
853.107	4900
853.242	4797
853.376	4706
853.511	4592
853.645	4649
853.78	4793
853.914	4744
854.048	4706
854.183	4687
854.317	4702
854.451	4828
854.585	4694
854.72	4656
854.854	4793
854.988	4603
855.122	4656
855.256	4599
855.39	4706
855.524	4805
855.658	4748
855.792	4698
855.926	4793
856.06	4763
856.194	4793
856.327	4729
856.461	4653
856.595	4592
856.729	4634
856.862	4752
856.996	4710
857.13	4744
857.263	4790
857.397	4839
857.53	4645
857.664	4733
857.797	4801
857.931	4771
858.064	4733
858.197	4778
858.331	4672
858.464	4641
858.597	4569
858.731	4641
858.864	4622
858.997	4618
859.13	4664
859.263	4736
859.396	4771
859.529	4588
859.662	4577
859.795	4603
859.928	4683
860.061	4786
860.194	4782
860.327	4615
860.46	4561
860.592	4748
860.725	4774
860.858	4733
860.99	4596
861.123	4523
861.256	4523
861.388	4656
861.521	5239
861.653	4489
861.786	4432
861.918	4485
862.05	4531
862.183	4611
862.315	4660
862.447	4664
862.58	4611
862.712	4405
862.844	4356
862.976	4527
863.108	4489
863.24	4877
863.372	4333
863.504	4462
863.636	4432
863.768	4542
863.9	4466
864.032	4398
864.164	4417
864.296	4466
864.428	4554
864.559	4580
864.691	4577
864.823	4561
864.954	4516
865.086	4508
865.217	4455
865.349	4432
865.48	4440
865.612	4512
865.743	4683
865.875	4440
866.006	4417
866.137	4470
866.269	4470
866.4	4421
866.531	4485
866.662	4405
866.793	4481
866.924	4447
867.055	4497
867.186	4489
867.317	4459
867.448	4386
867.579	4436
867.71	4409
867.841	4421
867.972	4478
868.103	4481
868.233	4436
868.364	4466
868.495	4504
868.625	4672
868.756	4790
868.886	4603
869.017	4634
869.147	4793
869.278	4755
869.408	4649
869.539	4675
869.669	4725
869.799	4668
869.929	4752
870.06	4740
870.19	4961
870.32	4930
870.45	4972
870.58	5006
870.71	5064
870.84	5105
870.97	4919
871.1	4968
871.23	5124
871.36	5117
871.489	4991
871.619	5105
871.749	5147
871.879	5170
872.008	5159
872.138	5067
872.267	4980
872.397	4862
872.526	4870
872.656	4744
872.785	4835
872.915	4984
873.044	5048
873.173	4961
873.303	5003
873.432	4976
873.561	4995
873.69	4900
873.819	4873
873.948	4862
874.077	4805
874.206	4809
874.335	4839
874.464	4908
874.593	5025
874.722	4919
874.851	5117
874.979	5048
875.108	5025
875.237	4908
875.365	4885
875.494	4930
875.623	5045
875.751	4847
875.88	4881
876.008	5018
876.136	5090
876.265	5212
876.393	5353
876.521	5284
876.65	5242
876.778	5121
876.906	5140
877.034	5014
877.162	5056
877.29	4995
877.418	5056
877.546	5033
877.674	5102
877.802	5056
877.93	5010
878.058	4984
878.185	4889
878.313	4942
878.441	4980
878.568	4801
878.696	4900
878.824	4949
878.951	5022
879.079	5102
879.206	5296
879.333	5098
879.461	4972
879.588	4995
879.715	5117
879.842	5250
879.97	4972
880.097	4828
880.224	4755
880.351	4805
880.478	4828
880.605	4790
880.732	4812
880.859	5151
880.986	4866
881.112	4919
881.239	4755
881.366	4668
881.493	4641
881.619	4607
881.746	4634
881.872	4698
881.999	4683
882.125	4698
882.252	4786
882.378	4858
882.505	4995
882.631	4854
882.757	4725
882.883	4778
883.01	4710
883.136	4721
883.262	4653
883.388	4710
883.514	4828
883.64	4843
883.766	4858
883.892	4668
884.018	4763
884.143	4923
884.269	5018
884.395	4691
884.52	4645
884.646	4698
884.772	4584
884.897	4573
885.023	4733
885.148	4835
885.274	4881
885.399	4828
885.524	4744
885.65	4710
885.775	4786
885.9	4733
886.025	4877
886.15	4752
886.275	4744
886.4	4691
886.525	4714
886.65	4702
886.775	4714
886.9	4896
887.025	5075
887.149	4801
887.274	4679
887.399	4573
887.523	4607
887.648	4580
887.773	4588
887.897	4812
888.021	4812
888.146	4706
888.27	4870
888.395	4896
888.519	4858
888.643	4873
888.767	4835
888.891	4656
889.015	4618
889.139	4672
889.263	4656
889.387	4801
889.511	4877
889.635	4801
889.759	4603
889.883	4687
890.006	4748
890.13	4843
890.254	4634
890.377	4736
890.501	4546
890.624	4516
890.748	4592
890.871	4542
890.995	4478
891.118	4379
891.241	4538
891.364	4565
891.488	4611
891.611	4523
891.734	4554
891.857	4554
891.98	4538
892.103	4637
892.226	4630
892.349	4523
892.471	4462
892.594	4580
892.717	4599
892.839	4550
892.962	4577
893.085	4672
893.207	4611
893.33	4455
893.452	4527
893.575	4744
893.697	4622
893.819	4839
893.941	4828
894.064	4771
894.186	4577
894.308	4558
894.43	4767
894.552	4812
894.674	4763
894.796	4577
894.918	4596
895.04	4573
895.161	4710
895.283	4668
895.405	4611
895.526	4634
895.648	4736
895.769	4687
895.891	4763
896.012	4755
896.134	4752
896.255	4694
896.376	4679
896.498	4645
896.619	4702
896.74	4599
896.861	4618
896.982	4900
897.103	5143
897.224	4866
897.345	4786
897.466	4679
897.587	4736
897.708	4877
897.828	4854
897.949	4668
898.07	4550
898.19	4653
898.311	4843
898.431	4694
898.552	4774
898.672	4850
898.792	4809
898.913	4736
899.033	4611
899.153	4554
899.273	4447
899.393	4485
899.513	4554
899.633	4508
899.753	4508
899.873	4527
899.993	4584
900.113	4542
900.232	4618
900.352	4592
900.472	4455
900.591	4394
900.711	4478
900.83	4417
900.95	4656
901.069	4721
901.189	4550
901.308	4405
901.427	4325
901.546	4390
901.665	4462
901.784	4519
901.904	4314
902.023	4318
902.141	4177
902.26	4147
902.379	4295
902.498	4204
902.617	4268
902.735	4390
902.854	4409
902.973	4409
903.091	4211
903.21	4185
903.328	4287
903.446	4310
903.565	4268
903.683	4367
903.801	4284
903.919	4417
904.038	4428
904.156	4299
904.274	4478
904.392	4402
904.51	4417
904.627	4497
904.745	4550
904.863	4603
904.981	4375
905.098	4325
905.216	4371
905.334	4474
905.451	4436
905.569	4443
905.686	4592
905.803	4516
905.921	4436
906.038	4573
906.155	4531
906.272	4424
906.389	4443
906.506	4367
906.623	4390
906.74	4417
906.857	4318
906.974	4421
907.091	4546
907.208	4679
907.324	4626
907.441	4474
907.557	4375
907.674	4356
907.79	4272
907.907	4409
908.023	4493
908.139	4512
908.256	4432
908.372	4459
908.488	4523
908.604	4329
908.72	4344
908.836	4371
908.952	4367
909.068	4462
909.184	4542
909.3	4474
909.415	4580
909.531	4550
909.647	4394
909.762	4424
909.878	4344
909.993	4409
910.108	4402
910.224	4405
910.339	4481
910.454	4417
910.57	4352
910.685	4303
910.8	4687
910.915	4622
911.03	4497
911.145	4367
911.259	4379
911.374	4375
911.489	4295
911.604	4291
911.718	4204
911.833	4219
911.947	4032
912.062	4048
912.176	4204
912.291	4318
912.405	4253
912.519	4440
912.633	4500
912.748	4398
912.862	4379
912.976	4219
913.09	4101
913.204	4169
913.318	4284
913.431	4363
913.545	4386
913.659	4459
913.772	4383
913.886	4211
914	4200
914.113	4409
914.226	4466
914.34	4432
914.453	4211
914.566	4447
914.68	4306
914.793	4367
914.906	4135
915.019	4124
915.132	4067
915.245	4173
915.358	4215
915.47	4303
915.583	4272
915.696	4276
915.809	4363
915.921	4440
916.034	4265
916.146	4257
916.259	4215
916.371	4352
916.483	4379
916.595	4303
916.708	4303
916.82	4329
916.932	4337
917.044	4333
917.156	4306
917.268	4272
917.38	4322
917.491	4265
917.603	4348
917.715	4440
917.826	4443
917.938	4318
918.049	4265
918.161	4402
918.272	4542
918.384	4512
918.495	4440
918.606	4367
918.717	4207
918.828	4284
918.939	4367
919.05	4268
919.161	4310
919.272	4109
919.383	4253
919.494	4424
919.604	4634
919.715	4451
919.826	4314
919.936	4421
920.047	4577
920.157	4485
920.267	4717
920.378	4561
920.488	4481
920.598	4706
920.708	4873
920.818	4801
920.928	4805
921.038	4980
921.148	4911
921.258	4656
921.368	4519
921.477	4508
921.587	4459
921.697	4367
921.806	4519
921.916	4451
922.025	4337
922.134	4318
922.244	4257
922.353	4329
922.462	4196
922.571	4135
922.68	4040
922.789	3960
922.898	4032
923.007	4010
923.116	4086
923.224	4059
923.333	4131
923.442	4013
923.55	4010
923.659	3998
923.767	4090
923.876	3979
923.984	4090
924.092	3991
924.201	4074
924.309	4017
924.417	4116
924.525	4040
924.633	4150
924.741	5048
924.849	3911
924.956	4139
925.064	3968
925.172	3896
925.279	3991
925.387	4044
925.494	4078
925.602	4207
925.709	4227
925.816	4040
925.924	4101
926.031	4204
926.138	4139
926.245	4249
926.352	4109
926.459	4253
926.566	4348
926.673	4109
926.779	4093
926.886	4124
926.993	3972
927.099	3964
927.206	3937
927.312	3953
927.419	4040
927.525	4006
927.631	4131
927.737	3945
927.843	3987
927.95	3827
928.056	3987
928.162	4013
928.267	4051
928.373	4596
928.479	4135
928.585	3880
928.69	4051
928.796	4029
928.901	3922
929.007	3838
929.112	4013
929.218	3987
929.323	3937
929.428	3949
929.533	4101
929.638	3915
929.743	3953
929.848	4059
929.953	4017
930.058	3941
930.163	3835
930.267	3835
930.372	3941
930.477	3816
930.581	4074
930.685	3949
930.79	3785
930.894	3873
930.998	3857
931.103	4055
931.207	3713
931.311	3671
931.415	3698
931.519	3466
931.623	3584
