Data from test_V78500241_2274.txt Node
Date: Fri Mar 25 17:04:48 CST 2022
User: usil
Spectrometer: V785-0024
Trigger mode: 0
Integration Time (sec): 4.000000E-1
Scans to average: 1
Nonlinearity correction enabled: false
Boxcar width: 0
Storing dark spectrum: false
XAxis mode: Wavelengths
Number of Pixels in Spectrum: 1024
>>>>>Begin Spectral Data<<<<<
801.071	7947
801.214	7982
801.356	7875
801.499	7765
801.641	7788
801.783	7795
801.926	7959
802.068	7852
802.211	8005
802.353	7986
802.496	7792
802.638	7875
802.78	7890
802.923	7947
803.065	7864
803.208	7852
803.35	8008
803.492	8081
803.635	8164
803.777	7993
803.919	8084
804.061	8396
804.204	8199
804.346	8065
804.488	7997
804.63	8062
804.773	8008
804.915	8115
805.057	8267
805.199	8164
805.341	8267
805.483	8244
805.626	8210
805.768	8115
805.91	8142
806.052	8164
806.194	8111
806.336	8229
806.478	8100
806.62	8084
806.762	8111
806.904	8187
807.046	8457
807.188	8324
807.33	8294
807.472	8317
807.614	8142
807.756	8145
807.898	8046
808.04	7852
808.182	7841
808.324	7894
808.465	7921
808.607	8039
808.749	8069
808.891	8187
809.033	8210
809.174	8225
809.316	8134
809.458	8069
809.6	8058
809.741	8065
809.883	7997
810.025	8130
810.166	8077
810.308	8012
810.45	7997
810.591	7811
810.733	7731
810.875	7700
811.016	7540
811.158	7480
811.299	7552
811.441	7674
811.582	7639
811.724	7510
811.865	7529
812.007	7647
812.148	7544
812.29	7639
812.431	7696
812.573	7879
812.714	7967
812.855	8084
812.997	8218
813.138	8313
813.279	8153
813.421	8054
813.562	7940
813.703	7753
813.845	7750
813.986	7453
814.127	7232
814.268	7095
814.41	7206
814.551	7160
814.692	7225
814.833	7110
814.974	7069
815.115	7129
815.256	6943
815.397	6935
815.539	6920
815.68	6787
815.821	6779
815.962	6871
816.103	6833
816.244	6662
816.385	6608
816.526	6608
816.666	6513
816.807	6311
816.948	6475
817.089	6479
817.23	6391
817.371	6399
817.512	6433
817.653	6403
817.793	6338
817.934	6426
818.075	6391
818.216	6357
818.356	6399
818.497	6194
818.638	6117
818.778	6144
818.919	6148
819.06	6220
819.2	6289
819.341	6308
819.481	6395
819.622	6494
819.762	6753
819.903	6696
820.043	6589
820.184	6582
820.324	6604
820.465	6700
820.605	6688
820.746	6673
820.886	6547
821.026	6623
821.167	6730
821.307	6795
821.447	6760
821.588	6696
821.728	6627
821.868	6544
822.008	6331
822.149	6350
822.289	6376
822.429	6106
822.569	6121
822.709	6121
822.849	5954
822.99	5889
823.13	5927
823.27	5958
823.41	5817
823.55	5813
823.69	5764
823.83	5786
823.97	5691
824.11	5562
824.25	5532
824.389	5551
824.529	5551
824.669	5516
824.809	5615
824.949	5634
825.089	5573
825.228	5547
825.368	5379
825.508	5341
825.648	5337
825.787	5406
825.927	5337
826.067	5269
826.206	5258
826.346	5417
826.485	5402
826.625	5383
826.765	5543
826.904	5493
827.044	5216
827.183	5178
827.323	5185
827.462	5235
827.601	5193
827.741	5132
827.88	5250
828.02	5098
828.159	5227
828.298	5326
828.437	5364
828.577	5284
828.716	5486
828.855	5341
828.994	5155
829.134	5231
829.273	5151
829.412	5124
829.551	5121
829.69	5174
829.829	5250
829.968	5379
830.107	5265
830.246	5318
830.385	5204
830.524	5117
830.663	5079
830.802	4953
830.941	4911
831.08	4828
831.219	4987
831.357	4946
831.496	5132
831.635	4908
831.774	4828
831.913	4881
832.051	4733
832.19	4683
832.329	4850
832.467	4698
832.606	4630
832.744	4717
832.883	4698
833.022	4759
833.16	4759
833.299	4759
833.437	4839
833.576	4790
833.714	4854
833.852	4828
833.991	4881
834.129	4942
834.267	4930
834.406	4904
834.544	4957
834.682	4965
834.821	4908
834.959	5170
835.097	4980
835.235	5151
835.373	5045
835.511	5102
835.65	4991
835.788	5067
835.926	4843
836.064	4870
836.202	4866
836.34	5162
836.478	5216
836.615	5109
836.753	5181
836.891	5296
837.029	5220
837.167	5185
837.305	5174
837.443	5117
837.58	5094
837.718	5261
837.856	5140
837.993	5181
838.131	5216
838.269	5185
838.406	5197
838.544	5174
838.681	5037
838.819	5041
838.956	4896
839.094	4885
839.231	4972
839.369	5064
839.506	5387
839.643	5235
839.781	5086
839.918	5025
840.055	5109
840.193	5090
840.33	5079
840.467	5098
840.604	5189
840.742	5440
840.879	5045
841.016	5090
841.153	5140
841.29	5360
841.427	5341
841.564	5326
841.701	5372
841.838	5242
841.975	5250
842.112	5273
842.249	5105
842.385	5098
842.522	5318
842.659	5178
842.796	5166
842.933	5220
843.069	5128
843.206	5155
843.343	5269
843.479	5204
843.616	5231
843.752	5014
843.889	5022
844.025	5181
844.162	5003
844.298	5227
844.435	5086
844.571	4995
844.708	5155
844.844	5299
844.98	5303
845.117	5318
845.253	5094
845.389	5075
845.525	5223
845.661	5102
845.798	5006
845.934	5109
846.07	5041
846.206	5178
846.342	5269
846.478	5159
846.614	4991
846.75	4930
846.886	4972
847.022	5067
847.158	4999
847.294	5014
847.429	5094
847.565	5060
847.701	5311
847.837	4870
847.972	4801
848.108	4976
848.244	4953
848.379	4797
848.515	4717
848.65	4733
848.786	4771
848.921	4805
849.057	4889
849.192	4911
849.328	4778
849.463	4816
849.598	4755
849.734	4824
849.869	4649
850.004	4634
850.14	4679
850.275	4584
850.41	4573
850.545	4497
850.68	4573
850.815	4580
850.95	4588
851.085	4797
851.22	4786
851.355	4664
851.49	4558
851.625	4653
851.76	4622
851.895	4535
852.03	4538
852.165	4656
852.299	4736
852.434	4736
852.569	4744
852.703	4759
852.838	4809
852.973	4908
853.107	4942
853.242	4729
853.376	4660
853.511	4535
853.645	4569
853.78	4786
853.914	4687
854.048	4691
854.183	4596
854.317	4687
854.451	4839
854.585	4691
854.72	4607
854.854	4706
854.988	4584
855.122	4641
855.256	4516
855.39	4672
855.524	4721
855.658	4710
855.792	4683
855.926	4748
856.06	4736
856.194	4786
856.327	4656
856.461	4599
856.595	4599
856.729	4630
856.862	4744
856.996	4691
857.13	4687
857.263	4759
857.397	4801
857.53	4615
857.664	4698
857.797	4752
857.931	4786
858.064	4672
858.197	4729
858.331	4660
858.464	4596
858.597	4470
858.731	4634
858.864	4584
858.997	4558
859.13	4641
859.263	4660
859.396	4694
859.529	4592
859.662	4588
859.795	4481
859.928	4618
860.061	4755
860.194	4744
860.327	4573
860.46	4538
860.592	4679
860.725	4717
860.858	4714
860.99	4607
861.123	4523
861.256	4542
861.388	4611
861.521	5254
861.653	4478
861.786	4440
861.918	4470
862.05	4535
862.183	4577
862.315	4554
862.447	4626
862.58	4554
862.712	4371
862.844	4329
862.976	4489
863.108	4409
863.24	4892
863.372	4325
863.504	4409
863.636	4333
863.768	4489
863.9	4413
864.032	4386
864.164	4440
864.296	4455
864.428	4546
864.559	4489
864.691	4500
864.823	4489
864.954	4493
865.086	4493
865.217	4440
865.349	4421
865.48	4443
865.612	4500
865.743	4615
865.875	4478
866.006	4421
866.137	4459
866.269	4451
866.4	4451
866.531	4428
866.662	4371
866.793	4421
866.924	4417
867.055	4519
867.186	4432
867.317	4451
867.448	4379
867.579	4436
867.71	4398
867.841	4356
867.972	4504
868.103	4455
868.233	4447
868.364	4417
868.495	4500
868.625	4637
868.756	4733
868.886	4592
869.017	4603
869.147	4710
869.278	4771
869.408	4660
869.539	4634
869.669	4725
869.799	4645
869.929	4759
870.06	4744
870.19	4908
870.32	4915
870.45	4900
870.58	5045
870.71	5079
870.84	5086
870.97	4961
871.1	4870
871.23	5113
871.36	5151
871.489	4999
871.619	5052
871.749	5102
871.879	5060
872.008	5189
872.138	5067
872.267	5022
872.397	4835
872.526	4778
872.656	4683
872.785	4790
872.915	4953
873.044	4995
873.173	4919
873.303	4919
873.432	4953
873.561	4949
873.69	4847
873.819	4858
873.948	4862
874.077	4828
874.206	4721
874.335	4771
874.464	4927
874.593	5041
874.722	4923
874.851	5094
874.979	5006
875.108	5064
875.237	4908
875.365	4889
875.494	4896
875.623	4915
875.751	4809
875.88	4835
876.008	4972
876.136	4995
876.265	5181
876.393	5364
876.521	5231
876.65	5284
876.778	5132
876.906	5041
877.034	5041
877.162	5033
877.29	4938
877.418	5037
877.546	5006
877.674	4991
877.802	5041
877.93	4999
878.058	4938
878.185	4889
878.313	4953
878.441	4930
878.568	4805
878.696	4805
878.824	4961
878.951	4987
879.079	5094
879.206	5265
879.333	5109
879.461	4968
879.588	4980
879.715	5117
879.842	5193
879.97	4972
880.097	4809
880.224	4763
880.351	4839
880.478	4828
880.605	4835
880.732	4801
880.859	5067
880.986	4877
881.112	4911
881.239	4790
881.366	4702
881.493	4630
881.619	4622
881.746	4691
881.872	4672
881.999	4706
882.125	4714
882.252	4767
882.378	4896
882.505	5006
882.631	4782
882.757	4634
882.883	4782
883.01	4717
883.136	4714
883.262	4615
883.388	4660
883.514	4873
883.64	4911
883.766	4797
883.892	4710
884.018	4793
884.143	4915
884.269	5025
884.395	4729
884.52	4664
884.646	4664
884.772	4588
884.897	4588
885.023	4714
885.148	4790
885.274	4904
885.399	4870
885.524	4759
885.65	4755
885.775	4767
885.9	4733
886.025	4904
886.15	4782
886.275	4778
886.4	4664
886.525	4729
886.65	4717
886.775	4755
886.9	4885
887.025	5045
887.149	4835
887.274	4691
887.399	4622
887.523	4622
887.648	4550
887.773	4645
887.897	4782
888.021	4816
888.146	4725
888.27	4873
888.395	4965
888.519	4843
888.643	4850
888.767	4873
888.891	4721
889.015	4687
889.139	4653
889.263	4622
889.387	4809
889.511	4915
889.635	4824
889.759	4660
889.883	4702
890.006	4755
890.13	4862
890.254	4706
890.377	4717
890.501	4531
890.624	4561
890.748	4691
890.871	4531
890.995	4466
891.118	4398
891.241	4519
891.364	4561
891.488	4634
891.611	4580
891.734	4596
891.857	4698
891.98	4626
892.103	4683
892.226	4611
892.349	4603
892.471	4497
892.594	4607
892.717	4634
892.839	4603
892.962	4622
893.085	4694
893.207	4615
893.33	4527
893.452	4558
893.575	4694
893.697	4615
893.819	4793
893.941	4873
894.064	4786
894.186	4573
894.308	4634
894.43	4778
894.552	4828
894.674	4767
894.796	4554
894.918	4634
895.04	4649
895.161	4710
895.283	4660
895.405	4565
895.526	4664
895.648	4752
895.769	4717
895.891	4733
896.012	4755
896.134	4752
896.255	4653
896.376	4698
896.498	4615
896.619	4687
896.74	4641
896.861	4664
896.982	4965
897.103	5090
897.224	4870
897.345	4733
897.466	4664
897.587	4786
897.708	4793
897.828	4831
897.949	4710
898.07	4607
898.19	4641
898.311	4854
898.431	4691
898.552	4744
898.672	4866
898.792	4801
898.913	4748
899.033	4675
899.153	4535
899.273	4455
899.393	4500
899.513	4558
899.633	4577
899.753	4622
899.873	4550
899.993	4611
900.113	4592
900.232	4588
900.352	4531
900.472	4493
900.591	4466
900.711	4504
900.83	4451
900.95	4580
901.069	4698
901.189	4588
901.308	4363
901.427	4341
901.546	4451
901.665	4485
901.784	4527
901.904	4417
902.023	4348
902.141	4196
902.26	4204
902.379	4371
902.498	4265
902.617	4265
902.735	4405
902.854	4405
902.973	4436
903.091	4265
903.21	4268
903.328	4265
903.446	4348
903.565	4272
903.683	4417
903.801	4306
903.919	4424
904.038	4489
904.156	4318
904.274	4440
904.392	4455
904.51	4451
904.627	4481
904.745	4626
904.863	4679
904.981	4443
905.098	4352
905.216	4413
905.334	4462
905.451	4466
905.569	4432
905.686	4584
905.803	4565
905.921	4436
906.038	4584
906.155	4523
906.272	4409
906.389	4474
906.506	4394
906.623	4390
906.74	4405
906.857	4310
906.974	4413
907.091	4637
907.208	4721
907.324	4569
907.441	4527
907.557	4371
907.674	4394
907.79	4310
907.907	4390
908.023	4550
908.139	4500
908.256	4478
908.372	4459
908.488	4466
908.604	4375
908.72	4333
908.836	4417
908.952	4371
909.068	4413
909.184	4592
909.3	4508
909.415	4580
909.531	4569
909.647	4398
909.762	4383
909.878	4375
909.993	4466
910.108	4478
910.224	4462
910.339	4512
910.454	4443
910.57	4405
910.685	4356
910.8	4687
910.915	4607
911.03	4500
911.145	4363
911.259	4329
911.374	4367
911.489	4303
911.604	4280
911.718	4215
911.833	4249
911.947	4143
912.062	4059
912.176	4242
912.291	4265
912.405	4276
912.519	4504
912.633	4500
912.748	4424
912.862	4352
912.976	4276
913.09	4074
913.204	4215
913.318	4230
913.431	4409
913.545	4455
913.659	4474
913.772	4421
913.886	4230
914	4246
914.113	4409
914.226	4459
914.34	4440
914.453	4276
914.566	4462
914.68	4333
914.793	4371
914.906	4147
915.019	4128
915.132	4112
915.245	4246
915.358	4257
915.47	4261
915.583	4325
915.696	4310
915.809	4447
915.921	4459
916.034	4268
916.146	4268
916.259	4223
916.371	4409
916.483	4356
916.595	4238
916.708	4295
916.82	4356
916.932	4356
917.044	4379
917.156	4375
917.268	4272
917.38	4310
917.491	4318
917.603	4402
917.715	4459
917.826	4436
917.938	4383
918.049	4268
918.161	4379
918.272	4535
918.384	4554
918.495	4493
918.606	4299
918.717	4268
918.828	4329
918.939	4356
919.05	4287
919.161	4371
919.272	4181
919.383	4246
919.494	4470
919.604	4622
919.715	4462
919.826	4383
919.936	4379
920.047	4554
920.157	4519
920.267	4664
920.378	4588
920.488	4462
920.598	4740
920.708	4911
920.818	4759
920.928	4790
921.038	4972
921.148	4942
921.258	4634
921.368	4592
921.477	4561
921.587	4447
921.697	4417
921.806	4538
921.916	4440
922.025	4341
922.134	4314
922.244	4234
922.353	4329
922.462	4181
922.571	4109
922.68	4032
922.789	4044
922.898	4032
923.007	4010
923.116	4173
923.224	4032
923.333	4109
923.442	4025
923.55	3998
923.659	4078
923.767	4093
923.876	3998
923.984	4177
924.092	3998
924.201	4067
924.309	4147
924.417	4150
924.525	4086
924.633	4139
924.741	5121
924.849	3899
924.956	4116
925.064	3983
925.172	3876
925.279	3979
925.387	4067
925.494	4040
925.602	4211
925.709	4162
925.816	4048
925.924	4143
926.031	4314
926.138	4211
926.245	4207
926.352	4071
926.459	4261
926.566	4314
926.673	4185
926.779	4097
926.886	4128
926.993	3975
927.099	3979
927.206	3907
927.312	3975
927.419	4116
927.525	4021
927.631	4124
927.737	3998
927.843	3941
927.95	3850
928.056	3964
928.162	4013
928.267	4074
928.373	4717
928.479	4158
928.585	3918
928.69	4040
928.796	4074
928.901	4025
929.007	3876
929.112	3983
929.218	4013
929.323	4013
929.428	4021
929.533	4131
929.638	3926
929.743	3968
929.848	4086
929.953	3979
930.058	3915
930.163	3770
930.267	3835
930.372	3998
930.477	3827
930.581	4097
930.685	3975
930.79	3850
930.894	3915
930.998	3865
931.103	4067
931.207	3717
931.311	3740
931.415	3667
931.519	3526
931.623	3580
