Data from test_V78500241_254.txt Node
Date: Fri Mar 25 16:50:46 CST 2022
User: usil
Spectrometer: V785-0024
Trigger mode: 0
Integration Time (sec): 4.000000E-1
Scans to average: 1
Nonlinearity correction enabled: false
Boxcar width: 0
Storing dark spectrum: false
XAxis mode: Wavelengths
Number of Pixels in Spectrum: 1024
>>>>>Begin Spectral Data<<<<<
801.071	8065
801.214	8016
801.356	7788
801.499	7818
801.641	7734
801.783	7868
801.926	7993
802.068	7955
802.211	8005
802.353	8024
802.496	7871
802.638	7879
802.78	7906
802.923	7936
803.065	7875
803.208	7822
803.35	7986
803.492	8077
803.635	8134
803.777	8008
803.919	8123
804.061	8431
804.204	8161
804.346	8096
804.488	7978
804.63	8084
804.773	8001
804.915	8081
805.057	8298
805.199	8145
805.341	8199
805.483	8229
805.626	8202
805.768	8027
805.91	8252
806.052	8111
806.194	8031
806.336	8366
806.478	8187
806.62	8107
806.762	8096
806.904	8218
807.046	8450
807.188	8351
807.33	8320
807.472	8355
807.614	8107
807.756	8111
807.898	7963
808.04	7883
808.182	7906
808.324	7898
808.465	7955
808.607	7989
808.749	8161
808.891	8256
809.033	8267
809.174	8195
809.316	8024
809.458	8012
809.6	7947
809.741	8008
809.883	7982
810.025	8123
810.166	8126
810.308	8031
810.45	8054
810.591	7879
810.733	7757
810.875	7666
811.016	7525
811.158	7510
811.299	7609
811.441	7670
811.582	7628
811.724	7556
811.865	7521
812.007	7559
812.148	7552
812.29	7655
812.431	7738
812.573	7856
812.714	7959
812.855	8119
812.997	8221
813.138	8317
813.279	8214
813.421	8092
813.562	8008
813.703	7879
813.845	7742
813.986	7400
814.127	7236
814.268	7247
814.41	7209
814.551	7160
814.692	7187
814.833	7133
814.974	7023
815.115	7137
815.256	6947
815.397	6905
815.539	6882
815.68	6779
815.821	6768
815.962	6947
816.103	6814
816.244	6726
816.385	6642
816.526	6684
816.666	6517
816.807	6334
816.948	6429
817.089	6407
817.23	6391
817.371	6380
817.512	6384
817.653	6399
817.793	6327
817.934	6418
818.075	6399
818.216	6376
818.356	6441
818.497	6190
818.638	6079
818.778	6083
818.919	6129
819.06	6167
819.2	6296
819.341	6262
819.481	6304
819.622	6498
819.762	6722
819.903	6738
820.043	6536
820.184	6547
820.324	6585
820.465	6646
820.605	6608
820.746	6616
820.886	6445
821.026	6673
821.167	6669
821.307	6715
821.447	6802
821.588	6585
821.728	6578
821.868	6441
822.008	6254
822.149	6350
822.289	6376
822.429	6136
822.569	6064
822.709	6098
822.849	5912
822.99	5904
823.13	5923
823.27	5973
823.41	5828
823.55	5779
823.69	5729
823.83	5790
823.97	5638
824.11	5585
824.25	5535
824.389	5543
824.529	5528
824.669	5509
824.809	5604
824.949	5684
825.089	5680
825.228	5512
825.368	5417
825.508	5334
825.648	5296
825.787	5357
825.927	5376
826.067	5299
826.206	5242
826.346	5391
826.485	5406
826.625	5402
826.765	5512
826.904	5482
827.044	5258
827.183	5201
827.323	5189
827.462	5299
827.601	5178
827.741	5162
827.88	5231
828.02	5117
828.159	5269
828.298	5292
828.437	5372
828.577	5258
828.716	5478
828.855	5368
828.994	5155
829.134	5136
829.273	5197
829.412	5117
829.551	5151
829.69	5197
829.829	5208
829.968	5360
830.107	5269
830.246	5280
830.385	5151
830.524	5178
830.663	5041
830.802	4957
830.941	4877
831.08	4908
831.219	4961
831.357	4961
831.496	5143
831.635	4904
831.774	4870
831.913	4873
832.051	4721
832.19	4740
832.329	4858
832.467	4687
832.606	4641
832.744	4771
832.883	4793
833.022	4721
833.16	4763
833.299	4782
833.437	4831
833.576	4858
833.714	4870
833.852	4930
833.991	4866
834.129	4965
834.267	4908
834.406	4919
834.544	4976
834.682	4949
834.821	4972
834.959	5159
835.097	4957
835.235	5170
835.373	5064
835.511	5086
835.65	5075
835.788	5003
835.926	4881
836.064	4839
836.202	4911
836.34	5170
836.478	5223
836.615	5121
836.753	5223
836.891	5265
837.029	5258
837.167	5197
837.305	5121
837.443	5166
837.58	5098
837.718	5273
837.856	5189
837.993	5109
838.131	5212
838.269	5185
838.406	5242
838.544	5151
838.681	5064
838.819	4968
838.956	4896
839.094	4919
839.231	4995
839.369	5056
839.506	5406
839.643	5311
839.781	5045
839.918	5067
840.055	5102
840.193	5147
840.33	5159
840.467	5140
840.604	5189
840.742	5448
840.879	5117
841.016	5102
841.153	5181
841.29	5391
841.427	5376
841.564	5326
841.701	5360
841.838	5315
841.975	5246
842.112	5318
842.249	5197
842.385	5086
842.522	5410
842.659	5166
842.796	5147
842.933	5208
843.069	5197
843.206	5162
843.343	5372
843.479	5269
843.616	5322
843.752	5056
843.889	5083
844.025	5254
844.162	5140
844.298	5242
844.435	5098
844.571	5124
844.708	5239
844.844	5364
844.98	5376
845.117	5357
845.253	5220
845.389	5105
845.525	5212
845.661	5201
845.798	5022
845.934	5231
846.07	5067
846.206	5204
846.342	5345
846.478	5220
846.614	5075
846.75	4991
846.886	4995
847.022	5204
847.158	5109
847.294	5140
847.429	5094
847.565	5083
847.701	5360
847.837	4908
847.972	4866
848.108	5006
848.244	4991
848.379	4900
848.515	4778
848.65	4790
848.786	4774
848.921	4847
849.057	4908
849.192	4972
849.328	4896
849.463	4892
849.598	4862
849.734	4786
849.869	4759
850.004	4687
850.14	4736
850.275	4649
850.41	4546
850.545	4596
850.68	4729
850.815	4687
850.95	4672
851.085	4877
851.22	4805
851.355	4729
851.49	4683
851.625	4717
851.76	4675
851.895	4637
852.03	4603
852.165	4725
852.299	4793
852.434	4866
852.569	4763
852.703	4778
852.838	4942
852.973	4976
853.107	4995
853.242	4763
853.376	4683
853.511	4615
853.645	4622
853.78	4843
853.914	4786
854.048	4748
854.183	4717
854.317	4721
854.451	4919
854.585	4694
854.72	4694
854.854	4793
854.988	4596
855.122	4691
855.256	4554
855.39	4710
855.524	4831
855.658	4816
855.792	4710
855.926	4759
856.06	4801
856.194	4847
856.327	4733
856.461	4626
856.595	4694
856.729	4668
856.862	4831
856.996	4729
857.13	4782
857.263	4790
857.397	4812
857.53	4687
857.664	4736
857.797	4839
857.931	4870
858.064	4698
858.197	4774
858.331	4725
858.464	4641
858.597	4508
858.731	4672
858.864	4653
858.997	4634
859.13	4714
859.263	4717
859.396	4733
859.529	4649
859.662	4615
859.795	4538
859.928	4649
860.061	4793
860.194	4801
860.327	4664
860.46	4603
860.592	4755
860.725	4748
860.858	4763
860.99	4603
861.123	4573
861.256	4584
861.388	4660
861.521	5448
861.653	4523
861.786	4493
861.918	4481
862.05	4519
862.183	4611
862.315	4630
862.447	4653
862.58	4603
862.712	4466
862.844	4371
862.976	4512
863.108	4474
863.24	4927
863.372	4356
863.504	4497
863.636	4432
863.768	4508
863.9	4516
864.032	4386
864.164	4470
864.296	4527
864.428	4588
864.559	4592
864.691	4569
864.823	4592
864.954	4535
865.086	4554
865.217	4512
865.349	4424
865.48	4466
865.612	4542
865.743	4630
865.875	4531
866.006	4481
866.137	4527
866.269	4531
866.4	4478
866.531	4462
866.662	4413
866.793	4462
866.924	4466
867.055	4542
867.186	4512
867.317	4470
867.448	4428
867.579	4462
867.71	4428
867.841	4371
867.972	4459
868.103	4523
868.233	4474
868.364	4500
868.495	4527
868.625	4691
868.756	4835
868.886	4588
869.017	4675
869.147	4828
869.278	4850
869.408	4736
869.539	4679
869.669	4733
869.799	4664
869.929	4774
870.06	4790
870.19	4961
870.32	4984
870.45	4938
870.58	5083
870.71	5143
870.84	5124
870.97	4980
871.1	4892
871.23	5197
871.36	5174
871.489	5056
871.619	5121
871.749	5128
871.879	5220
872.008	5201
872.138	5105
872.267	5041
872.397	4881
872.526	4835
872.656	4812
872.785	4850
872.915	4980
873.044	5071
873.173	4991
873.303	5029
873.432	5048
873.561	4980
873.69	4934
873.819	4915
873.948	4923
874.077	4881
874.206	4759
874.335	4858
874.464	4938
874.593	5056
874.722	4976
874.851	5136
874.979	5105
875.108	5071
875.237	4953
875.365	4911
875.494	4938
875.623	5010
875.751	4820
875.88	4927
876.008	4980
876.136	5048
876.265	5227
876.393	5334
876.521	5307
876.65	5239
876.778	5204
876.906	5079
877.034	5052
877.162	5102
877.29	5018
877.418	5083
877.546	5083
877.674	5067
877.802	5006
877.93	4991
878.058	4957
878.185	4923
878.313	5025
878.441	4991
878.568	4843
878.696	4911
878.824	4987
878.951	5075
879.079	5132
879.206	5280
879.333	5102
879.461	5029
879.588	4995
879.715	5140
879.842	5227
879.97	4961
880.097	4839
880.224	4748
880.351	4828
880.478	4839
880.605	4824
880.732	4736
880.859	5105
880.986	4904
881.112	4919
881.239	4839
881.366	4717
881.493	4611
881.619	4615
881.746	4664
881.872	4672
881.999	4675
882.125	4714
882.252	4828
882.378	4831
882.505	4991
882.631	4847
882.757	4683
882.883	4748
883.01	4740
883.136	4641
883.262	4641
883.388	4672
883.514	4889
883.64	4896
883.766	4820
883.892	4706
884.018	4740
884.143	4927
884.269	5064
884.395	4672
884.52	4634
884.646	4641
884.772	4603
884.897	4649
885.023	4691
885.148	4839
885.274	4904
885.399	4812
885.524	4710
885.65	4763
885.775	4752
885.9	4729
886.025	4881
886.15	4824
886.275	4774
886.4	4710
886.525	4771
886.65	4729
886.775	4683
886.9	4976
887.025	5067
887.149	4854
887.274	4672
887.399	4592
887.523	4653
887.648	4569
887.773	4656
887.897	4790
888.021	4847
888.146	4710
888.27	4790
888.395	4919
888.519	4854
888.643	4786
888.767	4858
888.891	4771
889.015	4622
889.139	4679
889.263	4637
889.387	4782
889.511	4965
889.635	4824
889.759	4660
889.883	4706
890.006	4694
890.13	4812
890.254	4607
890.377	4691
890.501	4569
890.624	4561
890.748	4672
890.871	4554
890.995	4443
891.118	4409
891.241	4558
891.364	4588
891.488	4675
891.611	4497
891.734	4573
891.857	4603
891.98	4554
892.103	4649
892.226	4649
892.349	4558
892.471	4451
892.594	4580
892.717	4622
892.839	4603
892.962	4637
893.085	4656
893.207	4656
893.33	4489
893.452	4538
893.575	4691
893.697	4656
893.819	4831
893.941	4873
894.064	4782
894.186	4580
894.308	4577
894.43	4759
894.552	4877
894.674	4771
894.796	4596
894.918	4626
895.04	4626
895.161	4721
895.283	4664
895.405	4561
895.526	4622
895.648	4691
895.769	4721
895.891	4721
896.012	4782
896.134	4733
896.255	4637
896.376	4618
896.498	4603
896.619	4668
896.74	4580
896.861	4675
896.982	4984
897.103	5083
897.224	4858
897.345	4763
897.466	4706
897.587	4774
897.708	4930
897.828	4824
897.949	4714
898.07	4599
898.19	4668
898.311	4850
898.431	4675
898.552	4736
898.672	4801
898.792	4843
898.913	4774
899.033	4641
899.153	4554
899.273	4398
899.393	4500
899.513	4577
899.633	4512
899.753	4554
899.873	4584
899.993	4554
900.113	4535
900.232	4626
900.352	4599
900.472	4542
900.591	4421
900.711	4493
900.83	4459
900.95	4691
901.069	4752
901.189	4550
901.308	4379
901.427	4356
901.546	4428
901.665	4504
901.784	4500
901.904	4405
902.023	4352
902.141	4215
902.26	4196
902.379	4333
902.498	4249
902.617	4242
902.735	4402
902.854	4375
902.973	4363
903.091	4272
903.21	4242
903.328	4341
903.446	4299
903.565	4238
903.683	4348
903.801	4314
903.919	4386
904.038	4466
904.156	4318
904.274	4443
904.392	4409
904.51	4443
904.627	4462
904.745	4573
904.863	4679
904.981	4424
905.098	4341
905.216	4375
905.334	4447
905.451	4421
905.569	4493
905.686	4649
905.803	4565
905.921	4470
906.038	4599
906.155	4470
906.272	4466
906.389	4497
906.506	4360
906.623	4409
906.74	4398
906.857	4341
906.974	4428
907.091	4523
907.208	4698
907.324	4584
907.441	4459
907.557	4367
907.674	4383
907.79	4352
907.907	4432
908.023	4489
908.139	4470
908.256	4489
908.372	4527
908.488	4535
908.604	4356
908.72	4363
908.836	4405
908.952	4421
909.068	4428
909.184	4580
909.3	4478
909.415	4618
909.531	4626
909.647	4329
909.762	4371
909.878	4341
909.993	4504
910.108	4413
910.224	4447
910.339	4531
910.454	4417
910.57	4325
910.685	4314
910.8	4649
910.915	4626
911.03	4516
911.145	4348
911.259	4348
911.374	4409
911.489	4325
911.604	4268
911.718	4200
911.833	4207
911.947	4093
912.062	4044
912.176	4246
912.291	4253
912.405	4265
912.519	4497
912.633	4558
912.748	4390
912.862	4306
912.976	4204
913.09	4124
913.204	4215
913.318	4246
913.431	4386
913.545	4421
913.659	4405
913.772	4363
913.886	4291
914	4230
914.113	4383
914.226	4451
914.34	4402
914.453	4287
914.566	4478
914.68	4322
914.793	4318
914.906	4139
915.019	4147
915.132	4135
915.245	4188
915.358	4227
915.47	4246
915.583	4287
915.696	4348
915.809	4421
915.921	4440
916.034	4253
916.146	4303
916.259	4230
916.371	4405
916.483	4413
916.595	4246
916.708	4371
916.82	4333
916.932	4314
917.044	4405
917.156	4310
917.268	4246
917.38	4268
917.491	4215
917.603	4363
917.715	4417
917.826	4383
917.938	4402
918.049	4272
918.161	4379
918.272	4531
918.384	4516
918.495	4440
918.606	4322
918.717	4238
918.828	4314
918.939	4379
919.05	4272
919.161	4337
919.272	4169
919.383	4223
919.494	4432
919.604	4672
919.715	4497
919.826	4367
919.936	4478
920.047	4546
920.157	4512
920.267	4672
920.378	4580
920.488	4565
920.598	4714
920.708	4904
920.818	4778
920.928	4767
921.038	4946
921.148	4961
921.258	4607
921.368	4577
921.477	4497
921.587	4428
921.697	4371
921.806	4580
921.916	4481
922.025	4310
922.134	4268
922.244	4253
922.353	4341
922.462	4223
922.571	4143
922.68	4029
922.789	3975
922.898	4040
923.007	4051
923.116	4147
923.224	4055
923.333	4055
923.442	3960
923.55	4006
923.659	4044
923.767	4116
923.876	3979
923.984	4093
924.092	3994
924.201	4093
924.309	4173
924.417	4154
924.525	4082
924.633	4093
924.741	5029
924.849	3873
924.956	4185
925.064	3987
925.172	3968
925.279	3975
925.387	4078
925.494	4044
925.602	4234
925.709	4211
925.816	4013
925.924	4147
926.031	4230
926.138	4204
926.245	4238
926.352	4109
926.459	4246
926.566	4329
926.673	4162
926.779	4059
926.886	4090
926.993	3983
927.099	3964
927.206	4010
927.312	3991
927.419	4051
927.525	4074
927.631	4090
927.737	3991
927.843	3949
927.95	3865
928.056	3960
928.162	3991
928.267	4071
928.373	4596
928.479	4131
928.585	3888
928.69	4032
928.796	4071
928.901	3968
929.007	3838
929.112	4051
929.218	4002
929.323	3953
929.428	3975
929.533	4109
929.638	3941
929.743	3991
929.848	4063
929.953	4010
930.058	3972
930.163	3793
930.267	3819
930.372	3975
930.477	3823
930.581	4120
930.685	3941
930.79	3781
930.894	3896
930.998	3854
931.103	4044
931.207	3694
931.311	3698
931.415	3637
931.519	3561
931.623	3561
