Data from test_V78500241_1428.txt Node
Date: Fri Mar 25 16:58:55 CST 2022
User: usil
Spectrometer: V785-0024
Trigger mode: 0
Integration Time (sec): 4.000000E-1
Scans to average: 1
Nonlinearity correction enabled: false
Boxcar width: 0
Storing dark spectrum: false
XAxis mode: Wavelengths
Number of Pixels in Spectrum: 1024
>>>>>Begin Spectral Data<<<<<
801.071	7974
801.214	8005
801.356	7894
801.499	7871
801.641	7765
801.783	7788
801.926	7986
802.068	7944
802.211	7970
802.353	7959
802.496	7811
802.638	7902
802.78	7902
802.923	7890
803.065	7917
803.208	7864
803.35	7963
803.492	8069
803.635	8130
803.777	8039
803.919	8149
804.061	8415
804.204	8157
804.346	8054
804.488	7887
804.63	8126
804.773	8084
804.915	8065
805.057	8248
805.199	8130
805.341	8214
805.483	8233
805.626	8176
805.768	8115
805.91	8237
806.052	8218
806.194	8096
806.336	8298
806.478	8062
806.62	8050
806.762	8031
806.904	8328
807.046	8404
807.188	8290
807.33	8317
807.472	8282
807.614	8164
807.756	8100
807.898	8039
808.04	7932
808.182	7955
808.324	7822
808.465	7871
808.607	8092
808.749	8126
808.891	8202
809.033	8206
809.174	8187
809.316	8096
809.458	8065
809.6	7970
809.741	8031
809.883	8115
810.025	8039
810.166	8046
810.308	7951
810.45	7963
810.591	7913
810.733	7715
810.875	7761
811.016	7525
811.158	7491
811.299	7586
811.441	7727
811.582	7636
811.724	7609
811.865	7510
812.007	7605
812.148	7575
812.29	7643
812.431	7803
812.573	7894
812.714	7925
812.855	8039
812.997	8126
813.138	8381
813.279	8183
813.421	8161
813.562	7986
813.703	7856
813.845	7689
813.986	7369
814.127	7312
814.268	7225
814.41	7194
814.551	7126
814.692	7228
814.833	7103
814.974	7091
815.115	7149
815.256	6977
815.397	6924
815.539	6916
815.68	6867
815.821	6806
815.962	6886
816.103	6878
816.244	6726
816.385	6582
816.526	6608
816.666	6528
816.807	6338
816.948	6464
817.089	6471
817.23	6475
817.371	6407
817.512	6357
817.653	6388
817.793	6365
817.934	6380
818.075	6414
818.216	6418
818.356	6407
818.497	6266
818.638	6155
818.778	6133
818.919	6163
819.06	6144
819.2	6331
819.341	6315
819.481	6369
819.622	6513
819.762	6749
819.903	6654
820.043	6612
820.184	6601
820.324	6582
820.465	6703
820.605	6719
820.746	6665
820.886	6559
821.026	6604
821.167	6642
821.307	6783
821.447	6776
821.588	6616
821.728	6574
821.868	6483
822.008	6376
822.149	6334
822.289	6273
822.429	6163
822.569	6079
822.709	6079
822.849	5882
822.99	5870
823.13	5984
823.27	5920
823.41	5783
823.55	5783
823.69	5817
823.83	5764
823.97	5619
824.11	5532
824.25	5463
824.389	5558
824.529	5589
824.669	5512
824.809	5608
824.949	5642
825.089	5649
825.228	5535
825.368	5379
825.508	5334
825.648	5322
825.787	5398
825.927	5376
826.067	5303
826.206	5269
826.346	5303
826.485	5459
826.625	5372
826.765	5554
826.904	5425
827.044	5231
827.183	5212
827.323	5124
827.462	5239
827.601	5170
827.741	5151
827.88	5201
828.02	5151
828.159	5227
828.298	5250
828.437	5307
828.577	5261
828.716	5474
828.855	5269
828.994	5147
829.134	5132
829.273	5143
829.412	5041
829.551	5105
829.69	5132
829.829	5212
829.968	5364
830.107	5254
830.246	5246
830.385	5155
830.524	5159
830.663	5086
830.802	4968
830.941	4904
831.08	4885
831.219	5014
831.357	4942
831.496	5109
831.635	4942
831.774	4824
831.913	4790
832.051	4725
832.19	4759
832.329	4866
832.467	4725
832.606	4649
832.744	4706
832.883	4733
833.022	4702
833.16	4782
833.299	4809
833.437	4797
833.576	4805
833.714	4835
833.852	4820
833.991	4816
834.129	4957
834.267	4976
834.406	4835
834.544	4965
834.682	4961
834.821	4987
834.959	5162
835.097	5014
835.235	5136
835.373	5113
835.511	5128
835.65	4980
835.788	5006
835.926	4877
836.064	4858
836.202	4885
836.34	5121
836.478	5193
836.615	5121
836.753	5151
836.891	5280
837.029	5261
837.167	5166
837.305	5162
837.443	5090
837.58	5075
837.718	5231
837.856	5174
837.993	5193
838.131	5201
838.269	5246
838.406	5239
838.544	5151
838.681	5060
838.819	5033
838.956	4908
839.094	4892
839.231	5010
839.369	5075
839.506	5414
839.643	5322
839.781	5045
839.918	5006
840.055	5151
840.193	5105
840.33	5086
840.467	5147
840.604	5170
840.742	5433
840.879	5105
841.016	5060
841.153	5216
841.29	5357
841.427	5349
841.564	5303
841.701	5265
841.838	5353
841.975	5239
842.112	5307
842.249	5124
842.385	5109
842.522	5307
842.659	5185
842.796	5174
842.933	5178
843.069	5140
843.206	5128
843.343	5364
843.479	5208
843.616	5284
843.752	5037
843.889	5018
844.025	5242
844.162	5014
844.298	5197
844.435	5041
844.571	5022
844.708	5162
844.844	5330
844.98	5284
845.117	5277
845.253	5136
845.389	5067
845.525	5140
845.661	5124
845.798	5075
845.934	5094
846.07	5056
846.206	5140
846.342	5284
846.478	5162
846.614	5048
846.75	4949
846.886	4930
847.022	5143
847.158	5037
847.294	5045
847.429	5098
847.565	5056
847.701	5334
847.837	4858
847.972	4793
848.108	4930
848.244	4896
848.379	4801
848.515	4774
848.65	4702
848.786	4714
848.921	4733
849.057	4839
849.192	4870
849.328	4797
849.463	4733
849.598	4774
849.734	4691
849.869	4717
850.004	4611
850.14	4710
850.275	4569
850.41	4527
850.545	4550
850.68	4596
850.815	4615
850.95	4660
851.085	4812
851.22	4694
851.355	4687
851.49	4580
851.625	4645
851.76	4656
851.895	4554
852.03	4489
852.165	4691
852.299	4736
852.434	4752
852.569	4793
852.703	4767
852.838	4797
852.973	4919
853.107	4900
853.242	4668
853.376	4664
853.511	4538
853.645	4558
853.78	4812
853.914	4687
854.048	4653
854.183	4645
854.317	4748
854.451	4831
854.585	4687
854.72	4603
854.854	4725
854.988	4588
855.122	4618
855.256	4489
855.39	4679
855.524	4797
855.658	4725
855.792	4637
855.926	4744
856.06	4774
856.194	4805
856.327	4672
856.461	4569
856.595	4618
856.729	4573
856.862	4778
856.996	4683
857.13	4679
857.263	4744
857.397	4835
857.53	4626
857.664	4740
857.797	4778
857.931	4774
858.064	4683
858.197	4736
858.331	4653
858.464	4577
858.597	4504
858.731	4626
858.864	4626
858.997	4630
859.13	4687
859.263	4694
859.396	4679
859.529	4558
859.662	4558
859.795	4565
859.928	4599
860.061	4774
860.194	4729
860.327	4634
860.46	4546
860.592	4698
860.725	4717
860.858	4710
860.99	4561
861.123	4478
861.256	4481
861.388	4569
861.521	5406
861.653	4535
861.786	4459
861.918	4466
862.05	4542
862.183	4538
862.315	4516
862.447	4637
862.58	4516
862.712	4436
862.844	4295
862.976	4451
863.108	4432
863.24	4889
863.372	4325
863.504	4409
863.636	4386
863.768	4451
863.9	4428
864.032	4383
864.164	4402
864.296	4436
864.428	4542
864.559	4558
864.691	4508
864.823	4489
864.954	4455
865.086	4512
865.217	4394
865.349	4428
865.48	4462
865.612	4459
865.743	4641
865.875	4466
866.006	4409
866.137	4443
866.269	4409
866.4	4413
866.531	4440
866.662	4383
866.793	4417
866.924	4398
867.055	4512
867.186	4436
867.317	4409
867.448	4398
867.579	4356
867.71	4379
867.841	4325
867.972	4409
868.103	4516
868.233	4421
868.364	4451
868.495	4459
868.625	4668
868.756	4782
868.886	4569
869.017	4588
869.147	4740
869.278	4736
869.408	4691
869.539	4649
869.669	4698
869.799	4618
869.929	4714
870.06	4698
870.19	4915
870.32	4923
870.45	4908
870.58	5071
870.71	5060
870.84	5105
870.97	4957
871.1	4835
871.23	5124
871.36	5121
871.489	4995
871.619	5075
871.749	5071
871.879	5109
872.008	5151
872.138	5064
872.267	4949
872.397	4820
872.526	4831
872.656	4755
872.785	4801
872.915	4942
873.044	5033
873.173	4900
873.303	4957
873.432	4938
873.561	4919
873.69	4831
873.819	4862
873.948	4965
874.077	4805
874.206	4771
874.335	4801
874.464	4892
874.593	5071
874.722	4938
874.851	5094
874.979	5056
875.108	5006
875.237	4904
875.365	4896
875.494	4923
875.623	5003
875.751	4828
875.88	4854
876.008	4957
876.136	5006
876.265	5140
876.393	5311
876.521	5250
876.65	5261
876.778	5155
876.906	5067
877.034	4980
877.162	5075
877.29	4995
877.418	5064
877.546	5052
877.674	5090
877.802	5025
877.93	4991
878.058	4919
878.185	4877
878.313	4980
878.441	4991
878.568	4755
878.696	4862
878.824	4957
878.951	4995
879.079	5143
879.206	5288
879.333	5132
879.461	4965
879.588	4991
879.715	5117
879.842	5208
879.97	5003
880.097	4809
880.224	4687
880.351	4820
880.478	4805
880.605	4797
880.732	4793
880.859	5086
880.986	4816
881.112	4873
881.239	4793
881.366	4660
881.493	4634
881.619	4603
881.746	4656
881.872	4660
881.999	4592
882.125	4687
882.252	4778
882.378	4771
882.505	4987
882.631	4786
882.757	4698
882.883	4759
883.01	4733
883.136	4672
883.262	4599
883.388	4558
883.514	4786
883.64	4824
883.766	4736
883.892	4653
884.018	4733
884.143	4877
884.269	5048
884.395	4668
884.52	4588
884.646	4653
884.772	4561
884.897	4554
885.023	4668
885.148	4744
885.274	4850
885.399	4812
885.524	4740
885.65	4717
885.775	4740
885.9	4740
886.025	4866
886.15	4809
886.275	4702
886.4	4622
886.525	4672
886.65	4649
886.775	4630
886.9	4820
887.025	5006
887.149	4771
887.274	4645
887.399	4558
887.523	4618
887.648	4561
887.773	4584
887.897	4759
888.021	4733
888.146	4694
888.27	4797
888.395	4889
888.519	4812
888.643	4831
888.767	4793
888.891	4702
889.015	4599
889.139	4679
889.263	4618
889.387	4736
889.511	4896
889.635	4786
889.759	4668
889.883	4618
890.006	4691
890.13	4870
890.254	4596
890.377	4706
890.501	4554
890.624	4546
890.748	4580
890.871	4493
890.995	4451
891.118	4424
891.241	4558
891.364	4565
891.488	4618
891.611	4516
891.734	4481
891.857	4592
891.98	4500
892.103	4656
892.226	4577
892.349	4497
892.471	4379
892.594	4546
892.717	4561
892.839	4573
892.962	4596
893.085	4679
893.207	4565
893.33	4440
893.452	4527
893.575	4653
893.697	4558
893.819	4835
893.941	4854
894.064	4790
894.186	4554
894.308	4546
894.43	4729
894.552	4862
894.674	4778
894.796	4542
894.918	4588
895.04	4554
895.161	4706
895.283	4660
895.405	4558
895.526	4618
895.648	4702
895.769	4641
895.891	4714
896.012	4740
896.134	4725
896.255	4637
896.376	4565
896.498	4630
896.619	4691
896.74	4550
896.861	4672
896.982	4930
897.103	5060
897.224	4850
897.345	4710
897.466	4733
897.587	4721
897.708	4843
897.828	4740
897.949	4641
898.07	4519
898.19	4641
898.311	4816
898.431	4653
898.552	4725
898.672	4793
898.792	4828
898.913	4729
899.033	4611
899.153	4470
899.273	4413
899.393	4512
899.513	4535
899.633	4519
899.753	4500
899.873	4489
899.993	4538
900.113	4512
900.232	4573
900.352	4558
900.472	4466
900.591	4413
900.711	4421
900.83	4417
900.95	4637
901.069	4694
901.189	4519
901.308	4352
901.427	4295
901.546	4398
901.665	4436
901.784	4485
901.904	4390
902.023	4341
902.141	4196
902.26	4128
902.379	4299
902.498	4242
902.617	4223
902.735	4360
902.854	4360
902.973	4352
903.091	4234
903.21	4207
903.328	4280
903.446	4265
903.565	4287
903.683	4325
903.801	4318
903.919	4421
904.038	4432
904.156	4322
904.274	4451
904.392	4360
904.51	4413
904.627	4447
904.745	4607
904.863	4649
904.981	4409
905.098	4272
905.216	4318
905.334	4371
905.451	4432
905.569	4421
905.686	4508
905.803	4558
905.921	4417
906.038	4569
906.155	4504
906.272	4409
906.389	4470
906.506	4314
906.623	4333
906.74	4367
906.857	4333
906.974	4417
907.091	4542
907.208	4664
907.324	4577
907.441	4500
907.557	4337
907.674	4371
907.79	4268
907.907	4322
908.023	4504
908.139	4440
908.256	4447
908.372	4474
908.488	4447
908.604	4329
908.72	4360
908.836	4360
908.952	4390
909.068	4428
909.184	4592
909.3	4474
909.415	4584
909.531	4596
909.647	4375
909.762	4371
909.878	4360
909.993	4436
910.108	4379
910.224	4348
910.339	4447
910.454	4371
910.57	4344
910.685	4333
910.8	4630
910.915	4588
911.03	4474
911.145	4348
911.259	4333
911.374	4367
911.489	4253
911.604	4272
911.718	4200
911.833	4227
911.947	4101
912.062	4021
912.176	4169
912.291	4230
912.405	4280
912.519	4432
912.633	4561
912.748	4341
912.862	4268
912.976	4204
913.09	4067
913.204	4162
913.318	4268
913.431	4363
913.545	4379
913.659	4459
913.772	4379
913.886	4227
914	4173
914.113	4402
914.226	4443
914.34	4390
914.453	4261
914.566	4394
914.68	4348
914.793	4329
914.906	4158
915.019	4162
915.132	4086
915.245	4154
915.358	4185
915.47	4223
915.583	4242
915.696	4265
915.809	4367
915.921	4337
916.034	4268
916.146	4207
916.259	4257
916.371	4333
916.483	4367
916.595	4227
916.708	4322
916.82	4299
916.932	4325
917.044	4306
917.156	4303
917.268	4227
917.38	4295
917.491	4268
917.603	4333
917.715	4432
917.826	4440
917.938	4337
918.049	4204
918.161	4367
918.272	4474
918.384	4546
918.495	4459
918.606	4291
918.717	4253
918.828	4348
918.939	4371
919.05	4272
919.161	4360
919.272	4097
919.383	4215
919.494	4424
919.604	4615
919.715	4417
919.826	4363
919.936	4356
920.047	4554
920.157	4508
920.267	4721
920.378	4542
920.488	4447
920.598	4714
920.708	4873
920.818	4717
920.928	4725
921.038	4938
921.148	4877
921.258	4630
921.368	4607
921.477	4500
921.587	4455
921.697	4386
921.806	4546
921.916	4421
922.025	4287
922.134	4276
922.244	4219
922.353	4348
922.462	4207
922.571	4147
922.68	3979
922.789	3983
922.898	4013
923.007	3987
923.116	4071
923.224	4032
923.333	4067
923.442	3975
923.55	3968
923.659	4059
923.767	4090
923.876	4029
923.984	4116
924.092	4010
924.201	4093
924.309	4116
924.417	4143
924.525	4044
924.633	4101
924.741	5037
924.849	3899
924.956	4116
925.064	3960
925.172	3907
925.279	3934
925.387	4048
925.494	4025
925.602	4215
925.709	4143
925.816	4025
925.924	4131
926.031	4246
926.138	4147
926.245	4188
926.352	4101
926.459	4215
926.566	4284
926.673	4211
926.779	4093
926.886	4025
926.993	3956
927.099	3956
927.206	3949
927.312	3960
927.419	4063
927.525	3998
927.631	4116
927.737	3937
927.843	3937
927.95	3835
928.056	3918
928.162	3964
928.267	4048
928.373	4626
928.479	4101
928.585	3804
928.69	3972
928.796	4063
928.901	3953
929.007	3888
929.112	4002
929.218	3991
929.323	3918
929.428	3934
929.533	4059
929.638	3915
929.743	3953
929.848	4048
929.953	3991
930.058	3934
930.163	3800
930.267	3842
930.372	3972
930.477	3797
930.581	4074
930.685	3956
930.79	3831
930.894	3850
930.998	3873
931.103	4029
931.207	3717
931.311	3705
931.415	3633
931.519	3534
931.623	3576
