Data from test_V78500241_2632.txt Node
Date: Fri Mar 25 17:07:18 CST 2022
User: usil
Spectrometer: V785-0024
Trigger mode: 0
Integration Time (sec): 4.000000E-1
Scans to average: 1
Nonlinearity correction enabled: false
Boxcar width: 0
Storing dark spectrum: false
XAxis mode: Wavelengths
Number of Pixels in Spectrum: 1024
>>>>>Begin Spectral Data<<<<<
801.071	8069
801.214	8039
801.356	7940
801.499	7887
801.641	7780
801.783	7871
801.926	7978
802.068	7951
802.211	8008
802.353	8016
802.496	7883
802.638	7932
802.78	7936
802.923	7982
803.065	7860
803.208	7917
803.35	7986
803.492	8111
803.635	8100
803.777	8039
803.919	8145
804.061	8476
804.204	8214
804.346	8031
804.488	7982
804.63	8161
804.773	8069
804.915	8176
805.057	8301
805.199	8134
805.341	8199
805.483	8332
805.626	8237
805.768	8077
805.91	8176
806.052	8240
806.194	8107
806.336	8237
806.478	8142
806.62	8054
806.762	8096
806.904	8301
807.046	8434
807.188	8404
807.33	8256
807.472	8324
807.614	8225
807.756	8096
807.898	8005
808.04	7837
808.182	7959
808.324	7906
808.465	7989
808.607	8161
808.749	8111
808.891	8237
809.033	8332
809.174	8130
809.316	8145
809.458	8134
809.6	8020
809.741	8084
809.883	8043
810.025	8199
810.166	8073
810.308	8008
810.45	7993
810.591	7875
810.733	7795
810.875	7715
811.016	7559
811.158	7472
811.299	7590
811.441	7761
811.582	7719
811.724	7594
811.865	7514
812.007	7605
812.148	7552
812.29	7727
812.431	7734
812.573	7883
812.714	7928
812.855	8142
812.997	8298
813.138	8377
813.279	8202
813.421	8027
813.562	7925
813.703	7902
813.845	7818
813.986	7460
814.127	7320
814.268	7179
814.41	7244
814.551	7149
814.692	7164
814.833	7061
814.974	7141
815.115	7057
815.256	7012
815.397	6928
815.539	6977
815.68	6779
815.821	6745
815.962	6848
816.103	6848
816.244	6711
816.385	6658
816.526	6616
816.666	6525
816.807	6319
816.948	6506
817.089	6517
817.23	6506
817.371	6418
817.512	6407
817.653	6483
817.793	6483
817.934	6456
818.075	6467
818.216	6418
818.356	6403
818.497	6239
818.638	6121
818.778	6171
818.919	6167
819.06	6171
819.2	6327
819.341	6334
819.481	6380
819.622	6582
819.762	6688
819.903	6700
820.043	6688
820.184	6597
820.324	6604
820.465	6658
820.605	6665
820.746	6711
820.886	6601
821.026	6700
821.167	6707
821.307	6798
821.447	6810
821.588	6616
821.728	6642
821.868	6532
822.008	6300
822.149	6418
822.289	6418
822.429	6175
822.569	6114
822.709	6114
822.849	5958
822.99	5885
823.13	5958
823.27	5912
823.41	5863
823.55	5764
823.69	5802
823.83	5844
823.97	5619
824.11	5539
824.25	5539
824.389	5585
824.529	5634
824.669	5501
824.809	5638
824.949	5653
825.089	5649
825.228	5551
825.368	5414
825.508	5398
825.648	5330
825.787	5341
825.927	5360
826.067	5364
826.206	5303
826.346	5398
826.485	5444
826.625	5417
826.765	5539
826.904	5490
827.044	5239
827.183	5212
827.323	5124
827.462	5269
827.601	5121
827.741	5162
827.88	5208
828.02	5201
828.159	5227
828.298	5322
828.437	5360
828.577	5296
828.716	5429
828.855	5349
828.994	5220
829.134	5136
829.273	5254
829.412	5098
829.551	5178
829.69	5174
829.829	5303
829.968	5414
830.107	5231
830.246	5307
830.385	5231
830.524	5136
830.663	5052
830.802	4999
830.941	4885
831.08	4942
831.219	5048
831.357	5003
831.496	5162
831.635	4949
831.774	4866
831.913	4946
832.051	4774
832.19	4736
832.329	4778
832.467	4714
832.606	4649
832.744	4714
832.883	4736
833.022	4706
833.16	4767
833.299	4793
833.437	4847
833.576	4877
833.714	4843
833.852	4889
833.991	4930
834.129	4991
834.267	4923
834.406	4911
834.544	5014
834.682	4987
834.821	4980
834.959	5189
835.097	4984
835.235	5197
835.373	5067
835.511	5124
835.65	5083
835.788	5018
835.926	4904
836.064	4862
836.202	4919
836.34	5151
836.478	5265
836.615	5178
836.753	5239
836.891	5246
837.029	5258
837.167	5261
837.305	5159
837.443	5136
837.58	5067
837.718	5277
837.856	5151
837.993	5124
838.131	5269
838.269	5197
838.406	5185
838.544	5208
838.681	5079
838.819	5045
838.956	4873
839.094	4953
839.231	4984
839.369	5102
839.506	5425
839.643	5288
839.781	5071
839.918	5033
840.055	5113
840.193	5124
840.33	5098
840.467	5193
840.604	5185
840.742	5448
840.879	5086
841.016	5083
841.153	5178
841.29	5417
841.427	5341
841.564	5353
841.701	5368
841.838	5231
841.975	5155
842.112	5265
842.249	5094
842.385	5079
842.522	5322
842.659	5197
842.796	5136
842.933	5216
843.069	5155
843.206	5178
843.343	5277
843.479	5223
843.616	5288
843.752	5079
843.889	5014
844.025	5235
844.162	5090
844.298	5178
844.435	5113
844.571	5048
844.708	5204
844.844	5261
844.98	5280
845.117	5273
845.253	5151
845.389	5086
845.525	5181
845.661	5083
845.798	5029
845.934	5151
846.07	5105
846.206	5181
846.342	5277
846.478	5193
846.614	5056
846.75	4961
846.886	4953
847.022	5094
847.158	5056
847.294	5052
847.429	5086
847.565	5094
847.701	5322
847.837	4812
847.972	4828
848.108	4999
848.244	4938
848.379	4771
848.515	4717
848.65	4740
848.786	4786
848.921	4767
849.057	4915
849.192	4934
849.328	4820
849.463	4866
849.598	4816
849.734	4774
849.869	4721
850.004	4611
850.14	4626
850.275	4618
850.41	4523
850.545	4535
850.68	4599
850.815	4664
850.95	4672
851.085	4870
851.22	4752
851.355	4664
851.49	4615
851.625	4645
851.76	4672
851.895	4580
852.03	4573
852.165	4683
852.299	4740
852.434	4812
852.569	4740
852.703	4759
852.838	4812
852.973	4938
853.107	4953
853.242	4714
853.376	4672
853.511	4531
853.645	4615
853.78	4816
853.914	4679
854.048	4656
854.183	4664
854.317	4675
854.451	4866
854.585	4675
854.72	4649
854.854	4755
854.988	4603
855.122	4679
855.256	4573
855.39	4687
855.524	4774
855.658	4702
855.792	4714
855.926	4721
856.06	4710
856.194	4786
856.327	4668
856.461	4554
856.595	4630
856.729	4634
856.862	4786
856.996	4710
857.13	4698
857.263	4736
857.397	4820
857.53	4641
857.664	4733
857.797	4740
857.931	4839
858.064	4698
858.197	4717
858.331	4668
858.464	4626
858.597	4527
858.731	4615
858.864	4653
858.997	4596
859.13	4698
859.263	4668
859.396	4675
859.529	4622
859.662	4577
859.795	4550
859.928	4637
860.061	4725
860.194	4759
860.327	4596
860.46	4561
860.592	4691
860.725	4736
860.858	4717
860.99	4611
861.123	4497
861.256	4538
861.388	4603
861.521	5505
861.653	4519
861.786	4440
861.918	4409
862.05	4504
862.183	4580
862.315	4656
862.447	4634
862.58	4569
862.712	4375
862.844	4337
862.976	4443
863.108	4504
863.24	4801
863.372	4299
863.504	4394
863.636	4409
863.768	4485
863.9	4440
864.032	4341
864.164	4402
864.296	4462
864.428	4535
864.559	4565
864.691	4535
864.823	4531
864.954	4489
865.086	4527
865.217	4402
865.349	4432
865.48	4451
865.612	4443
865.743	4653
865.875	4459
866.006	4451
866.137	4459
866.269	4459
866.4	4428
866.531	4413
866.662	4417
866.793	4394
866.924	4398
867.055	4481
867.186	4493
867.317	4421
867.448	4386
867.579	4394
867.71	4409
867.841	4352
867.972	4481
868.103	4466
868.233	4489
868.364	4421
868.495	4455
868.625	4615
868.756	4740
868.886	4569
869.017	4634
869.147	4763
869.278	4771
869.408	4637
869.539	4637
869.669	4687
869.799	4691
869.929	4729
870.06	4744
870.19	4965
870.32	4930
870.45	4953
870.58	5029
870.71	5143
870.84	5083
870.97	4965
871.1	4877
871.23	5162
871.36	5094
871.489	4980
871.619	5071
871.749	5067
871.879	5136
872.008	5174
872.138	5056
872.267	5018
872.397	4866
872.526	4809
872.656	4717
872.785	4824
872.915	4965
873.044	5045
873.173	4972
873.303	5003
873.432	4938
873.561	4965
873.69	4870
873.819	4854
873.948	4904
874.077	4831
874.206	4748
874.335	4801
874.464	4889
874.593	5037
874.722	4976
874.851	5098
874.979	5075
875.108	5037
875.237	4934
875.365	4908
875.494	4911
875.623	4976
875.751	4854
875.88	4862
876.008	5029
876.136	5014
876.265	5178
876.393	5330
876.521	5261
876.65	5250
876.778	5117
876.906	5105
877.034	5033
877.162	5086
877.29	4976
877.418	5064
877.546	5056
877.674	5075
877.802	5067
877.93	5037
878.058	4946
878.185	4862
878.313	4961
878.441	4957
878.568	4793
878.696	4900
878.824	4949
878.951	5022
879.079	5083
879.206	5299
879.333	5064
879.461	4980
879.588	4987
879.715	5170
879.842	5201
879.97	5006
880.097	4786
880.224	4687
880.351	4839
880.478	4847
880.605	4759
880.732	4812
880.859	5105
880.986	4923
881.112	4904
881.239	4793
881.366	4702
881.493	4634
881.619	4588
881.746	4698
881.872	4653
881.999	4599
882.125	4664
882.252	4786
882.378	4820
882.505	4995
882.631	4820
882.757	4683
882.883	4767
883.01	4725
883.136	4660
883.262	4637
883.388	4615
883.514	4786
883.64	4908
883.766	4824
883.892	4656
884.018	4687
884.143	4930
884.269	5010
884.395	4683
884.52	4649
884.646	4668
884.772	4596
884.897	4550
885.023	4717
885.148	4736
885.274	4889
885.399	4786
885.524	4698
885.65	4717
885.775	4744
885.9	4706
886.025	4831
886.15	4774
886.275	4668
886.4	4691
886.525	4790
886.65	4683
886.775	4668
886.9	4908
887.025	5052
887.149	4835
887.274	4656
887.399	4596
887.523	4622
887.648	4588
887.773	4561
887.897	4774
888.021	4752
888.146	4645
888.27	4831
888.395	4877
888.519	4774
888.643	4790
888.767	4854
888.891	4660
889.015	4592
889.139	4641
889.263	4538
889.387	4786
889.511	4843
889.635	4820
889.759	4641
889.883	4637
890.006	4736
890.13	4862
890.254	4634
890.377	4668
890.501	4546
890.624	4504
890.748	4637
890.871	4489
890.995	4394
891.118	4367
891.241	4493
891.364	4542
891.488	4611
891.611	4538
891.734	4542
891.857	4618
891.98	4550
892.103	4615
892.226	4596
892.349	4546
892.471	4363
892.594	4531
892.717	4599
892.839	4558
892.962	4603
893.085	4656
893.207	4615
893.33	4440
893.452	4485
893.575	4725
893.697	4565
893.819	4835
893.941	4862
894.064	4771
894.186	4573
894.308	4573
894.43	4740
894.552	4805
894.674	4752
894.796	4546
894.918	4641
895.04	4554
895.161	4763
895.283	4656
895.405	4546
895.526	4645
895.648	4668
895.769	4675
895.891	4748
896.012	4748
896.134	4767
896.255	4618
896.376	4615
896.498	4599
896.619	4672
896.74	4611
896.861	4618
896.982	4930
897.103	5098
897.224	4854
897.345	4759
897.466	4675
897.587	4710
897.708	4889
897.828	4824
897.949	4721
898.07	4588
898.19	4615
898.311	4812
898.431	4660
898.552	4752
898.672	4767
898.792	4805
898.913	4740
899.033	4580
899.153	4489
899.273	4405
899.393	4535
899.513	4523
899.633	4504
899.753	4531
899.873	4500
899.993	4569
900.113	4500
900.232	4596
900.352	4569
900.472	4466
900.591	4379
900.711	4504
900.83	4462
900.95	4580
901.069	4702
901.189	4535
901.308	4383
901.427	4333
901.546	4356
901.665	4455
901.784	4485
901.904	4383
902.023	4318
902.141	4196
902.26	4188
902.379	4318
902.498	4249
902.617	4223
902.735	4363
902.854	4375
902.973	4398
903.091	4219
903.21	4188
903.328	4287
903.446	4299
903.565	4257
903.683	4394
903.801	4303
903.919	4379
904.038	4440
904.156	4306
904.274	4421
904.392	4360
904.51	4436
904.627	4462
904.745	4573
904.863	4577
904.981	4371
905.098	4329
905.216	4398
905.334	4451
905.451	4428
905.569	4462
905.686	4580
905.803	4558
905.921	4440
906.038	4607
906.155	4485
906.272	4405
906.389	4447
906.506	4352
906.623	4352
906.74	4360
906.857	4284
906.974	4394
907.091	4565
907.208	4736
907.324	4577
907.441	4474
907.557	4375
907.674	4322
907.79	4310
907.907	4371
908.023	4500
908.139	4478
908.256	4402
908.372	4451
908.488	4424
908.604	4371
908.72	4303
908.836	4360
908.952	4390
909.068	4455
909.184	4618
909.3	4451
909.415	4618
909.531	4584
909.647	4390
909.762	4394
909.878	4383
909.993	4436
910.108	4409
910.224	4459
910.339	4508
910.454	4409
910.57	4363
910.685	4318
910.8	4664
910.915	4626
911.03	4485
911.145	4325
911.259	4337
911.374	4383
911.489	4306
911.604	4291
911.718	4211
911.833	4215
911.947	4101
912.062	4051
912.176	4192
912.291	4234
912.405	4238
912.519	4436
912.633	4542
912.748	4386
912.862	4318
912.976	4246
913.09	4105
913.204	4192
913.318	4246
913.431	4405
913.545	4371
913.659	4455
913.772	4348
913.886	4272
914	4230
914.113	4402
914.226	4470
914.34	4398
914.453	4249
914.566	4413
914.68	4276
914.793	4272
914.906	4192
915.019	4116
915.132	4078
915.245	4173
915.358	4196
915.47	4242
915.583	4284
915.696	4306
915.809	4421
915.921	4443
916.034	4268
916.146	4230
916.259	4181
916.371	4379
916.483	4348
916.595	4268
916.708	4322
916.82	4356
916.932	4325
917.044	4348
917.156	4306
917.268	4196
917.38	4268
917.491	4249
917.603	4306
917.715	4402
917.826	4428
917.938	4367
918.049	4246
918.161	4402
918.272	4569
918.384	4542
918.495	4455
918.606	4295
918.717	4219
918.828	4322
918.939	4363
919.05	4291
919.161	4367
919.272	4150
919.383	4204
919.494	4417
919.604	4630
919.715	4421
919.826	4390
919.936	4402
920.047	4493
920.157	4470
920.267	4668
920.378	4592
920.488	4523
920.598	4702
920.708	4908
920.818	4759
920.928	4759
921.038	4934
921.148	4915
921.258	4694
921.368	4569
921.477	4500
921.587	4508
921.697	4375
921.806	4523
921.916	4424
922.025	4280
922.134	4314
922.244	4223
922.353	4341
922.462	4154
922.571	4120
922.68	4036
922.789	3979
922.898	4017
923.007	3964
923.116	4082
923.224	4051
923.333	4017
923.442	3983
923.55	3964
923.659	4059
923.767	4105
923.876	3994
923.984	4112
924.092	3972
924.201	4044
924.309	4112
924.417	4131
924.525	4074
924.633	4131
924.741	5029
924.849	3903
924.956	4158
925.064	3991
925.172	3850
925.279	3968
925.387	4074
925.494	4063
925.602	4204
925.709	4207
925.816	4006
925.924	4131
926.031	4188
926.138	4135
926.245	4211
926.352	4135
926.459	4284
926.566	4329
926.673	4124
926.779	4112
926.886	4025
926.993	3987
927.099	3975
927.206	3922
927.312	3922
927.419	4093
927.525	4032
927.631	4143
927.737	3949
927.843	3937
927.95	3842
928.056	3930
928.162	4029
928.267	4082
928.373	4607
928.479	4135
928.585	3869
928.69	4025
928.796	4097
928.901	3975
929.007	3861
929.112	4017
929.218	3979
929.323	3941
929.428	3998
929.533	4120
929.638	3880
929.743	3953
929.848	4017
929.953	3964
930.058	3930
930.163	3793
930.267	3827
930.372	3972
930.477	3808
930.581	4093
930.685	3918
930.79	3789
930.894	3888
930.998	3831
931.103	4029
931.207	3724
931.311	3713
931.415	3671
931.519	3530
931.623	3568
