Data from test_V78500241_621.txt Node
Date: Fri Mar 25 16:53:19 CST 2022
User: usil
Spectrometer: V785-0024
Trigger mode: 0
Integration Time (sec): 4.000000E-1
Scans to average: 1
Nonlinearity correction enabled: false
Boxcar width: 0
Storing dark spectrum: false
XAxis mode: Wavelengths
Number of Pixels in Spectrum: 1024
>>>>>Begin Spectral Data<<<<<
801.071	8020
801.214	8039
801.356	7837
801.499	7856
801.641	7864
801.783	7879
801.926	8008
802.068	7978
802.211	8069
802.353	8084
802.496	7883
802.638	7936
802.78	8024
802.923	7898
803.065	7868
803.208	7890
803.35	8054
803.492	8138
803.635	8187
803.777	8039
803.919	8046
804.061	8415
804.204	8123
804.346	8043
804.488	7989
804.63	8164
804.773	8016
804.915	8096
805.057	8328
805.199	8195
805.341	8286
805.483	8320
805.626	8199
805.768	8107
805.91	8240
806.052	8183
806.194	8103
806.336	8358
806.478	8119
806.62	8088
806.762	8119
806.904	8298
807.046	8434
807.188	8408
807.33	8225
807.472	8381
807.614	8195
807.756	8157
807.898	8016
808.04	7860
808.182	7951
808.324	7902
808.465	7890
808.607	8058
808.749	8130
808.891	8214
809.033	8320
809.174	8275
809.316	8092
809.458	8046
809.6	7959
809.741	8043
809.883	7967
810.025	8069
810.166	8092
810.308	8123
810.45	8016
810.591	7902
810.733	7742
810.875	7670
811.016	7514
811.158	7502
811.299	7624
811.441	7746
811.582	7769
811.724	7578
811.865	7586
812.007	7639
812.148	7605
812.29	7651
812.431	7715
812.573	7879
812.714	7921
812.855	8202
812.997	8202
813.138	8279
813.279	8218
813.421	8191
813.562	8035
813.703	7906
813.845	7811
813.986	7476
814.127	7301
814.268	7259
814.41	7217
814.551	7149
814.692	7190
814.833	7103
814.974	7084
815.115	7152
815.256	6970
815.397	7031
815.539	6932
815.68	6935
815.821	6749
815.962	6966
816.103	6791
816.244	6840
816.385	6673
816.526	6612
816.666	6502
816.807	6292
816.948	6464
817.089	6498
817.23	6407
817.371	6361
817.512	6357
817.653	6418
817.793	6403
817.934	6407
818.075	6452
818.216	6467
818.356	6414
818.497	6247
818.638	6125
818.778	6190
818.919	6182
819.06	6148
819.2	6262
819.341	6327
819.481	6338
819.622	6563
819.762	6719
819.903	6677
820.043	6696
820.184	6513
820.324	6544
820.465	6631
820.605	6646
820.746	6620
820.886	6452
821.026	6669
821.167	6669
821.307	6791
821.447	6703
821.588	6620
821.728	6563
821.868	6441
822.008	6323
822.149	6357
822.289	6334
822.429	6152
822.569	6011
822.709	6148
822.849	5878
822.99	5840
823.13	5866
823.27	5992
823.41	5817
823.55	5764
823.69	5741
823.83	5733
823.97	5661
824.11	5558
824.25	5509
824.389	5524
824.529	5566
824.669	5478
824.809	5699
824.949	5630
825.089	5615
825.228	5596
825.368	5376
825.508	5345
825.648	5345
825.787	5345
825.927	5334
826.067	5307
826.206	5315
826.346	5364
826.485	5376
826.625	5429
826.765	5566
826.904	5478
827.044	5246
827.183	5242
827.323	5132
827.462	5265
827.601	5151
827.741	5155
827.88	5239
828.02	5071
828.159	5250
828.298	5311
828.437	5341
828.577	5265
828.716	5501
828.855	5372
828.994	5204
829.134	5128
829.273	5189
829.412	5064
829.551	5105
829.69	5151
829.829	5242
829.968	5379
830.107	5299
830.246	5208
830.385	5128
830.524	5124
830.663	5064
830.802	4987
830.941	4900
831.08	4915
831.219	4942
831.357	5006
831.496	5124
831.635	4930
831.774	4828
831.913	4847
832.051	4733
832.19	4759
832.329	4828
832.467	4710
832.606	4607
832.744	4710
832.883	4740
833.022	4698
833.16	4774
833.299	4816
833.437	4892
833.576	4835
833.714	4866
833.852	4858
833.991	4866
834.129	4946
834.267	4942
834.406	4915
834.544	5003
834.682	4961
834.821	4953
834.959	5174
835.097	4987
835.235	5105
835.373	5098
835.511	5094
835.65	5010
835.788	5090
835.926	4892
836.064	4881
836.202	4900
836.34	5155
836.478	5208
836.615	5136
836.753	5258
836.891	5288
837.029	5254
837.167	5185
837.305	5151
837.443	5159
837.58	5109
837.718	5246
837.856	5216
837.993	5159
838.131	5246
838.269	5204
838.406	5216
838.544	5204
838.681	5010
838.819	4999
838.956	4850
839.094	4885
839.231	5006
839.369	5090
839.506	5406
839.643	5204
839.781	5037
839.918	5003
840.055	5098
840.193	5060
840.33	5113
840.467	5147
840.604	5193
840.742	5486
840.879	5067
841.016	5048
841.153	5151
841.29	5383
841.427	5334
841.564	5311
841.701	5360
841.838	5353
841.975	5246
842.112	5227
842.249	5143
842.385	5079
842.522	5307
842.659	5193
842.796	5140
842.933	5208
843.069	5151
843.206	5128
843.343	5254
843.479	5178
843.616	5284
843.752	5045
843.889	4965
844.025	5201
844.162	4980
844.298	5185
844.435	5071
844.571	5048
844.708	5181
844.844	5326
844.98	5318
845.117	5330
845.253	5155
845.389	5067
845.525	5151
845.661	5136
845.798	5037
845.934	5121
846.07	5006
846.206	5216
846.342	5269
846.478	5178
846.614	5010
846.75	4961
846.886	4965
847.022	5143
847.158	4980
847.294	5098
847.429	5071
847.565	5109
847.701	5288
847.837	4850
847.972	4774
848.108	4930
848.244	4889
848.379	4748
848.515	4740
848.65	4736
848.786	4763
848.921	4801
849.057	4885
849.192	4843
849.328	4835
849.463	4839
849.598	4805
849.734	4755
849.869	4717
850.004	4603
850.14	4694
850.275	4584
850.41	4500
850.545	4504
850.68	4592
850.815	4596
850.95	4645
851.085	4828
851.22	4759
851.355	4698
851.49	4626
851.625	4596
851.76	4565
851.895	4531
852.03	4558
852.165	4694
852.299	4694
852.434	4805
852.569	4721
852.703	4820
852.838	4816
852.973	4908
853.107	4908
853.242	4714
853.376	4645
853.511	4542
853.645	4565
853.78	4786
853.914	4656
854.048	4637
854.183	4672
854.317	4691
854.451	4793
854.585	4714
854.72	4630
854.854	4729
854.988	4603
855.122	4592
855.256	4512
855.39	4649
855.524	4752
855.658	4733
855.792	4721
855.926	4714
856.06	4771
856.194	4797
856.327	4694
856.461	4626
856.595	4603
856.729	4618
856.862	4740
856.996	4694
857.13	4675
857.263	4782
857.397	4793
857.53	4660
857.664	4763
857.797	4706
857.931	4736
858.064	4702
858.197	4767
858.331	4649
858.464	4565
858.597	4478
858.731	4588
858.864	4645
858.997	4603
859.13	4649
859.263	4641
859.396	4687
859.529	4508
859.662	4554
859.795	4523
859.928	4664
860.061	4733
860.194	4740
860.327	4649
860.46	4596
860.592	4717
860.725	4702
860.858	4672
860.99	4504
861.123	4527
861.256	4497
861.388	4622
861.521	5307
861.653	4451
861.786	4390
861.918	4451
862.05	4493
862.183	4558
862.315	4573
862.447	4664
862.58	4538
862.712	4428
862.844	4329
862.976	4440
863.108	4432
863.24	4900
863.372	4322
863.504	4447
863.636	4386
863.768	4459
863.9	4402
864.032	4367
864.164	4428
864.296	4459
864.428	4531
864.559	4531
864.691	4485
864.823	4542
864.954	4443
865.086	4493
865.217	4451
865.349	4386
865.48	4455
865.612	4493
865.743	4596
865.875	4493
866.006	4405
866.137	4436
866.269	4504
866.4	4417
866.531	4413
866.662	4394
866.793	4348
866.924	4390
867.055	4523
867.186	4447
867.317	4402
867.448	4405
867.579	4394
867.71	4383
867.841	4341
867.972	4497
868.103	4443
868.233	4481
868.364	4432
868.495	4500
868.625	4641
868.756	4759
868.886	4523
869.017	4599
869.147	4790
869.278	4771
869.408	4645
869.539	4634
869.669	4675
869.799	4649
869.929	4714
870.06	4725
870.19	4923
870.32	4911
870.45	4930
870.58	4999
870.71	5113
870.84	5105
870.97	4934
871.1	4896
871.23	5143
871.36	5147
871.489	5022
871.619	5067
871.749	5113
871.879	5098
872.008	5166
872.138	4984
872.267	4965
872.397	4862
872.526	4782
872.656	4736
872.785	4831
872.915	4949
873.044	5022
873.173	4911
873.303	4949
873.432	4934
873.561	4911
873.69	4843
873.819	4904
873.948	4930
874.077	4786
874.206	4733
874.335	4805
874.464	4915
874.593	5052
874.722	4927
874.851	5041
874.979	4999
875.108	5006
875.237	4866
875.365	4858
875.494	4854
875.623	4900
875.751	4828
875.88	4847
876.008	4934
876.136	5033
876.265	5227
876.393	5318
876.521	5201
876.65	5170
876.778	5132
876.906	5048
877.034	4984
877.162	5060
877.29	5003
877.418	5121
877.546	5052
877.674	5014
877.802	5003
877.93	5006
878.058	4999
878.185	4862
878.313	4900
878.441	4911
878.568	4782
878.696	4900
878.824	4934
878.951	4961
879.079	5151
879.206	5231
879.333	5117
879.461	4991
879.588	4999
879.715	5143
879.842	5246
879.97	5048
880.097	4786
880.224	4786
880.351	4805
880.478	4809
880.605	4774
880.732	4801
880.859	5071
880.986	4881
881.112	4862
881.239	4786
881.366	4668
881.493	4599
881.619	4634
881.746	4618
881.872	4679
881.999	4615
882.125	4698
882.252	4797
882.378	4877
882.505	5006
882.631	4774
882.757	4622
882.883	4687
883.01	4733
883.136	4683
883.262	4615
883.388	4622
883.514	4843
883.64	4877
883.766	4782
883.892	4672
884.018	4733
884.143	4847
884.269	5022
884.395	4645
884.52	4611
884.646	4645
884.772	4519
884.897	4550
885.023	4630
885.148	4809
885.274	4870
885.399	4858
885.524	4698
885.65	4774
885.775	4698
885.9	4702
886.025	4881
886.15	4797
886.275	4736
886.4	4637
886.525	4748
886.65	4714
886.775	4660
886.9	4900
887.025	5022
887.149	4752
887.274	4649
887.399	4637
887.523	4577
887.648	4516
887.773	4569
887.897	4797
888.021	4774
888.146	4660
888.27	4831
888.395	4877
888.519	4839
888.643	4816
888.767	4797
888.891	4637
889.015	4607
889.139	4634
889.263	4535
889.387	4793
889.511	4873
889.635	4793
889.759	4626
889.883	4618
890.006	4702
890.13	4847
890.254	4649
890.377	4626
890.501	4542
890.624	4523
890.748	4618
890.871	4527
890.995	4447
891.118	4390
891.241	4481
891.364	4558
891.488	4637
891.611	4485
891.734	4531
891.857	4573
891.98	4542
892.103	4660
892.226	4584
892.349	4485
892.471	4405
892.594	4542
892.717	4573
892.839	4550
892.962	4573
893.085	4611
893.207	4561
893.33	4447
893.452	4516
893.575	4641
893.697	4558
893.819	4763
893.941	4854
894.064	4763
894.186	4573
894.308	4558
894.43	4687
894.552	4774
894.674	4740
894.796	4561
894.918	4584
895.04	4573
895.161	4710
895.283	4641
895.405	4641
895.526	4596
895.648	4679
895.769	4694
895.891	4736
896.012	4752
896.134	4729
896.255	4675
896.376	4573
896.498	4660
896.619	4683
896.74	4611
896.861	4645
896.982	4900
897.103	5090
897.224	4854
897.345	4755
897.466	4641
897.587	4702
897.708	4881
897.828	4801
897.949	4637
898.07	4584
898.19	4645
898.311	4790
898.431	4691
898.552	4736
898.672	4793
898.792	4782
898.913	4744
899.033	4637
899.153	4516
899.273	4432
899.393	4561
899.513	4516
899.633	4519
899.753	4577
899.873	4550
899.993	4527
900.113	4542
900.232	4580
900.352	4584
900.472	4493
900.591	4405
900.711	4527
900.83	4455
900.95	4592
901.069	4694
901.189	4580
901.308	4348
901.427	4276
901.546	4409
901.665	4512
901.784	4497
901.904	4341
902.023	4356
902.141	4200
902.26	4185
902.379	4318
902.498	4238
902.617	4215
902.735	4348
902.854	4360
902.973	4371
903.091	4230
903.21	4249
903.328	4291
903.446	4276
903.565	4287
903.683	4329
903.801	4272
903.919	4352
904.038	4424
904.156	4306
904.274	4424
904.392	4356
904.51	4432
904.627	4459
904.745	4580
904.863	4603
904.981	4333
905.098	4325
905.216	4325
905.334	4451
905.451	4516
905.569	4478
905.686	4580
905.803	4599
905.921	4421
906.038	4489
906.155	4493
906.272	4386
906.389	4451
906.506	4352
906.623	4394
906.74	4436
906.857	4314
906.974	4379
907.091	4538
907.208	4645
907.324	4596
907.441	4535
907.557	4337
907.674	4303
907.79	4375
907.907	4375
908.023	4481
908.139	4470
908.256	4413
908.372	4455
908.488	4451
908.604	4360
908.72	4303
908.836	4371
908.952	4363
909.068	4440
909.184	4546
909.3	4455
909.415	4565
909.531	4527
909.647	4360
909.762	4386
909.878	4363
909.993	4440
910.108	4398
910.224	4405
910.339	4481
910.454	4375
910.57	4375
910.685	4287
910.8	4615
910.915	4580
911.03	4481
911.145	4291
911.259	4352
911.374	4348
911.489	4227
911.604	4291
911.718	4177
911.833	4177
911.947	4101
912.062	4048
912.176	4207
912.291	4204
912.405	4227
912.519	4459
912.633	4500
912.748	4409
912.862	4287
912.976	4188
913.09	4109
913.204	4181
913.318	4230
913.431	4402
913.545	4348
913.659	4394
913.772	4352
913.886	4200
914	4215
914.113	4333
914.226	4424
914.34	4394
914.453	4227
914.566	4390
914.68	4314
914.793	4318
914.906	4154
915.019	4101
915.132	4097
915.245	4185
915.358	4135
915.47	4215
915.583	4253
915.696	4276
915.809	4367
915.921	4405
916.034	4261
916.146	4261
916.259	4192
916.371	4352
916.483	4329
916.595	4223
916.708	4287
916.82	4284
916.932	4352
917.044	4318
917.156	4375
917.268	4223
917.38	4299
917.491	4249
917.603	4363
917.715	4375
917.826	4402
917.938	4367
918.049	4207
918.161	4375
918.272	4527
918.384	4527
918.495	4443
918.606	4299
918.717	4238
918.828	4341
918.939	4379
919.05	4238
919.161	4333
919.272	4131
919.383	4246
919.494	4497
919.604	4615
919.715	4474
919.826	4375
919.936	4462
920.047	4535
920.157	4485
920.267	4706
920.378	4527
920.488	4527
920.598	4801
920.708	4877
920.818	4767
920.928	4767
921.038	4949
921.148	4953
921.258	4664
921.368	4573
921.477	4535
921.587	4451
921.697	4398
921.806	4554
921.916	4470
922.025	4303
922.134	4306
922.244	4257
922.353	4344
922.462	4230
922.571	4188
922.68	4086
922.789	3991
922.898	4059
923.007	4029
923.116	4162
923.224	4093
923.333	4097
923.442	4071
923.55	4025
923.659	4101
923.767	4124
923.876	4025
923.984	4150
924.092	4044
924.201	4112
924.309	4143
924.417	4150
924.525	4055
924.633	4128
924.741	5113
924.849	3975
924.956	4185
925.064	4006
925.172	3991
925.279	4017
925.387	4059
925.494	4101
925.602	4265
925.709	4268
925.816	4105
925.924	4188
926.031	4280
926.138	4185
926.245	4257
926.352	4169
926.459	4291
926.566	4337
926.673	4166
926.779	4105
926.886	4173
926.993	4032
927.099	3968
927.206	3934
927.312	3972
927.419	4078
927.525	4112
927.631	4128
927.737	3941
927.843	3956
927.95	3892
928.056	3994
928.162	4013
928.267	4082
928.373	4687
928.479	4135
928.585	3934
928.69	4051
928.796	4063
928.901	3987
929.007	3857
929.112	4055
929.218	3998
929.323	3949
929.428	3960
929.533	4139
929.638	3975
929.743	4010
929.848	4082
929.953	4002
930.058	3998
930.163	3819
930.267	3869
930.372	4025
930.477	3816
930.581	4124
930.685	3930
930.79	3861
930.894	3941
930.998	3934
931.103	4093
931.207	3751
931.311	3724
931.415	3713
931.519	3580
931.623	3591
