Data from test_V78500241_2672.txt Node
Date: Fri Mar 25 17:07:34 CST 2022
User: usil
Spectrometer: V785-0024
Trigger mode: 0
Integration Time (sec): 4.000000E-1
Scans to average: 1
Nonlinearity correction enabled: false
Boxcar width: 0
Storing dark spectrum: false
XAxis mode: Wavelengths
Number of Pixels in Spectrum: 1024
>>>>>Begin Spectral Data<<<<<
801.071	8005
801.214	8020
801.356	7917
801.499	7932
801.641	7803
801.783	7837
801.926	7974
802.068	7982
802.211	8020
802.353	7982
802.496	7890
802.638	7906
802.78	7932
802.923	7913
803.065	7906
803.208	7822
803.35	7909
803.492	8081
803.635	8161
803.777	8096
803.919	8138
804.061	8469
804.204	8161
804.346	8043
804.488	7928
804.63	8027
804.773	8035
804.915	8134
805.057	8298
805.199	8187
805.341	8183
805.483	8279
805.626	8240
805.768	8172
805.91	8210
806.052	8221
806.194	8126
806.336	8347
806.478	8111
806.62	8024
806.762	8164
806.904	8252
807.046	8480
807.188	8328
807.33	8244
807.472	8343
807.614	8107
807.756	8164
807.898	8050
808.04	7906
808.182	7909
808.324	7830
808.465	7902
808.607	8081
808.749	8202
808.891	8164
809.033	8309
809.174	8286
809.316	8134
809.458	8065
809.6	7997
809.741	8058
809.883	8058
810.025	8100
810.166	8016
810.308	8054
810.45	7955
810.591	7845
810.733	7753
810.875	7658
811.016	7502
811.158	7495
811.299	7639
811.441	7689
811.582	7700
811.724	7548
811.865	7540
812.007	7571
812.148	7575
812.29	7628
812.431	7750
812.573	7761
812.714	7970
812.855	8126
812.997	8161
813.138	8282
813.279	8164
813.421	8107
813.562	8005
813.703	7871
813.845	7753
813.986	7480
814.127	7377
814.268	7183
814.41	7129
814.551	7145
814.692	7202
814.833	7084
814.974	7061
815.115	7084
815.256	6928
815.397	6882
815.539	6848
815.68	6814
815.821	6776
815.962	6882
816.103	6821
816.244	6715
816.385	6604
816.526	6627
816.666	6578
816.807	6346
816.948	6407
817.089	6536
817.23	6433
817.371	6346
817.512	6357
817.653	6452
817.793	6300
817.934	6388
818.075	6460
818.216	6429
818.356	6448
818.497	6251
818.638	6102
818.778	6114
818.919	6152
819.06	6133
819.2	6338
819.341	6289
819.481	6410
819.622	6566
819.762	6760
819.903	6719
820.043	6601
820.184	6555
820.324	6563
820.465	6711
820.605	6635
820.746	6662
820.886	6540
821.026	6696
821.167	6738
821.307	6867
821.447	6787
821.588	6658
821.728	6604
821.868	6563
822.008	6338
822.149	6334
822.289	6407
822.429	6201
822.569	6140
822.709	6144
822.849	5916
822.99	5935
823.13	5942
823.27	5992
823.41	5866
823.55	5790
823.69	5802
823.83	5809
823.97	5718
824.11	5589
824.25	5524
824.389	5562
824.529	5634
824.669	5619
824.809	5627
824.949	5699
825.089	5634
825.228	5627
825.368	5398
825.508	5414
825.648	5421
825.787	5402
825.927	5402
826.067	5277
826.206	5326
826.346	5383
826.485	5410
826.625	5486
826.765	5638
826.904	5512
827.044	5334
827.183	5208
827.323	5197
827.462	5337
827.601	5181
827.741	5212
827.88	5208
828.02	5159
828.159	5284
828.298	5315
828.437	5395
828.577	5395
828.716	5516
828.855	5357
828.994	5258
829.134	5235
829.273	5235
829.412	5181
829.551	5155
829.69	5227
829.829	5273
829.968	5452
830.107	5269
830.246	5307
830.385	5223
830.524	5174
830.663	5098
830.802	5022
830.941	4946
831.08	4976
831.219	5014
831.357	5022
831.496	5166
831.635	4968
831.774	4877
831.913	4881
832.051	4774
832.19	4801
832.329	4850
832.467	4702
832.606	4641
832.744	4790
832.883	4778
833.022	4733
833.16	4812
833.299	4900
833.437	4866
833.576	4889
833.714	4908
833.852	4904
833.991	4900
834.129	4987
834.267	5010
834.406	4976
834.544	5006
834.682	4976
834.821	4961
834.959	5220
835.097	5052
835.235	5136
835.373	5132
835.511	5132
835.65	5022
835.788	4991
835.926	4980
836.064	4904
836.202	4987
836.34	5201
836.478	5299
836.615	5166
836.753	5216
836.891	5364
837.029	5277
837.167	5273
837.305	5155
837.443	5151
837.58	5113
837.718	5303
837.856	5204
837.993	5170
838.131	5258
838.269	5208
838.406	5280
838.544	5208
838.681	5067
838.819	5064
838.956	4938
839.094	4957
839.231	4980
839.369	5113
839.506	5417
839.643	5277
839.781	5079
839.918	5105
840.055	5121
840.193	5098
840.33	5109
840.467	5181
840.604	5170
840.742	5497
840.879	5060
841.016	5117
841.153	5178
841.29	5398
841.427	5357
841.564	5307
841.701	5372
841.838	5311
841.975	5246
842.112	5296
842.249	5170
842.385	5155
842.522	5421
842.659	5181
842.796	5178
842.933	5189
843.069	5212
843.206	5170
843.343	5360
843.479	5288
843.616	5284
843.752	5109
843.889	5041
844.025	5269
844.162	5105
844.298	5231
844.435	5155
844.571	5064
844.708	5223
844.844	5337
844.98	5353
845.117	5296
845.253	5174
845.389	5109
845.525	5204
845.661	5208
845.798	5041
845.934	5181
846.07	5086
846.206	5204
846.342	5334
846.478	5212
846.614	5067
846.75	5006
846.886	4957
847.022	5159
847.158	5045
847.294	5128
847.429	5083
847.565	5071
847.701	5337
847.837	4850
847.972	4831
848.108	5022
848.244	4995
848.379	4850
848.515	4698
848.65	4771
848.786	4778
848.921	4763
849.057	4904
849.192	4927
849.328	4858
849.463	4877
849.598	4820
849.734	4831
849.869	4698
850.004	4653
850.14	4706
850.275	4645
850.41	4558
850.545	4596
850.68	4637
850.815	4634
850.95	4622
851.085	4858
851.22	4729
851.355	4649
851.49	4637
851.625	4672
851.76	4721
851.895	4637
852.03	4558
852.165	4660
852.299	4717
852.434	4824
852.569	4767
852.703	4771
852.838	4831
852.973	4934
853.107	4904
853.242	4740
853.376	4687
853.511	4626
853.645	4653
853.78	4847
853.914	4721
854.048	4683
854.183	4660
854.317	4702
854.451	4866
854.585	4710
854.72	4702
854.854	4805
854.988	4611
855.122	4660
855.256	4478
855.39	4679
855.524	4820
855.658	4759
855.792	4729
855.926	4755
856.06	4767
856.194	4831
856.327	4729
856.461	4675
856.595	4626
856.729	4618
856.862	4793
856.996	4714
857.13	4759
857.263	4782
857.397	4858
857.53	4717
857.664	4782
857.797	4771
857.931	4801
858.064	4694
858.197	4774
858.331	4706
858.464	4630
858.597	4478
858.731	4649
858.864	4687
858.997	4675
859.13	4679
859.263	4702
859.396	4752
859.529	4580
859.662	4599
859.795	4607
859.928	4656
860.061	4740
860.194	4805
860.327	4660
860.46	4641
860.592	4771
860.725	4797
860.858	4736
860.99	4577
861.123	4584
861.256	4489
861.388	4660
861.521	5471
861.653	4489
861.786	4447
861.918	4516
862.05	4542
862.183	4565
862.315	4577
862.447	4675
862.58	4538
862.712	4459
862.844	4356
862.976	4508
863.108	4459
863.24	4771
863.372	4360
863.504	4409
863.636	4459
863.768	4523
863.9	4455
864.032	4371
864.164	4405
864.296	4500
864.428	4622
864.559	4569
864.691	4561
864.823	4523
864.954	4470
865.086	4478
865.217	4485
865.349	4440
865.48	4443
865.612	4455
865.743	4630
865.875	4489
866.006	4413
866.137	4466
866.269	4455
866.4	4405
866.531	4466
866.662	4474
866.793	4417
866.924	4451
867.055	4558
867.186	4504
867.317	4462
867.448	4398
867.579	4405
867.71	4432
867.841	4348
867.972	4485
868.103	4455
868.233	4440
868.364	4478
868.495	4512
868.625	4706
868.756	4774
868.886	4596
869.017	4660
869.147	4820
869.278	4771
869.408	4725
869.539	4710
869.669	4759
869.799	4679
869.929	4820
870.06	4801
870.19	4938
870.32	4938
870.45	4987
870.58	5079
870.71	5083
870.84	5060
870.97	4961
871.1	4938
871.23	5189
871.36	5159
871.489	5052
871.619	5098
871.749	5109
871.879	5128
872.008	5151
872.138	5045
872.267	5022
872.397	4923
872.526	4881
872.656	4790
872.785	4824
872.915	4991
873.044	5022
873.173	4984
873.303	5003
873.432	4987
873.561	4995
873.69	4927
873.819	4915
873.948	4923
874.077	4847
874.206	4816
874.335	4774
874.464	4930
874.593	5071
874.722	4987
874.851	5143
874.979	5045
875.108	5014
875.237	5010
875.365	4923
875.494	4957
875.623	5006
875.751	4881
875.88	4927
876.008	4987
876.136	5083
876.265	5174
876.393	5349
876.521	5292
876.65	5216
876.778	5208
876.906	5109
877.034	5052
877.162	5014
877.29	5025
877.418	5071
877.546	5086
877.674	5048
877.802	5071
877.93	5033
878.058	4949
878.185	4866
878.313	4972
878.441	4946
878.568	4839
878.696	4877
878.824	4968
878.951	5022
879.079	5136
879.206	5299
879.333	5147
879.461	5010
879.588	5033
879.715	5102
879.842	5220
879.97	5022
880.097	4782
880.224	4778
880.351	4839
880.478	4885
880.605	4828
880.732	4805
880.859	5132
880.986	4953
881.112	4919
881.239	4790
881.366	4702
881.493	4664
881.619	4615
881.746	4672
881.872	4664
881.999	4706
882.125	4729
882.252	4774
882.378	4831
882.505	4984
882.631	4816
882.757	4672
882.883	4729
883.01	4759
883.136	4717
883.262	4592
883.388	4660
883.514	4828
883.64	4915
883.766	4793
883.892	4672
884.018	4740
884.143	4892
884.269	5018
884.395	4714
884.52	4649
884.646	4626
884.772	4561
884.897	4535
885.023	4752
885.148	4782
885.274	4915
885.399	4824
885.524	4694
885.65	4748
885.775	4771
885.9	4733
886.025	4896
886.15	4782
886.275	4710
886.4	4637
886.525	4771
886.65	4710
886.775	4759
886.9	4866
887.025	5037
887.149	4850
887.274	4694
887.399	4622
887.523	4664
887.648	4550
887.773	4569
887.897	4774
888.021	4812
888.146	4683
888.27	4850
888.395	4892
888.519	4828
888.643	4805
888.767	4889
888.891	4668
889.015	4618
889.139	4660
889.263	4554
889.387	4786
889.511	4904
889.635	4854
889.759	4664
889.883	4618
890.006	4797
890.13	4843
890.254	4653
890.377	4683
890.501	4516
890.624	4569
890.748	4702
890.871	4538
890.995	4451
891.118	4394
891.241	4508
891.364	4580
891.488	4637
891.611	4516
891.734	4592
891.857	4641
891.98	4592
892.103	4687
892.226	4580
892.349	4519
892.471	4440
892.594	4535
892.717	4592
892.839	4596
892.962	4577
893.085	4656
893.207	4634
893.33	4474
893.452	4546
893.575	4691
893.697	4615
893.819	4820
893.941	4820
894.064	4801
894.186	4596
894.308	4592
894.43	4721
894.552	4828
894.674	4729
894.796	4565
894.918	4584
895.04	4542
895.161	4717
895.283	4656
895.405	4599
895.526	4645
895.648	4694
895.769	4687
895.891	4755
896.012	4736
896.134	4714
896.255	4675
896.376	4634
896.498	4653
896.619	4679
896.74	4656
896.861	4626
896.982	4942
897.103	5098
897.224	4862
897.345	4721
897.466	4733
897.587	4729
897.708	4828
897.828	4843
897.949	4649
898.07	4596
898.19	4618
898.311	4831
898.431	4653
898.552	4752
898.672	4816
898.792	4835
898.913	4763
899.033	4630
899.153	4508
899.273	4470
899.393	4493
899.513	4554
899.633	4527
899.753	4516
899.873	4535
899.993	4573
900.113	4550
900.232	4626
900.352	4554
900.472	4500
900.591	4398
900.711	4481
900.83	4455
900.95	4592
901.069	4736
901.189	4527
901.308	4451
901.427	4299
901.546	4379
901.665	4478
901.784	4497
901.904	4421
902.023	4329
902.141	4196
902.26	4223
902.379	4276
902.498	4265
902.617	4169
902.735	4375
902.854	4455
902.973	4360
903.091	4246
903.21	4268
903.328	4280
903.446	4314
903.565	4276
903.683	4375
903.801	4246
903.919	4424
904.038	4394
904.156	4352
904.274	4440
904.392	4417
904.51	4481
904.627	4481
904.745	4550
904.863	4637
904.981	4432
905.098	4310
905.216	4348
905.334	4428
905.451	4462
905.569	4451
905.686	4596
905.803	4580
905.921	4421
906.038	4554
906.155	4504
906.272	4402
906.389	4466
906.506	4383
906.623	4402
906.74	4386
906.857	4329
906.974	4409
907.091	4512
907.208	4691
907.324	4584
907.441	4519
907.557	4352
907.674	4352
907.79	4379
907.907	4379
908.023	4489
908.139	4489
908.256	4398
908.372	4504
908.488	4455
908.604	4356
908.72	4325
908.836	4413
908.952	4367
909.068	4481
909.184	4554
909.3	4478
909.415	4580
909.531	4535
909.647	4402
909.762	4356
909.878	4360
909.993	4367
910.108	4451
910.224	4447
910.339	4459
910.454	4409
910.57	4367
910.685	4375
910.8	4656
910.915	4626
911.03	4554
911.145	4325
911.259	4337
911.374	4360
911.489	4329
911.604	4284
911.718	4169
911.833	4204
911.947	4059
912.062	4051
912.176	4207
912.291	4249
912.405	4230
912.519	4504
912.633	4504
912.748	4390
912.862	4341
912.976	4173
913.09	4109
913.204	4158
913.318	4268
913.431	4394
913.545	4402
913.659	4413
913.772	4409
913.886	4230
914	4227
914.113	4367
914.226	4424
914.34	4367
914.453	4181
914.566	4424
914.68	4344
914.793	4314
914.906	4177
915.019	4128
915.132	4105
915.245	4181
915.358	4177
915.47	4242
915.583	4287
915.696	4303
915.809	4447
915.921	4447
916.034	4284
916.146	4223
916.259	4242
916.371	4386
916.483	4360
916.595	4280
916.708	4299
916.82	4280
916.932	4352
917.044	4352
917.156	4314
917.268	4253
917.38	4272
917.491	4257
917.603	4325
917.715	4447
917.826	4405
917.938	4314
918.049	4280
918.161	4421
918.272	4573
918.384	4558
918.495	4440
918.606	4261
918.717	4249
918.828	4417
918.939	4363
919.05	4211
919.161	4356
919.272	4116
919.383	4207
919.494	4455
919.604	4622
919.715	4386
919.826	4402
919.936	4443
920.047	4512
920.157	4516
920.267	4679
920.378	4527
920.488	4478
920.598	4702
920.708	4889
920.818	4771
920.928	4702
921.038	4919
921.148	4923
921.258	4649
921.368	4546
921.477	4519
921.587	4405
921.697	4375
921.806	4554
921.916	4413
922.025	4268
922.134	4284
922.244	4265
922.353	4322
922.462	4211
922.571	4162
922.68	4048
922.789	3972
922.898	4010
923.007	3991
923.116	4097
923.224	4116
923.333	4097
923.442	4002
923.55	3960
923.659	4025
923.767	4150
923.876	4021
923.984	4112
924.092	4002
924.201	4101
924.309	4032
924.417	4147
924.525	4112
924.633	4093
924.741	5052
924.849	3941
924.956	4124
925.064	3972
925.172	3918
925.279	3956
925.387	4090
925.494	4040
925.602	4166
925.709	4192
925.816	4067
925.924	4067
926.031	4268
926.138	4162
926.245	4215
926.352	4071
926.459	4192
926.566	4314
926.673	4200
926.779	4097
926.886	4086
926.993	3975
927.099	3975
927.206	3937
927.312	3937
927.419	4044
927.525	4021
927.631	4082
927.737	3987
927.843	3903
927.95	3880
928.056	3975
928.162	4017
928.267	4093
928.373	4626
928.479	4124
928.585	3884
928.69	4071
928.796	4071
928.901	3941
929.007	3854
929.112	4021
929.218	3987
929.323	3960
929.428	3918
929.533	4135
929.638	3896
929.743	3930
929.848	4063
929.953	3994
930.058	3926
930.163	3808
930.267	3793
930.372	3937
930.477	3835
930.581	4093
930.685	3953
930.79	3808
930.894	3888
930.998	3846
931.103	4036
931.207	3724
931.311	3667
931.415	3641
931.519	3526
931.623	3542
