Data from test_V78500241_2851.txt Node
Date: Fri Mar 25 17:08:49 CST 2022
User: usil
Spectrometer: V785-0024
Trigger mode: 0
Integration Time (sec): 4.000000E-1
Scans to average: 1
Nonlinearity correction enabled: false
Boxcar width: 0
Storing dark spectrum: false
XAxis mode: Wavelengths
Number of Pixels in Spectrum: 1024
>>>>>Begin Spectral Data<<<<<
801.071	8043
801.214	7967
801.356	7860
801.499	7898
801.641	7868
801.783	7887
801.926	8001
802.068	7955
802.211	8046
802.353	7997
802.496	7852
802.638	7944
802.78	7974
802.923	7967
803.065	7887
803.208	7818
803.35	8027
803.492	8161
803.635	8221
803.777	8058
803.919	8229
804.061	8518
804.204	8172
804.346	8069
804.488	7997
804.63	8172
804.773	8073
804.915	8157
805.057	8374
805.199	8176
805.341	8115
805.483	8275
805.626	8225
805.768	8084
805.91	8199
806.052	8240
806.194	8145
806.336	8339
806.478	8180
806.62	8046
806.762	8145
806.904	8233
807.046	8385
807.188	8419
807.33	8404
807.472	8336
807.614	8134
807.756	8134
807.898	8008
808.04	7906
808.182	7856
808.324	7879
808.465	8012
808.607	8065
808.749	8111
808.891	8324
809.033	8339
809.174	8210
809.316	8096
809.458	8149
809.6	7982
809.741	8043
809.883	8069
810.025	8115
810.166	8062
810.308	7959
810.45	7993
810.591	7860
810.733	7776
810.875	7681
811.016	7575
811.158	7571
811.299	7590
811.441	7788
811.582	7677
811.724	7613
811.865	7563
812.007	7544
812.148	7624
812.29	7624
812.431	7830
812.573	7906
812.714	7913
812.855	8138
812.997	8195
813.138	8377
813.279	8199
813.421	8092
813.562	8062
813.703	7826
813.845	7761
813.986	7457
814.127	7278
814.268	7263
814.41	7198
814.551	7156
814.692	7228
814.833	7080
814.974	7118
815.115	7122
815.256	6954
815.397	6954
815.539	6928
815.68	6871
815.821	6783
815.962	6913
816.103	6901
816.244	6798
816.385	6593
816.526	6639
816.666	6525
816.807	6399
816.948	6407
817.089	6521
817.23	6452
817.371	6429
817.512	6391
817.653	6372
817.793	6350
817.934	6429
818.075	6471
818.216	6433
818.356	6429
818.497	6178
818.638	6117
818.778	6171
818.919	6136
819.06	6171
819.2	6315
819.341	6281
819.481	6350
819.622	6604
819.762	6757
819.903	6658
820.043	6639
820.184	6616
820.324	6684
820.465	6684
820.605	6646
820.746	6696
820.886	6513
821.026	6639
821.167	6707
821.307	6787
821.447	6772
821.588	6654
821.728	6593
821.868	6498
822.008	6384
822.149	6372
822.289	6357
822.429	6144
822.569	6148
822.709	6148
822.849	5931
822.99	5942
823.13	5965
823.27	5958
823.41	5828
823.55	5851
823.69	5767
823.83	5786
823.97	5680
824.11	5596
824.25	5554
824.389	5562
824.529	5611
824.669	5600
824.809	5638
824.949	5684
825.089	5554
825.228	5646
825.368	5436
825.508	5337
825.648	5337
825.787	5349
825.927	5387
826.067	5288
826.206	5322
826.346	5395
826.485	5414
826.625	5429
826.765	5554
826.904	5448
827.044	5303
827.183	5254
827.323	5132
827.462	5284
827.601	5189
827.741	5197
827.88	5201
828.02	5124
828.159	5258
828.298	5311
828.437	5315
828.577	5299
828.716	5505
828.855	5315
828.994	5212
829.134	5174
829.273	5235
829.412	5124
829.551	5124
829.69	5201
829.829	5246
829.968	5353
830.107	5277
830.246	5315
830.385	5201
830.524	5136
830.663	5105
830.802	4972
830.941	4870
831.08	4847
831.219	4976
831.357	4999
831.496	5170
831.635	4957
831.774	4862
831.913	4820
832.051	4744
832.19	4767
832.329	4862
832.467	4710
832.606	4698
832.744	4694
832.883	4664
833.022	4729
833.16	4759
833.299	4885
833.437	4881
833.576	4831
833.714	4866
833.852	4862
833.991	4885
834.129	5010
834.267	4984
834.406	4911
834.544	4984
834.682	5052
834.821	4984
834.959	5178
835.097	5033
835.235	5143
835.373	5086
835.511	5121
835.65	5025
835.788	4942
835.926	4900
836.064	4847
836.202	4927
836.34	5185
836.478	5250
836.615	5136
836.753	5174
836.891	5254
837.029	5250
837.167	5193
837.305	5193
837.443	5098
837.58	5151
837.718	5235
837.856	5204
837.993	5185
838.131	5246
838.269	5204
838.406	5231
838.544	5159
838.681	5056
838.819	5029
838.956	4908
839.094	4904
839.231	4987
839.369	5098
839.506	5448
839.643	5273
839.781	5132
839.918	5037
840.055	5128
840.193	5102
840.33	5121
840.467	5124
840.604	5159
840.742	5433
840.879	5109
841.016	5075
841.153	5128
841.29	5357
841.427	5360
841.564	5273
841.701	5349
841.838	5303
841.975	5227
842.112	5288
842.249	5094
842.385	5098
842.522	5357
842.659	5166
842.796	5113
842.933	5166
843.069	5128
843.206	5136
843.343	5326
843.479	5265
843.616	5265
843.752	5014
843.889	4995
844.025	5246
844.162	5037
844.298	5223
844.435	5071
844.571	4999
844.708	5185
844.844	5296
844.98	5334
845.117	5288
845.253	5166
845.389	5121
845.525	5181
845.661	5124
845.798	5025
845.934	5174
846.07	5060
846.206	5227
846.342	5250
846.478	5162
846.614	5052
846.75	4995
846.886	4976
847.022	5204
847.158	5018
847.294	5090
847.429	5083
847.565	5052
847.701	5307
847.837	4858
847.972	4774
848.108	4957
848.244	4927
848.379	4778
848.515	4767
848.65	4706
848.786	4786
848.921	4854
849.057	4870
849.192	4858
849.328	4812
849.463	4847
849.598	4805
849.734	4801
849.869	4725
850.004	4641
850.14	4649
850.275	4611
850.41	4550
850.545	4527
850.68	4580
850.815	4691
850.95	4683
851.085	4839
851.22	4752
851.355	4691
851.49	4649
851.625	4679
851.76	4649
851.895	4531
852.03	4500
852.165	4660
852.299	4683
852.434	4763
852.569	4748
852.703	4774
852.838	4877
852.973	4919
853.107	4949
853.242	4725
853.376	4653
853.511	4538
853.645	4634
853.78	4858
853.914	4710
854.048	4683
854.183	4637
854.317	4683
854.451	4870
854.585	4691
854.72	4660
854.854	4714
854.988	4622
855.122	4634
855.256	4546
855.39	4660
855.524	4759
855.658	4714
855.792	4729
855.926	4763
856.06	4740
856.194	4828
856.327	4717
856.461	4634
856.595	4641
856.729	4641
856.862	4740
856.996	4691
857.13	4710
857.263	4778
857.397	4763
857.53	4660
857.664	4717
857.797	4786
857.931	4767
858.064	4725
858.197	4771
858.331	4653
858.464	4573
858.597	4504
858.731	4645
858.864	4656
858.997	4580
859.13	4679
859.263	4729
859.396	4706
859.529	4592
859.662	4565
859.795	4577
859.928	4596
860.061	4771
860.194	4797
860.327	4615
860.46	4550
860.592	4691
860.725	4733
860.858	4710
860.99	4599
861.123	4573
861.256	4535
861.388	4599
861.521	5433
861.653	4478
861.786	4481
861.918	4459
862.05	4481
862.183	4535
862.315	4634
862.447	4611
862.58	4531
862.712	4379
862.844	4318
862.976	4493
863.108	4489
863.24	4782
863.372	4299
863.504	4478
863.636	4421
863.768	4519
863.9	4451
864.032	4367
864.164	4383
864.296	4489
864.428	4538
864.559	4527
864.691	4519
864.823	4573
864.954	4504
865.086	4527
865.217	4493
865.349	4440
865.48	4497
865.612	4489
865.743	4603
865.875	4440
866.006	4432
866.137	4462
866.269	4413
866.4	4447
866.531	4417
866.662	4375
866.793	4409
866.924	4424
867.055	4497
867.186	4466
867.317	4409
867.448	4413
867.579	4409
867.71	4363
867.841	4356
867.972	4500
868.103	4527
868.233	4421
868.364	4462
868.495	4481
868.625	4687
868.756	4752
868.886	4596
869.017	4622
869.147	4778
869.278	4759
869.408	4641
869.539	4637
869.669	4733
869.799	4706
869.929	4733
870.06	4714
870.19	4946
870.32	4873
870.45	4965
870.58	4976
870.71	5102
870.84	5105
870.97	4904
871.1	4900
871.23	5113
871.36	5140
871.489	5037
871.619	5105
871.749	5109
871.879	5090
872.008	5185
872.138	5105
872.267	5018
872.397	4839
872.526	4778
872.656	4733
872.785	4885
872.915	4957
873.044	5067
873.173	4965
873.303	4957
873.432	4991
873.561	4938
873.69	4847
873.819	4854
873.948	4930
874.077	4854
874.206	4755
874.335	4828
874.464	4904
874.593	5098
874.722	4991
874.851	5064
874.979	5029
875.108	4980
875.237	4885
875.365	4835
875.494	4873
875.623	4995
875.751	4839
875.88	4942
876.008	4968
876.136	4987
876.265	5212
876.393	5341
876.521	5181
876.65	5239
876.778	5189
876.906	5052
877.034	5064
877.162	5003
877.29	5010
877.418	5090
877.546	5056
877.674	5098
877.802	5022
877.93	5006
878.058	4968
878.185	4911
878.313	4934
878.441	4995
878.568	4843
878.696	4911
878.824	5037
878.951	4953
879.079	5151
879.206	5318
879.333	5075
879.461	4999
879.588	5010
879.715	5170
879.842	5204
879.97	4999
880.097	4809
880.224	4790
880.351	4816
880.478	4778
880.605	4809
880.732	4710
880.859	5086
880.986	4881
881.112	4877
881.239	4797
881.366	4660
881.493	4626
881.619	4603
881.746	4603
881.872	4668
881.999	4641
882.125	4702
882.252	4816
882.378	4771
882.505	5003
882.631	4767
882.757	4656
882.883	4774
883.01	4748
883.136	4649
883.262	4561
883.388	4558
883.514	4793
883.64	4862
883.766	4816
883.892	4664
884.018	4748
884.143	4870
884.269	4976
884.395	4691
884.52	4653
884.646	4577
884.772	4573
884.897	4630
885.023	4675
885.148	4805
885.274	4911
885.399	4854
885.524	4702
885.65	4706
885.775	4778
885.9	4748
886.025	4828
886.15	4733
886.275	4698
886.4	4664
886.525	4679
886.65	4733
886.775	4679
886.9	4915
887.025	5075
887.149	4824
887.274	4618
887.399	4596
887.523	4660
887.648	4580
887.773	4580
887.897	4767
888.021	4793
888.146	4733
888.27	4866
888.395	4911
888.519	4816
888.643	4778
888.767	4858
888.891	4691
889.015	4641
889.139	4660
889.263	4592
889.387	4763
889.511	4847
889.635	4725
889.759	4645
889.883	4656
890.006	4763
890.13	4812
890.254	4672
890.377	4687
890.501	4538
890.624	4527
890.748	4660
890.871	4493
890.995	4409
891.118	4405
891.241	4531
891.364	4592
891.488	4630
891.611	4523
891.734	4550
891.857	4596
891.98	4573
892.103	4622
892.226	4588
892.349	4489
892.471	4424
892.594	4523
892.717	4653
892.839	4577
892.962	4592
893.085	4660
893.207	4630
893.33	4500
893.452	4546
893.575	4637
893.697	4611
893.819	4801
893.941	4870
894.064	4759
894.186	4512
894.308	4565
894.43	4721
894.552	4824
894.674	4786
894.796	4561
894.918	4569
895.04	4561
895.161	4683
895.283	4637
895.405	4550
895.526	4668
895.648	4675
895.769	4683
895.891	4702
896.012	4740
896.134	4706
896.255	4679
896.376	4630
896.498	4607
896.619	4653
896.74	4611
896.861	4611
896.982	4892
897.103	5064
897.224	4870
897.345	4748
897.466	4672
897.587	4740
897.708	4850
897.828	4793
897.949	4656
898.07	4558
898.19	4603
898.311	4850
898.431	4691
898.552	4694
898.672	4820
898.792	4809
898.913	4706
899.033	4630
899.153	4478
899.273	4417
899.393	4459
899.513	4500
899.633	4580
899.753	4504
899.873	4516
899.993	4577
900.113	4538
900.232	4527
900.352	4550
900.472	4493
900.591	4405
900.711	4497
900.83	4398
900.95	4630
901.069	4660
901.189	4523
901.308	4398
901.427	4291
901.546	4333
901.665	4478
901.784	4504
901.904	4402
902.023	4303
902.141	4173
902.26	4177
902.379	4291
902.498	4234
902.617	4223
902.735	4371
902.854	4421
902.973	4325
903.091	4207
903.21	4223
903.328	4306
903.446	4242
903.565	4223
903.683	4375
903.801	4280
903.919	4375
904.038	4447
904.156	4367
904.274	4432
904.392	4417
904.51	4402
904.627	4421
904.745	4561
904.863	4630
904.981	4390
905.098	4242
905.216	4379
905.334	4432
905.451	4432
905.569	4417
905.686	4607
905.803	4561
905.921	4421
906.038	4554
906.155	4474
906.272	4363
906.389	4443
906.506	4348
906.623	4405
906.74	4363
906.857	4280
906.974	4333
907.091	4588
907.208	4653
907.324	4611
907.441	4508
907.557	4375
907.674	4348
907.79	4303
907.907	4386
908.023	4474
908.139	4497
908.256	4440
908.372	4466
908.488	4497
908.604	4322
908.72	4303
908.836	4333
908.952	4379
909.068	4436
909.184	4550
909.3	4481
909.415	4573
909.531	4542
909.647	4348
909.762	4394
909.878	4341
909.993	4440
910.108	4413
910.224	4421
910.339	4481
910.454	4386
910.57	4337
910.685	4325
910.8	4675
910.915	4588
911.03	4470
911.145	4367
911.259	4306
911.374	4402
911.489	4284
911.604	4272
911.718	4188
911.833	4188
911.947	4105
912.062	4025
912.176	4188
912.291	4196
912.405	4280
912.519	4428
912.633	4489
912.748	4348
912.862	4287
912.976	4219
913.09	4086
913.204	4131
913.318	4265
913.431	4390
913.545	4375
913.659	4428
913.772	4348
913.886	4280
914	4272
914.113	4417
914.226	4470
914.34	4386
914.453	4249
914.566	4432
914.68	4295
914.793	4363
914.906	4154
915.019	4139
915.132	4093
915.245	4158
915.358	4166
915.47	4200
915.583	4242
915.696	4257
915.809	4409
915.921	4390
916.034	4265
916.146	4261
916.259	4162
916.371	4352
916.483	4394
916.595	4261
916.708	4360
916.82	4333
916.932	4287
917.044	4322
917.156	4325
917.268	4272
917.38	4249
917.491	4265
917.603	4287
917.715	4398
917.826	4409
917.938	4344
918.049	4265
918.161	4356
918.272	4554
918.384	4561
918.495	4451
918.606	4325
918.717	4261
918.828	4341
918.939	4386
919.05	4314
919.161	4280
919.272	4147
919.383	4223
919.494	4462
919.604	4645
919.715	4409
919.826	4383
919.936	4390
920.047	4561
920.157	4466
920.267	4706
920.378	4558
920.488	4481
920.598	4710
920.708	4809
920.818	4755
920.928	4740
921.038	5014
921.148	4904
921.258	4607
921.368	4573
921.477	4451
921.587	4481
921.697	4394
921.806	4558
921.916	4466
922.025	4268
922.134	4265
922.244	4242
922.353	4322
922.462	4143
922.571	4139
922.68	4010
922.789	3972
922.898	4036
923.007	4044
923.116	4086
923.224	4101
923.333	4051
923.442	3960
923.55	3975
923.659	4006
923.767	4131
923.876	3979
923.984	4067
924.092	3964
924.201	4048
924.309	4071
924.417	4135
924.525	4040
924.633	4101
924.741	4889
924.849	3911
924.956	4101
925.064	3945
925.172	3888
925.279	3979
925.387	4078
925.494	4044
925.602	4234
925.709	4169
925.816	4090
925.924	4131
926.031	4185
926.138	4173
926.245	4169
926.352	4128
926.459	4276
926.566	4295
926.673	4162
926.779	4082
926.886	4059
926.993	3918
927.099	3975
927.206	3930
927.312	3941
927.419	4002
927.525	4055
927.631	4109
927.737	3994
927.843	3930
927.95	3850
928.056	3975
928.162	3991
928.267	4093
928.373	4558
928.479	4143
928.585	3892
928.69	4013
928.796	4071
928.901	3956
929.007	3876
929.112	3960
929.218	3960
929.323	3926
929.428	3983
929.533	4059
929.638	3937
929.743	3979
929.848	4040
929.953	3983
930.058	3945
930.163	3774
930.267	3816
930.372	3998
930.477	3785
930.581	4116
930.685	3949
930.79	3827
930.894	3896
930.998	3873
931.103	4048
931.207	3701
931.311	3667
931.415	3652
931.519	3530
931.623	3530
