Data from test_V78500241_897.txt Node
Date: Fri Mar 25 16:55:14 CST 2022
User: usil
Spectrometer: V785-0024
Trigger mode: 0
Integration Time (sec): 4.000000E-1
Scans to average: 1
Nonlinearity correction enabled: false
Boxcar width: 0
Storing dark spectrum: false
XAxis mode: Wavelengths
Number of Pixels in Spectrum: 1024
>>>>>Begin Spectral Data<<<<<
801.071	8027
801.214	8020
801.356	7883
801.499	7860
801.641	7761
801.783	7792
801.926	7906
802.068	7959
802.211	7955
802.353	7909
802.496	7818
802.638	7780
802.78	7898
802.923	7860
803.065	7845
803.208	7917
803.35	8035
803.492	8153
803.635	8142
803.777	8012
803.919	8126
804.061	8423
804.204	8126
804.346	8062
804.488	7921
804.63	8115
804.773	8054
804.915	8077
805.057	8313
805.199	8161
805.341	8214
805.483	8286
805.626	8126
805.768	8145
805.91	8191
806.052	8191
806.194	8077
806.336	8256
806.478	8096
806.62	8081
806.762	8157
806.904	8290
807.046	8526
807.188	8377
807.33	8358
807.472	8355
807.614	8180
807.756	8134
807.898	8054
808.04	7921
808.182	7860
808.324	7909
808.465	7963
808.607	7970
808.749	8092
808.891	8240
809.033	8355
809.174	8199
809.316	8077
809.458	8065
809.6	8039
809.741	7993
809.883	8069
810.025	8145
810.166	8046
810.308	8084
810.45	8103
810.591	7978
810.733	7788
810.875	7677
811.016	7510
811.158	7495
811.299	7616
811.441	7795
811.582	7727
811.724	7655
811.865	7586
812.007	7616
812.148	7559
812.29	7689
812.431	7795
812.573	7864
812.714	7913
812.855	8062
812.997	8214
813.138	8290
813.279	8271
813.421	8062
813.562	8039
813.703	7871
813.845	7776
813.986	7521
814.127	7270
814.268	7266
814.41	7278
814.551	7152
814.692	7190
814.833	6966
814.974	7122
815.115	7091
815.256	6973
815.397	6966
815.539	6989
815.68	6905
815.821	6844
815.962	6901
816.103	6852
816.244	6806
816.385	6684
816.526	6631
816.666	6555
816.807	6380
816.948	6456
817.089	6509
817.23	6490
817.371	6410
817.512	6384
817.653	6399
817.793	6399
817.934	6433
818.075	6445
818.216	6456
818.356	6429
818.497	6235
818.638	6125
818.778	6140
818.919	6117
819.06	6148
819.2	6315
819.341	6372
819.481	6380
819.622	6559
819.762	6734
819.903	6772
820.043	6650
820.184	6593
820.324	6612
820.465	6681
820.605	6673
820.746	6642
820.886	6486
821.026	6658
821.167	6722
821.307	6814
821.447	6726
821.588	6677
821.728	6566
821.868	6475
822.008	6331
822.149	6365
822.289	6372
822.429	6125
822.569	6114
822.709	6159
822.849	5916
822.99	5855
823.13	5950
823.27	5927
823.41	5802
823.55	5767
823.69	5764
823.83	5832
823.97	5703
824.11	5528
824.25	5543
824.389	5562
824.529	5619
824.669	5596
824.809	5627
824.949	5714
825.089	5615
825.228	5554
825.368	5455
825.508	5326
825.648	5364
825.787	5410
825.927	5376
826.067	5318
826.206	5303
826.346	5383
826.485	5368
826.625	5368
826.765	5535
826.904	5528
827.044	5273
827.183	5261
827.323	5128
827.462	5254
827.601	5227
827.741	5162
827.88	5220
828.02	5155
828.159	5250
828.298	5307
828.437	5368
828.577	5318
828.716	5501
828.855	5360
828.994	5197
829.134	5155
829.273	5185
829.412	5197
829.551	5159
829.69	5159
829.829	5280
829.968	5440
830.107	5292
830.246	5280
830.385	5185
830.524	5162
830.663	5102
830.802	4946
830.941	4858
831.08	4847
831.219	5037
831.357	4984
831.496	5143
831.635	4946
831.774	4831
831.913	4885
832.051	4786
832.19	4748
832.329	4889
832.467	4687
832.606	4615
832.744	4710
832.883	4755
833.022	4733
833.16	4786
833.299	4797
833.437	4828
833.576	4839
833.714	4877
833.852	4862
833.991	4877
834.129	5025
834.267	4965
834.406	4938
834.544	4984
834.682	4991
834.821	4961
834.959	5159
835.097	4991
835.235	5189
835.373	5147
835.511	5113
835.65	5014
835.788	4976
835.926	4942
836.064	4896
836.202	4961
836.34	5162
836.478	5227
836.615	5181
836.753	5239
836.891	5360
837.029	5261
837.167	5261
837.305	5178
837.443	5201
837.58	5105
837.718	5261
837.856	5235
837.993	5212
838.131	5235
838.269	5284
838.406	5212
838.544	5212
838.681	5014
838.819	5018
838.956	4908
839.094	4972
839.231	5022
839.369	5109
839.506	5463
839.643	5273
839.781	5064
839.918	5045
840.055	5056
840.193	5151
840.33	5151
840.467	5170
840.604	5242
840.742	5448
840.879	5117
841.016	5128
841.153	5220
841.29	5414
841.427	5372
841.564	5326
841.701	5368
841.838	5296
841.975	5246
842.112	5284
842.249	5181
842.385	5102
842.522	5341
842.659	5242
842.796	5193
842.933	5204
843.069	5193
843.206	5201
843.343	5322
843.479	5273
843.616	5242
843.752	5056
843.889	5018
844.025	5223
844.162	4991
844.298	5242
844.435	5102
844.571	5086
844.708	5220
844.844	5334
844.98	5337
845.117	5273
845.253	5102
845.389	5121
845.525	5140
845.661	5113
845.798	5048
845.934	5128
846.07	5025
846.206	5178
846.342	5265
846.478	5162
846.614	5041
846.75	4999
846.886	4949
847.022	5094
847.158	5056
847.294	5048
847.429	5113
847.565	5090
847.701	5269
847.837	4896
847.972	4816
848.108	5022
848.244	4968
848.379	4831
848.515	4774
848.65	4687
848.786	4767
848.921	4820
849.057	4816
849.192	4904
849.328	4843
849.463	4828
849.598	4774
849.734	4778
849.869	4717
850.004	4588
850.14	4691
850.275	4626
850.41	4573
850.545	4577
850.68	4580
850.815	4603
850.95	4675
851.085	4881
851.22	4740
851.355	4634
851.49	4675
851.625	4622
851.76	4649
851.895	4565
852.03	4561
852.165	4626
852.299	4694
852.434	4778
852.569	4778
852.703	4778
852.838	4843
852.973	4870
853.107	4923
853.242	4740
853.376	4645
853.511	4542
853.645	4660
853.78	4816
853.914	4710
854.048	4675
854.183	4630
854.317	4755
854.451	4850
854.585	4698
854.72	4653
854.854	4744
854.988	4634
855.122	4615
855.256	4546
855.39	4649
855.524	4793
855.658	4721
855.792	4691
855.926	4679
856.06	4763
856.194	4801
856.327	4675
856.461	4565
856.595	4618
856.729	4603
856.862	4759
856.996	4717
857.13	4763
857.263	4725
857.397	4786
857.53	4645
857.664	4820
857.797	4759
857.931	4816
858.064	4691
858.197	4786
858.331	4637
858.464	4588
858.597	4538
858.731	4649
858.864	4675
858.997	4561
859.13	4694
859.263	4683
859.396	4694
859.529	4603
859.662	4558
859.795	4565
859.928	4702
860.061	4721
860.194	4748
860.327	4584
860.46	4660
860.592	4710
860.725	4691
860.858	4721
860.99	4580
861.123	4546
861.256	4580
861.388	4691
861.521	5174
861.653	4516
861.786	4413
861.918	4451
862.05	4519
862.183	4588
862.315	4565
862.447	4660
862.58	4596
862.712	4398
862.844	4318
862.976	4497
863.108	4451
863.24	4767
863.372	4356
863.504	4409
863.636	4405
863.768	4470
863.9	4440
864.032	4417
864.164	4440
864.296	4470
864.428	4500
864.559	4561
864.691	4554
864.823	4481
864.954	4497
865.086	4599
865.217	4474
865.349	4383
865.48	4447
865.612	4470
865.743	4580
865.875	4466
866.006	4443
866.137	4546
866.269	4485
866.4	4421
866.531	4440
866.662	4413
866.793	4409
866.924	4405
867.055	4546
867.186	4409
867.317	4440
867.448	4371
867.579	4402
867.71	4375
867.841	4383
867.972	4443
868.103	4474
868.233	4478
868.364	4428
868.495	4478
868.625	4702
868.756	4763
868.886	4607
869.017	4622
869.147	4759
869.278	4790
869.408	4569
869.539	4599
869.669	4721
869.799	4649
869.929	4752
870.06	4691
870.19	4953
870.32	4919
870.45	4923
870.58	5033
870.71	5060
870.84	5071
870.97	4972
871.1	4900
871.23	5121
871.36	5022
871.489	4999
871.619	5086
871.749	5083
871.879	5121
872.008	5159
872.138	5098
872.267	4957
872.397	4866
872.526	4816
872.656	4675
872.785	4809
872.915	4923
873.044	5010
873.173	4923
873.303	4946
873.432	4976
873.561	4987
873.69	4892
873.819	4831
873.948	4892
874.077	4816
874.206	4752
874.335	4782
874.464	4904
874.593	5064
874.722	4946
874.851	5094
874.979	5052
875.108	5014
875.237	4904
875.365	4793
875.494	4828
875.623	4987
875.751	4797
875.88	4904
876.008	4968
876.136	5041
876.265	5166
876.393	5303
876.521	5242
876.65	5220
876.778	5185
876.906	5090
877.034	4953
877.162	4984
877.29	4976
877.418	5048
877.546	5060
877.674	5029
877.802	5037
877.93	4991
878.058	4942
878.185	4866
878.313	4968
878.441	4949
878.568	4816
878.696	4896
878.824	4938
878.951	4980
879.079	5117
879.206	5322
879.333	5094
879.461	4995
879.588	4987
879.715	5045
879.842	5250
879.97	5045
880.097	4835
880.224	4801
880.351	4866
880.478	4812
880.605	4809
880.732	4843
880.859	5178
880.986	4927
881.112	4873
881.239	4793
881.366	4744
881.493	4607
881.619	4626
881.746	4683
881.872	4675
881.999	4672
882.125	4717
882.252	4809
882.378	4850
882.505	4930
882.631	4870
882.757	4755
882.883	4763
883.01	4801
883.136	4725
883.262	4634
883.388	4694
883.514	4847
883.64	4938
883.766	4816
883.892	4740
884.018	4733
884.143	4900
884.269	5052
884.395	4733
884.52	4706
884.646	4668
884.772	4618
884.897	4622
885.023	4706
885.148	4835
885.274	4877
885.399	4828
885.524	4736
885.65	4733
885.775	4771
885.9	4782
886.025	4904
886.15	4790
886.275	4759
886.4	4694
886.525	4763
886.65	4740
886.775	4782
886.9	4908
887.025	5041
887.149	4790
887.274	4668
887.399	4634
887.523	4664
887.648	4618
887.773	4607
887.897	4782
888.021	4786
888.146	4740
888.27	4835
888.395	4965
888.519	4812
888.643	4873
888.767	4824
888.891	4691
889.015	4622
889.139	4649
889.263	4660
889.387	4812
889.511	4889
889.635	4793
889.759	4691
889.883	4622
890.006	4752
890.13	4866
890.254	4611
890.377	4748
890.501	4626
890.624	4580
890.748	4660
890.871	4527
890.995	4481
891.118	4451
891.241	4538
891.364	4588
891.488	4672
891.611	4565
891.734	4577
891.857	4691
891.98	4580
892.103	4653
892.226	4603
892.349	4561
892.471	4424
892.594	4588
892.717	4645
892.839	4565
892.962	4668
893.085	4656
893.207	4675
893.33	4500
893.452	4516
893.575	4702
893.697	4626
893.819	4801
893.941	4831
894.064	4831
894.186	4599
894.308	4603
894.43	4778
894.552	4862
894.674	4755
894.796	4641
894.918	4645
895.04	4607
895.161	4763
895.283	4668
895.405	4656
895.526	4637
895.648	4759
895.769	4725
895.891	4793
896.012	4771
896.134	4752
896.255	4714
896.376	4660
896.498	4691
896.619	4721
896.74	4660
896.861	4675
896.982	4991
897.103	5090
897.224	4828
897.345	4809
897.466	4702
897.587	4729
897.708	4873
897.828	4790
897.949	4634
898.07	4592
898.19	4660
898.311	4839
898.431	4691
898.552	4809
898.672	4828
898.792	4805
898.913	4786
899.033	4656
899.153	4577
899.273	4459
899.393	4550
899.513	4603
899.633	4592
899.753	4569
899.873	4550
899.993	4626
900.113	4607
900.232	4618
900.352	4584
900.472	4485
900.591	4455
900.711	4527
900.83	4466
900.95	4630
901.069	4672
901.189	4542
901.308	4436
901.427	4333
901.546	4413
901.665	4478
901.784	4523
901.904	4451
902.023	4352
902.141	4192
902.26	4188
902.379	4333
902.498	4242
902.617	4253
902.735	4379
902.854	4440
902.973	4375
903.091	4276
903.21	4257
903.328	4344
903.446	4306
903.565	4314
903.683	4348
903.801	4337
903.919	4462
904.038	4462
904.156	4348
904.274	4497
904.392	4383
904.51	4413
904.627	4462
904.745	4577
904.863	4622
904.981	4428
905.098	4352
905.216	4360
905.334	4398
905.451	4462
905.569	4504
905.686	4554
905.803	4580
905.921	4447
906.038	4538
906.155	4470
906.272	4409
906.389	4508
906.506	4329
906.623	4432
906.74	4432
906.857	4322
906.974	4405
907.091	4577
907.208	4702
907.324	4599
907.441	4508
907.557	4379
907.674	4352
907.79	4371
907.907	4424
908.023	4447
908.139	4500
908.256	4451
908.372	4474
908.488	4489
908.604	4386
908.72	4409
908.836	4402
908.952	4390
909.068	4428
909.184	4561
909.3	4531
909.415	4561
909.531	4580
909.647	4360
909.762	4413
909.878	4337
909.993	4447
910.108	4443
910.224	4451
910.339	4493
910.454	4413
910.57	4394
910.685	4341
910.8	4615
910.915	4569
911.03	4497
911.145	4329
911.259	4367
911.374	4386
911.489	4337
911.604	4276
911.718	4219
911.833	4242
911.947	4097
912.062	4059
912.176	4223
912.291	4257
912.405	4242
912.519	4459
912.633	4489
912.748	4394
912.862	4344
912.976	4230
913.09	4124
913.204	4188
913.318	4265
913.431	4398
913.545	4394
913.659	4455
913.772	4352
913.886	4318
914	4261
914.113	4402
914.226	4478
914.34	4421
914.453	4276
914.566	4451
914.68	4337
914.793	4337
914.906	4169
915.019	4097
915.132	4078
915.245	4192
915.358	4253
915.47	4246
915.583	4276
915.696	4268
915.809	4455
915.921	4447
916.034	4276
916.146	4265
916.259	4249
916.371	4386
916.483	4379
916.595	4253
916.708	4325
916.82	4344
916.932	4348
917.044	4280
917.156	4352
917.268	4272
917.38	4314
917.491	4291
917.603	4363
917.715	4409
917.826	4478
917.938	4386
918.049	4238
918.161	4383
918.272	4577
918.384	4554
918.495	4500
918.606	4333
918.717	4261
918.828	4341
918.939	4371
919.05	4276
919.161	4333
919.272	4147
919.383	4204
919.494	4485
919.604	4626
919.715	4451
919.826	4341
919.936	4421
920.047	4538
920.157	4497
920.267	4721
920.378	4531
920.488	4554
920.598	4725
920.708	4896
920.818	4755
920.928	4763
921.038	4919
921.148	4881
921.258	4656
921.368	4565
921.477	4519
921.587	4447
921.697	4417
921.806	4538
921.916	4466
922.025	4322
922.134	4322
922.244	4249
922.353	4375
922.462	4200
922.571	4162
922.68	3972
922.789	4029
922.898	4051
923.007	4017
923.116	4135
923.224	4021
923.333	4116
923.442	3998
923.55	3983
923.659	4010
923.767	4090
923.876	4013
923.984	4169
924.092	3960
924.201	4128
924.309	4143
924.417	4116
924.525	4093
924.633	4143
924.741	4942
924.849	3960
924.956	4173
925.064	3975
925.172	3918
925.279	3991
925.387	4067
925.494	4067
925.602	4219
925.709	4204
925.816	4101
925.924	4166
926.031	4219
926.138	4185
926.245	4227
926.352	4131
926.459	4280
926.566	4341
926.673	4150
926.779	4093
926.886	4112
926.993	3998
927.099	4002
927.206	3960
927.312	4044
927.419	4063
927.525	4017
927.631	4131
927.737	3975
927.843	3934
927.95	3876
928.056	3949
928.162	3964
928.267	4059
928.373	4569
928.479	4147
928.585	3827
928.69	3987
928.796	4082
928.901	3987
929.007	3850
929.112	4025
929.218	3987
929.323	3979
929.428	4013
929.533	4143
929.638	3930
929.743	3960
929.848	4040
929.953	4010
930.058	3953
930.163	3804
930.267	3857
930.372	3975
930.477	3808
930.581	4093
930.685	3987
930.79	3888
930.894	3907
930.998	3846
931.103	4017
931.207	3694
931.311	3713
931.415	3717
931.519	3561
931.623	3568
