Data from test_V78500241_10.txt Node
Date: Fri Mar 25 16:49:04 CST 2022
User: usil
Spectrometer: V785-0024
Trigger mode: 0
Integration Time (sec): 4.000000E-1
Scans to average: 1
Nonlinearity correction enabled: false
Boxcar width: 0
Storing dark spectrum: false
XAxis mode: Wavelengths
Number of Pixels in Spectrum: 1024
>>>>>Begin Spectral Data<<<<<
801.071	8096
801.214	8050
801.356	7917
801.499	7944
801.641	7856
801.783	7833
801.926	8024
802.068	7963
802.211	8062
802.353	8092
802.496	7925
802.638	7913
802.78	7951
802.923	7993
803.065	7913
803.208	7890
803.35	8062
803.492	8084
803.635	8161
803.777	8084
803.919	8161
804.061	8457
804.204	8145
804.346	7997
804.488	8005
804.63	8145
804.773	7970
804.915	8115
805.057	8244
805.199	8244
805.341	8221
805.483	8305
805.626	8210
805.768	8199
805.91	8240
806.052	8210
806.194	8210
806.336	8282
806.478	8130
806.62	8115
806.762	8164
806.904	8229
807.046	8556
807.188	8385
807.33	8370
807.472	8248
807.614	8195
807.756	8191
807.898	8001
808.04	7868
808.182	8043
808.324	7921
808.465	7997
808.607	8100
808.749	8103
808.891	8206
809.033	8271
809.174	8199
809.316	8107
809.458	8168
809.6	8005
809.741	8027
809.883	8012
810.025	8088
810.166	8103
810.308	8138
810.45	8142
810.591	7928
810.733	7860
810.875	7769
811.016	7597
811.158	7586
811.299	7655
811.441	7818
811.582	7750
811.724	7556
811.865	7727
812.007	7620
812.148	7624
812.29	7624
812.431	7723
812.573	7898
812.714	7963
812.855	8138
812.997	8229
813.138	8328
813.279	8252
813.421	8183
813.562	8050
813.703	7902
813.845	7765
813.986	7480
814.127	7270
814.268	7297
814.41	7251
814.551	7168
814.692	7240
814.833	7168
814.974	7129
815.115	7126
815.256	7023
815.397	6920
815.539	6958
815.68	6856
815.821	6818
815.962	6932
816.103	6905
816.244	6779
816.385	6665
816.526	6639
816.666	6532
816.807	6357
816.948	6483
817.089	6490
817.23	6486
817.371	6414
817.512	6391
817.653	6426
817.793	6346
817.934	6525
818.075	6483
818.216	6475
818.356	6464
818.497	6281
818.638	6167
818.778	6220
818.919	6178
819.06	6205
819.2	6315
819.341	6327
819.481	6407
819.622	6646
819.762	6798
819.903	6734
820.043	6662
820.184	6711
820.324	6658
820.465	6681
820.605	6757
820.746	6688
820.886	6547
821.026	6707
821.167	6810
821.307	6897
821.447	6745
821.588	6719
821.728	6631
821.868	6551
822.008	6353
822.149	6418
822.289	6407
822.429	6194
822.569	6159
822.709	6148
822.849	5977
822.99	5931
823.13	5954
823.27	5912
823.41	5840
823.55	5832
823.69	5851
823.83	5836
823.97	5798
824.11	5653
824.25	5585
824.389	5642
824.529	5665
824.669	5570
824.809	5737
824.949	5718
825.089	5665
825.228	5600
825.368	5421
825.508	5433
825.648	5448
825.787	5395
825.927	5406
826.067	5364
826.206	5318
826.346	5398
826.485	5452
826.625	5478
826.765	5627
826.904	5573
827.044	5284
827.183	5208
827.323	5201
827.462	5273
827.601	5235
827.741	5265
827.88	5250
828.02	5143
828.159	5277
828.298	5307
828.437	5406
828.577	5311
828.716	5547
828.855	5364
828.994	5216
829.134	5223
829.273	5208
829.412	5162
829.551	5162
829.69	5185
829.829	5326
829.968	5402
830.107	5330
830.246	5349
830.385	5235
830.524	5231
830.663	5155
830.802	4995
830.941	4930
831.08	4942
831.219	5037
831.357	5010
831.496	5159
831.635	4976
831.774	4908
831.913	4923
832.051	4752
832.19	4812
832.329	4885
832.467	4763
832.606	4645
832.744	4767
832.883	4729
833.022	4755
833.16	4843
833.299	4866
833.437	4877
833.576	4877
833.714	4866
833.852	4911
833.991	4965
834.129	4991
834.267	4961
834.406	4930
834.544	5056
834.682	5052
834.821	4995
834.959	5185
835.097	5052
835.235	5220
835.373	5121
835.511	5159
835.65	5079
835.788	5102
835.926	4949
836.064	4896
836.202	4972
836.34	5277
836.478	5277
836.615	5170
836.753	5277
836.891	5315
837.029	5307
837.167	5231
837.305	5166
837.443	5212
837.58	5075
837.718	5299
837.856	5246
837.993	5170
838.131	5277
838.269	5303
838.406	5261
838.544	5223
838.681	5113
838.819	5018
838.956	4927
839.094	4968
839.231	4984
839.369	5140
839.506	5497
839.643	5311
839.781	5113
839.918	5048
840.055	5128
840.193	5128
840.33	5170
840.467	5197
840.604	5242
840.742	5452
840.879	5098
841.016	5102
841.153	5208
841.29	5406
841.427	5417
841.564	5376
841.701	5383
841.838	5307
841.975	5299
842.112	5315
842.249	5185
842.385	5136
842.522	5391
842.659	5193
842.796	5155
842.933	5246
843.069	5132
843.206	5223
843.343	5353
843.479	5246
843.616	5299
843.752	5075
843.889	5025
844.025	5280
844.162	5102
844.298	5220
844.435	5136
844.571	5090
844.708	5250
844.844	5330
844.98	5337
845.117	5353
845.253	5216
845.389	5128
845.525	5162
845.661	5212
845.798	5094
845.934	5181
846.07	5113
846.206	5269
846.342	5383
846.478	5204
846.614	5067
846.75	5037
846.886	4995
847.022	5128
847.158	5086
847.294	5075
847.429	5178
847.565	5124
847.701	5357
847.837	4938
847.972	4839
848.108	5029
848.244	5018
848.379	4835
848.515	4786
848.65	4755
848.786	4801
848.921	4828
849.057	4896
849.192	4927
849.328	4873
849.463	4889
849.598	4839
849.734	4786
849.869	4755
850.004	4687
850.14	4668
850.275	4634
850.41	4561
850.545	4649
850.68	4634
850.815	4630
850.95	4687
851.085	4885
851.22	4839
851.355	4729
851.49	4637
851.625	4656
851.76	4664
851.895	4615
852.03	4577
852.165	4736
852.299	4767
852.434	4831
852.569	4771
852.703	4797
852.838	4862
852.973	4995
853.107	5045
853.242	4790
853.376	4733
853.511	4615
853.645	4691
853.78	4812
853.914	4759
854.048	4698
854.183	4694
854.317	4790
854.451	4847
854.585	4714
854.72	4664
854.854	4774
854.988	4645
855.122	4637
855.256	4573
855.39	4710
855.524	4797
855.658	4752
855.792	4755
855.926	4736
856.06	4805
856.194	4858
856.327	4736
856.461	4645
856.595	4675
856.729	4702
856.862	4805
856.996	4710
857.13	4767
857.263	4835
857.397	4824
857.53	4702
857.664	4755
857.797	4805
857.931	4809
858.064	4710
858.197	4786
858.331	4744
858.464	4645
858.597	4577
858.731	4618
858.864	4683
858.997	4607
859.13	4702
859.263	4710
859.396	4774
859.529	4622
859.662	4603
859.795	4580
859.928	4683
860.061	4812
860.194	4793
860.327	4672
860.46	4645
860.592	4763
860.725	4771
860.858	4801
860.99	4630
861.123	4569
861.256	4546
861.388	4637
861.521	5440
861.653	4565
861.786	4489
861.918	4489
862.05	4580
862.183	4611
862.315	4660
862.447	4736
862.58	4596
862.712	4466
862.844	4322
862.976	4550
863.108	4478
863.24	4957
863.372	4386
863.504	4451
863.636	4432
863.768	4535
863.9	4455
864.032	4409
864.164	4443
864.296	4516
864.428	4584
864.559	4599
864.691	4588
864.823	4527
864.954	4554
865.086	4580
865.217	4485
865.349	4462
865.48	4512
865.612	4546
865.743	4679
865.875	4531
866.006	4485
866.137	4504
866.269	4508
866.4	4516
866.531	4478
866.662	4428
866.793	4485
866.924	4485
867.055	4531
867.186	4436
867.317	4443
867.448	4428
867.579	4440
867.71	4470
867.841	4390
867.972	4538
868.103	4497
868.233	4500
868.364	4493
868.495	4577
868.625	4698
868.756	4828
868.886	4622
869.017	4679
869.147	4797
869.278	4870
869.408	4721
869.539	4691
869.669	4812
869.799	4698
869.929	4812
870.06	4786
870.19	5018
870.32	4942
870.45	5003
870.58	5075
870.71	5159
870.84	5128
870.97	4965
871.1	4938
871.23	5231
871.36	5189
871.489	5075
871.619	5113
871.749	5159
871.879	5159
872.008	5216
872.138	5143
872.267	5003
872.397	4847
872.526	4858
872.656	4759
872.785	4866
872.915	4965
873.044	5064
873.173	5041
873.303	5048
873.432	4995
873.561	4984
873.69	4919
873.819	4900
873.948	5003
874.077	4889
874.206	4782
874.335	4870
874.464	4987
874.593	5067
874.722	5022
874.851	5136
874.979	5067
875.108	5018
875.237	4972
875.365	4919
875.494	4991
875.623	5025
875.751	4904
875.88	4930
876.008	5102
876.136	5025
876.265	5318
876.393	5372
876.521	5353
876.65	5307
876.778	5235
876.906	5113
877.034	5136
877.162	5075
877.29	5014
877.418	5136
877.546	5117
877.674	5041
877.802	5056
877.93	5010
878.058	5006
878.185	4904
878.313	4999
878.441	4980
878.568	4850
878.696	4946
878.824	5060
878.951	5048
879.079	5174
879.206	5277
879.333	5147
879.461	5029
879.588	5090
879.715	5242
879.842	5303
879.97	5064
880.097	4839
880.224	4805
880.351	4900
880.478	4889
880.605	4816
880.732	4763
880.859	5204
880.986	4930
881.112	4927
881.239	4870
881.366	4759
881.493	4626
881.619	4687
881.746	4664
881.872	4694
881.999	4706
882.125	4752
882.252	4824
882.378	4911
882.505	4987
882.631	4870
882.757	4694
882.883	4805
883.01	4752
883.136	4691
883.262	4649
883.388	4634
883.514	4866
883.64	4881
883.766	4828
883.892	4736
884.018	4763
884.143	4923
884.269	5071
884.395	4717
884.52	4656
884.646	4687
884.772	4607
884.897	4626
885.023	4694
885.148	4816
885.274	4896
885.399	4873
885.524	4752
885.65	4752
885.775	4812
885.9	4763
886.025	4873
886.15	4824
886.275	4752
886.4	4717
886.525	4778
886.65	4721
886.775	4740
886.9	4938
887.025	5102
887.149	4862
887.274	4744
887.399	4694
887.523	4634
887.648	4687
887.773	4653
887.897	4805
888.021	4881
888.146	4771
888.27	4904
888.395	4949
888.519	4812
888.643	4862
888.767	4892
888.891	4706
889.015	4637
889.139	4675
889.263	4656
889.387	4816
889.511	4915
889.635	4889
889.759	4740
889.883	4714
890.006	4790
890.13	4862
890.254	4656
890.377	4759
890.501	4580
890.624	4573
890.748	4679
890.871	4584
890.995	4489
891.118	4455
891.241	4577
891.364	4618
891.488	4675
891.611	4500
891.734	4584
891.857	4645
891.98	4592
892.103	4679
892.226	4649
892.349	4588
892.471	4470
892.594	4592
892.717	4611
892.839	4611
892.962	4611
893.085	4706
893.207	4626
893.33	4516
893.452	4523
893.575	4740
893.697	4679
893.819	4858
893.941	4911
894.064	4824
894.186	4649
894.308	4596
894.43	4748
894.552	4911
894.674	4752
894.796	4618
894.918	4649
895.04	4660
895.161	4748
895.283	4679
895.405	4611
895.526	4694
895.648	4729
895.769	4702
895.891	4744
896.012	4786
896.134	4828
896.255	4767
896.376	4683
896.498	4672
896.619	4725
896.74	4645
896.861	4717
896.982	5045
897.103	5136
897.224	4889
897.345	4767
897.466	4714
897.587	4801
897.708	4915
897.828	4835
897.949	4717
898.07	4622
898.19	4706
898.311	4904
898.431	4744
898.552	4778
898.672	4892
898.792	4858
898.913	4793
899.033	4653
899.153	4561
899.273	4516
899.393	4493
899.513	4592
899.633	4561
899.753	4565
899.873	4512
899.993	4675
900.113	4577
900.232	4672
900.352	4626
900.472	4577
900.591	4466
900.711	4523
900.83	4481
900.95	4660
901.069	4748
901.189	4535
901.308	4390
901.427	4367
901.546	4455
901.665	4523
901.784	4561
901.904	4436
902.023	4352
902.141	4230
902.26	4230
902.379	4303
902.498	4303
902.617	4291
902.735	4443
902.854	4447
902.973	4394
903.091	4238
903.21	4261
903.328	4348
903.446	4333
903.565	4325
903.683	4432
903.801	4329
903.919	4459
904.038	4462
904.156	4379
904.274	4489
904.392	4432
904.51	4474
904.627	4481
904.745	4611
904.863	4694
904.981	4466
905.098	4329
905.216	4432
905.334	4512
905.451	4455
905.569	4489
905.686	4603
905.803	4641
905.921	4451
906.038	4653
906.155	4535
906.272	4485
906.389	4546
906.506	4379
906.623	4394
906.74	4432
906.857	4348
906.974	4432
907.091	4611
907.208	4759
907.324	4649
907.441	4592
907.557	4348
907.674	4367
907.79	4394
907.907	4440
908.023	4569
908.139	4512
908.256	4478
908.372	4516
908.488	4508
908.604	4451
908.72	4409
908.836	4443
908.952	4394
909.068	4485
909.184	4630
909.3	4508
909.415	4664
909.531	4618
909.647	4379
909.762	4417
909.878	4386
909.993	4466
910.108	4485
910.224	4447
910.339	4599
910.454	4436
910.57	4379
910.685	4344
910.8	4679
910.915	4641
911.03	4523
911.145	4386
911.259	4371
911.374	4394
911.489	4386
911.604	4291
911.718	4249
911.833	4261
911.947	4147
912.062	4071
912.176	4287
912.291	4306
912.405	4280
912.519	4504
912.633	4550
912.748	4360
912.862	4375
912.976	4204
913.09	4158
913.204	4200
913.318	4318
913.431	4413
913.545	4470
913.659	4489
913.772	4417
913.886	4276
914	4265
914.113	4451
914.226	4474
914.34	4424
914.453	4265
914.566	4474
914.68	4360
914.793	4341
914.906	4166
915.019	4177
915.132	4131
915.245	4204
915.358	4257
915.47	4322
915.583	4272
915.696	4348
915.809	4417
915.921	4466
916.034	4257
916.146	4265
916.259	4276
916.371	4451
916.483	4455
916.595	4257
916.708	4390
916.82	4375
916.932	4398
917.044	4390
917.156	4325
917.268	4303
917.38	4337
917.491	4310
917.603	4394
917.715	4428
917.826	4481
917.938	4390
918.049	4322
918.161	4451
918.272	4596
918.384	4599
918.495	4516
918.606	4390
918.717	4284
918.828	4398
918.939	4383
919.05	4306
919.161	4356
919.272	4181
919.383	4261
919.494	4527
919.604	4630
919.715	4478
919.826	4421
919.936	4466
920.047	4603
920.157	4561
920.267	4736
920.378	4622
920.488	4622
920.598	4793
920.708	4976
920.818	4797
920.928	4816
921.038	5045
921.148	4984
921.258	4694
921.368	4596
921.477	4523
921.587	4489
921.697	4367
921.806	4634
921.916	4497
922.025	4352
922.134	4291
922.244	4272
922.353	4390
922.462	4227
922.571	4166
922.68	4071
922.789	4002
922.898	4067
923.007	4032
923.116	4086
923.224	4143
923.333	4090
923.442	4051
923.55	4013
923.659	4078
923.767	4143
923.876	4025
923.984	4166
924.092	4021
924.201	4128
924.309	4135
924.417	4204
924.525	4109
924.633	4162
924.741	5105
924.849	3926
924.956	4204
925.064	3975
925.172	3930
925.279	4032
925.387	4105
925.494	4135
925.602	4211
925.709	4219
925.816	4074
925.924	4196
926.031	4303
926.138	4219
926.245	4230
926.352	4128
926.459	4234
926.566	4284
926.673	4215
926.779	4124
926.886	4116
926.993	4048
927.099	4032
927.206	3994
927.312	3960
927.419	4143
927.525	4063
927.631	4143
927.737	4002
927.843	3998
927.95	3884
928.056	4013
928.162	4036
928.267	4120
928.373	4778
928.479	4169
928.585	3926
928.69	4044
928.796	4116
928.901	4044
929.007	3831
929.112	4048
929.218	4063
929.323	4002
929.428	4044
929.533	4185
929.638	3968
929.743	3953
929.848	4090
929.953	4059
930.058	3953
930.163	3850
930.267	3907
930.372	4048
930.477	3835
930.581	4116
930.685	3987
930.79	3835
930.894	3911
930.998	3888
931.103	4067
931.207	3762
931.311	3793
931.415	3694
931.519	3553
931.623	3610
