Data from test_V78500241_1151.txt Node
Date: Fri Mar 25 16:57:00 CST 2022
User: usil
Spectrometer: V785-0024
Trigger mode: 0
Integration Time (sec): 4.000000E-1
Scans to average: 1
Nonlinearity correction enabled: false
Boxcar width: 0
Storing dark spectrum: false
XAxis mode: Wavelengths
Number of Pixels in Spectrum: 1024
>>>>>Begin Spectral Data<<<<<
801.071	8058
801.214	8020
801.356	7921
801.499	7909
801.641	7818
801.783	7761
801.926	7925
802.068	7906
802.211	7974
802.353	7928
802.496	7841
802.638	7807
802.78	7970
802.923	7947
803.065	7906
803.208	7970
803.35	7955
803.492	8054
803.635	8183
803.777	7963
803.919	8149
804.061	8450
804.204	8199
804.346	8024
804.488	7944
804.63	8084
804.773	8103
804.915	8100
805.057	8347
805.199	8176
805.341	8267
805.483	8263
805.626	8149
805.768	8126
805.91	8244
806.052	8195
806.194	8084
806.336	8263
806.478	8103
806.62	8084
806.762	8199
806.904	8248
807.046	8552
807.188	8279
807.33	8259
807.472	8286
807.614	8069
807.756	8142
807.898	7997
808.04	7944
808.182	7940
808.324	7906
808.465	7875
808.607	8069
808.749	8103
808.891	8206
809.033	8347
809.174	8172
809.316	8069
809.458	8084
809.6	8016
809.741	7963
809.883	8035
810.025	8126
810.166	8092
810.308	8054
810.45	8092
810.591	7852
810.733	7746
810.875	7639
811.016	7502
811.158	7521
811.299	7597
811.441	7731
811.582	7616
811.724	7639
811.865	7544
812.007	7548
812.148	7632
812.29	7613
812.431	7731
812.573	7841
812.714	8005
812.855	8096
812.997	8252
813.138	8347
813.279	8161
813.421	8077
813.562	8008
813.703	7852
813.845	7708
813.986	7434
814.127	7251
814.268	7213
814.41	7240
814.551	7156
814.692	7160
814.833	7050
814.974	7072
815.115	7088
815.256	6932
815.397	6932
815.539	6894
815.68	6795
815.821	6764
815.962	6856
816.103	6867
816.244	6726
816.385	6650
816.526	6601
816.666	6479
816.807	6277
816.948	6448
817.089	6464
817.23	6479
817.371	6407
817.512	6353
817.653	6365
817.793	6350
817.934	6399
818.075	6483
818.216	6437
818.356	6410
818.497	6243
818.638	6121
818.778	6201
818.919	6155
819.06	6159
819.2	6266
819.341	6277
819.481	6376
819.622	6547
819.762	6738
819.903	6764
820.043	6589
820.184	6623
820.324	6547
820.465	6711
820.605	6673
820.746	6585
820.886	6498
821.026	6654
821.167	6642
821.307	6760
821.447	6715
821.588	6646
821.728	6582
821.868	6479
822.008	6300
822.149	6331
822.289	6395
822.429	6171
822.569	6117
822.709	6079
822.849	5901
822.99	5897
823.13	5931
823.27	5904
823.41	5726
823.55	5824
823.69	5760
823.83	5737
823.97	5646
824.11	5528
824.25	5490
824.389	5505
824.529	5524
824.669	5493
824.809	5642
824.949	5619
825.089	5585
825.228	5505
825.368	5417
825.508	5372
825.648	5414
825.787	5360
825.927	5398
826.067	5315
826.206	5258
826.346	5334
826.485	5341
826.625	5379
826.765	5524
826.904	5444
827.044	5273
827.183	5181
827.323	5128
827.462	5220
827.601	5166
827.741	5201
827.88	5185
828.02	5075
828.159	5166
828.298	5322
828.437	5330
828.577	5280
828.716	5501
828.855	5307
828.994	5121
829.134	5204
829.273	5181
829.412	5132
829.551	5132
829.69	5159
829.829	5212
829.968	5326
830.107	5315
830.246	5212
830.385	5193
830.524	5113
830.663	5090
830.802	4999
830.941	4881
831.08	4896
831.219	4999
831.357	4949
831.496	5128
831.635	4908
831.774	4801
831.913	4797
832.051	4759
832.19	4717
832.329	4839
832.467	4687
832.606	4634
832.744	4725
832.883	4736
833.022	4660
833.16	4839
833.299	4797
833.437	4854
833.576	4797
833.714	4831
833.852	4858
833.991	4896
834.129	4938
834.267	4881
834.406	4915
834.544	4923
834.682	4968
834.821	4942
834.959	5193
835.097	4965
835.235	5140
835.373	5022
835.511	5052
835.65	5071
835.788	5014
835.926	4919
836.064	4858
836.202	4915
836.34	5185
836.478	5193
836.615	5094
836.753	5189
836.891	5372
837.029	5254
837.167	5170
837.305	5159
837.443	5128
837.58	5006
837.718	5223
837.856	5128
837.993	5090
838.131	5216
838.269	5197
838.406	5208
838.544	5147
838.681	5025
838.819	5033
838.956	4908
839.094	4900
839.231	4980
839.369	5067
839.506	5364
839.643	5261
839.781	5075
839.918	4995
840.055	5083
840.193	5143
840.33	5083
840.467	5098
840.604	5132
840.742	5455
840.879	5079
841.016	5098
841.153	5109
841.29	5391
841.427	5315
841.564	5223
841.701	5341
841.838	5258
841.975	5246
842.112	5189
842.249	5121
842.385	5086
842.522	5330
842.659	5212
842.796	5132
842.933	5208
843.069	5113
843.206	5132
843.343	5273
843.479	5159
843.616	5250
843.752	4984
843.889	4995
844.025	5193
844.162	4987
844.298	5181
844.435	5056
844.571	5006
844.708	5201
844.844	5299
844.98	5303
845.117	5250
845.253	5113
845.389	5094
845.525	5098
845.661	5181
845.798	5010
845.934	5140
846.07	5014
846.206	5208
846.342	5280
846.478	5174
846.614	5037
846.75	4961
846.886	4953
847.022	5159
847.158	5037
847.294	4995
847.429	5147
847.565	5067
847.701	5292
847.837	4816
847.972	4782
848.108	4961
848.244	4957
848.379	4763
848.515	4740
848.65	4664
848.786	4721
848.921	4782
849.057	4866
849.192	4862
849.328	4858
849.463	4793
849.598	4820
849.734	4755
849.869	4744
850.004	4656
850.14	4675
850.275	4588
850.41	4512
850.545	4550
850.68	4580
850.815	4554
850.95	4592
851.085	4831
851.22	4767
851.355	4664
851.49	4573
851.625	4637
851.76	4618
851.895	4527
852.03	4531
852.165	4622
852.299	4694
852.434	4809
852.569	4702
852.703	4763
852.838	4820
852.973	4889
853.107	4847
853.242	4740
853.376	4660
853.511	4615
853.645	4637
853.78	4778
853.914	4683
854.048	4714
854.183	4622
854.317	4691
854.451	4839
854.585	4691
854.72	4630
854.854	4721
854.988	4626
855.122	4611
855.256	4512
855.39	4626
855.524	4748
855.658	4721
855.792	4702
855.926	4767
856.06	4755
856.194	4767
856.327	4672
856.461	4592
856.595	4634
856.729	4656
856.862	4782
856.996	4717
857.13	4714
857.263	4729
857.397	4771
857.53	4641
857.664	4710
857.797	4778
857.931	4752
858.064	4653
858.197	4721
858.331	4641
858.464	4660
858.597	4497
858.731	4660
858.864	4630
858.997	4622
859.13	4645
859.263	4687
859.396	4691
859.529	4561
859.662	4542
859.795	4523
859.928	4622
860.061	4774
860.194	4771
860.327	4592
860.46	4558
860.592	4714
860.725	4691
860.858	4694
860.99	4588
861.123	4538
861.256	4519
861.388	4599
861.521	5166
861.653	4493
861.786	4447
861.918	4432
862.05	4500
862.183	4558
862.315	4626
862.447	4611
862.58	4516
862.712	4375
862.844	4344
862.976	4485
863.108	4428
863.24	4877
863.372	4322
863.504	4462
863.636	4451
863.768	4462
863.9	4379
864.032	4363
864.164	4424
864.296	4459
864.428	4546
864.559	4584
864.691	4542
864.823	4546
864.954	4481
865.086	4493
865.217	4394
865.349	4436
865.48	4462
865.612	4481
865.743	4615
865.875	4478
866.006	4405
866.137	4466
866.269	4440
866.4	4440
866.531	4417
866.662	4386
866.793	4356
866.924	4417
867.055	4466
867.186	4474
867.317	4413
867.448	4348
867.579	4386
867.71	4440
867.841	4356
867.972	4470
868.103	4436
868.233	4470
868.364	4440
868.495	4497
868.625	4584
868.756	4744
868.886	4531
869.017	4580
869.147	4717
869.278	4698
869.408	4618
869.539	4653
869.669	4702
869.799	4672
869.929	4736
870.06	4755
870.19	4965
870.32	4915
870.45	4927
870.58	4976
870.71	5067
870.84	5045
870.97	4881
871.1	4881
871.23	5117
871.36	5147
871.489	4991
871.619	5029
871.749	5003
871.879	5102
872.008	5143
872.138	5033
872.267	4976
872.397	4877
872.526	4782
872.656	4706
872.785	4809
872.915	4949
873.044	4991
873.173	4976
873.303	4961
873.432	4946
873.561	4946
873.69	4900
873.819	4797
873.948	4881
874.077	4809
874.206	4805
874.335	4790
874.464	4881
874.593	4984
874.722	4908
874.851	5086
874.979	4961
875.108	5006
875.237	4908
875.365	4858
875.494	4896
875.623	4968
875.751	4843
875.88	4889
876.008	4968
876.136	5018
876.265	5162
876.393	5315
876.521	5239
876.65	5227
876.778	5151
876.906	5067
877.034	5014
877.162	5037
877.29	4991
877.418	5052
877.546	4976
877.674	5018
877.802	5033
877.93	4934
878.058	4938
878.185	4847
878.313	4866
878.441	4953
878.568	4805
878.696	4839
878.824	4946
878.951	4999
879.079	5052
879.206	5273
879.333	5094
879.461	5006
879.588	4995
879.715	5136
879.842	5174
879.97	4995
880.097	4809
880.224	4736
880.351	4801
880.478	4828
880.605	4782
880.732	4721
880.859	5113
880.986	4885
881.112	4847
881.239	4736
881.366	4698
881.493	4580
881.619	4618
881.746	4637
881.872	4611
881.999	4660
882.125	4698
882.252	4748
882.378	4790
882.505	4980
882.631	4831
882.757	4634
882.883	4763
883.01	4702
883.136	4649
883.262	4561
883.388	4603
883.514	4820
883.64	4881
883.766	4805
883.892	4683
884.018	4771
884.143	4904
884.269	5010
884.395	4672
884.52	4630
884.646	4611
884.772	4542
884.897	4512
885.023	4656
885.148	4744
885.274	4927
885.399	4774
885.524	4656
885.65	4694
885.775	4744
885.9	4790
886.025	4889
886.15	4710
886.275	4675
886.4	4645
886.525	4679
886.65	4664
886.775	4675
886.9	4870
887.025	5010
887.149	4850
887.274	4664
887.399	4550
887.523	4630
887.648	4516
887.773	4580
887.897	4801
888.021	4752
888.146	4645
888.27	4793
888.395	4881
888.519	4790
888.643	4843
888.767	4805
888.891	4656
889.015	4603
889.139	4626
889.263	4596
889.387	4786
889.511	4812
889.635	4797
889.759	4641
889.883	4664
890.006	4748
890.13	4835
890.254	4607
890.377	4683
890.501	4516
890.624	4493
890.748	4622
890.871	4523
890.995	4394
891.118	4394
891.241	4558
891.364	4561
891.488	4565
891.611	4474
891.734	4523
891.857	4584
891.98	4535
892.103	4584
892.226	4592
892.349	4500
892.471	4405
892.594	4519
892.717	4573
892.839	4542
892.962	4512
893.085	4710
893.207	4561
893.33	4417
893.452	4550
893.575	4618
893.697	4554
893.819	4748
893.941	4801
894.064	4790
894.186	4565
894.308	4561
894.43	4672
894.552	4870
894.674	4721
894.796	4512
894.918	4580
895.04	4561
895.161	4759
895.283	4664
895.405	4622
895.526	4630
895.648	4694
895.769	4675
895.891	4725
896.012	4664
896.134	4683
896.255	4668
896.376	4580
896.498	4588
896.619	4656
896.74	4656
896.861	4630
896.982	4946
897.103	5083
897.224	4850
897.345	4790
897.466	4683
897.587	4748
897.708	4873
897.828	4771
897.949	4656
898.07	4542
898.19	4607
898.311	4812
898.431	4698
898.552	4714
898.672	4870
898.792	4729
898.913	4675
899.033	4637
899.153	4474
899.273	4428
899.393	4500
899.513	4519
899.633	4527
899.753	4554
899.873	4500
899.993	4554
900.113	4538
900.232	4603
900.352	4577
900.472	4481
900.591	4379
900.711	4497
900.83	4432
900.95	4615
901.069	4660
901.189	4481
901.308	4360
901.427	4344
901.546	4356
901.665	4470
901.784	4512
901.904	4333
902.023	4337
902.141	4173
902.26	4196
902.379	4272
902.498	4238
902.617	4196
902.735	4360
902.854	4398
902.973	4341
903.091	4188
903.21	4223
903.328	4318
903.446	4284
903.565	4268
903.683	4333
903.801	4306
903.919	4402
904.038	4421
904.156	4322
904.274	4405
904.392	4386
904.51	4436
904.627	4489
904.745	4527
904.863	4588
904.981	4390
905.098	4303
905.216	4344
905.334	4443
905.451	4474
905.569	4428
905.686	4546
905.803	4519
905.921	4402
906.038	4516
906.155	4497
906.272	4367
906.389	4470
906.506	4405
906.623	4390
906.74	4413
906.857	4272
906.974	4348
907.091	4558
907.208	4687
907.324	4622
907.441	4512
907.557	4306
907.674	4329
907.79	4371
907.907	4383
908.023	4516
908.139	4459
908.256	4432
908.372	4474
908.488	4459
908.604	4363
908.72	4329
908.836	4371
908.952	4390
909.068	4371
909.184	4561
909.3	4462
909.415	4573
909.531	4512
909.647	4329
909.762	4386
909.878	4333
909.993	4413
910.108	4402
910.224	4440
910.339	4470
910.454	4485
910.57	4322
910.685	4303
910.8	4641
910.915	4592
911.03	4504
911.145	4310
911.259	4280
911.374	4390
911.489	4325
911.604	4272
911.718	4128
911.833	4200
911.947	4055
912.062	4025
912.176	4227
912.291	4246
912.405	4265
912.519	4447
912.633	4489
912.748	4356
912.862	4306
912.976	4215
913.09	4116
913.204	4173
913.318	4227
913.431	4341
913.545	4367
913.659	4474
913.772	4367
913.886	4230
914	4230
914.113	4375
914.226	4459
914.34	4386
914.453	4207
914.566	4383
914.68	4306
914.793	4348
914.906	4154
915.019	4147
915.132	4078
915.245	4196
915.358	4219
915.47	4265
915.583	4242
915.696	4299
915.809	4386
915.921	4363
916.034	4257
916.146	4310
916.259	4200
916.371	4341
916.483	4394
916.595	4272
916.708	4322
916.82	4337
916.932	4306
917.044	4333
917.156	4310
917.268	4230
917.38	4276
917.491	4265
917.603	4363
917.715	4440
917.826	4443
917.938	4337
918.049	4227
918.161	4413
918.272	4527
918.384	4504
918.495	4424
918.606	4356
918.717	4246
918.828	4310
918.939	4371
919.05	4257
919.161	4329
919.272	4071
919.383	4246
919.494	4466
919.604	4618
919.715	4402
919.826	4383
919.936	4398
920.047	4527
920.157	4459
920.267	4729
920.378	4546
920.488	4500
920.598	4714
920.708	4850
920.818	4740
920.928	4755
921.038	4911
921.148	4870
921.258	4573
921.368	4588
921.477	4554
921.587	4485
921.697	4356
921.806	4508
921.916	4451
922.025	4234
922.134	4265
922.244	4196
922.353	4333
922.462	4150
922.571	4154
922.68	4002
922.789	3979
922.898	4029
923.007	4025
923.116	4078
923.224	4067
923.333	4078
923.442	3979
923.55	3953
923.659	4029
923.767	4116
923.876	3972
923.984	4124
924.092	3960
924.201	4097
924.309	4048
924.417	4177
924.525	4078
924.633	4097
924.741	5060
924.849	3892
924.956	4097
925.064	3956
925.172	3888
925.279	3945
925.387	4051
925.494	4036
925.602	4185
925.709	4166
925.816	4013
925.924	4097
926.031	4219
926.138	4200
926.245	4166
926.352	4143
926.459	4227
926.566	4325
926.673	4143
926.779	4071
926.886	4086
926.993	3941
927.099	3949
927.206	3934
927.312	3987
927.419	4036
927.525	4032
927.631	4059
927.737	3949
927.843	3949
927.95	3865
928.056	3937
928.162	3998
928.267	4040
928.373	4702
928.479	4135
928.585	3911
928.69	4025
928.796	4063
928.901	3934
929.007	3808
929.112	4006
929.218	3968
929.323	4002
929.428	3915
929.533	4090
929.638	3911
929.743	3964
929.848	4063
929.953	3991
930.058	3896
930.163	3789
930.267	3800
930.372	3960
930.477	3743
930.581	4093
930.685	3945
930.79	3774
930.894	3903
930.998	3842
931.103	4002
931.207	3671
931.311	3709
931.415	3682
931.519	3507
931.623	3564
