Data from test_V78500241_760.txt Node
Date: Fri Mar 25 16:54:17 CST 2022
User: usil
Spectrometer: V785-0024
Trigger mode: 0
Integration Time (sec): 4.000000E-1
Scans to average: 1
Nonlinearity correction enabled: false
Boxcar width: 0
Storing dark spectrum: false
XAxis mode: Wavelengths
Number of Pixels in Spectrum: 1024
>>>>>Begin Spectral Data<<<<<
801.071	8016
801.214	7978
801.356	7841
801.499	7837
801.641	7799
801.783	7822
801.926	7959
802.068	7947
802.211	7917
802.353	7959
802.496	7902
802.638	7875
802.78	7902
802.923	7925
803.065	7868
803.208	7852
803.35	8005
803.492	8084
803.635	8172
803.777	7986
803.919	8123
804.061	8381
804.204	8157
804.346	8050
804.488	7951
804.63	8084
804.773	8012
804.915	8058
805.057	8248
805.199	8123
805.341	8210
805.483	8233
805.626	8210
805.768	8138
805.91	8275
806.052	8214
806.194	8088
806.336	8294
806.478	8107
806.62	8077
806.762	8119
806.904	8282
807.046	8492
807.188	8366
807.33	8309
807.472	8301
807.614	8183
807.756	8115
807.898	8039
808.04	7818
808.182	7928
808.324	7932
808.465	7902
808.607	8043
808.749	8073
808.891	8229
809.033	8244
809.174	8130
809.316	8012
809.458	8088
809.6	7978
809.741	7993
809.883	8035
810.025	8134
810.166	8043
810.308	8008
810.45	8050
810.591	7849
810.733	7719
810.875	7712
811.016	7582
811.158	7491
811.299	7525
811.441	7689
811.582	7620
811.724	7586
811.865	7540
812.007	7632
812.148	7563
812.29	7620
812.431	7761
812.573	7807
812.714	7967
812.855	8172
812.997	8145
813.138	8248
813.279	8115
813.421	8134
813.562	7978
813.703	7887
813.845	7746
813.986	7457
814.127	7293
814.268	7312
814.41	7145
814.551	7118
814.692	7145
814.833	7072
814.974	7053
815.115	7168
815.256	6947
815.397	6966
815.539	6962
815.68	6818
815.821	6757
815.962	6814
816.103	6779
816.244	6658
816.385	6650
816.526	6604
816.666	6509
816.807	6262
816.948	6467
817.089	6452
817.23	6437
817.371	6384
817.512	6361
817.653	6388
817.793	6376
817.934	6399
818.075	6452
818.216	6380
818.356	6399
818.497	6178
818.638	6117
818.778	6106
818.919	6148
819.06	6148
819.2	6296
819.341	6300
819.481	6327
819.622	6555
819.762	6745
819.903	6684
820.043	6559
820.184	6601
820.324	6528
820.465	6662
820.605	6662
820.746	6635
820.886	6494
821.026	6677
821.167	6646
821.307	6779
821.447	6741
821.588	6620
821.728	6601
821.868	6509
822.008	6285
822.149	6414
822.289	6338
822.429	6178
822.569	6041
822.709	6068
822.849	5878
822.99	5874
823.13	5916
823.27	5878
823.41	5760
823.55	5771
823.69	5752
823.83	5775
823.97	5642
824.11	5558
824.25	5497
824.389	5524
824.529	5524
824.669	5497
824.809	5604
824.949	5688
825.089	5577
825.228	5535
825.368	5353
825.508	5322
825.648	5322
825.787	5368
825.927	5368
826.067	5280
826.206	5322
826.346	5414
826.485	5345
826.625	5341
826.765	5520
826.904	5490
827.044	5227
827.183	5132
827.323	5121
827.462	5235
827.601	5132
827.741	5159
827.88	5223
828.02	5075
828.159	5296
828.298	5330
828.437	5353
828.577	5242
828.716	5459
828.855	5330
828.994	5208
829.134	5151
829.273	5128
829.412	5143
829.551	5140
829.69	5113
829.829	5242
829.968	5318
830.107	5216
830.246	5299
830.385	5208
830.524	5079
830.663	5083
830.802	5003
830.941	4885
831.08	4839
831.219	4968
831.357	4999
831.496	5136
831.635	4915
831.774	4873
831.913	4843
832.051	4733
832.19	4748
832.329	4759
832.467	4679
832.606	4637
832.744	4763
832.883	4733
833.022	4725
833.16	4801
833.299	4801
833.437	4801
833.576	4812
833.714	4862
833.852	4854
833.991	4847
834.129	4927
834.267	4980
834.406	4900
834.544	4961
834.682	5010
834.821	5022
834.959	5143
835.097	5003
835.235	5201
835.373	5094
835.511	5132
835.65	4999
835.788	5010
835.926	4911
836.064	4858
836.202	4908
836.34	5170
836.478	5178
836.615	5117
836.753	5265
836.891	5299
837.029	5227
837.167	5201
837.305	5124
837.443	5128
837.58	5090
837.718	5242
837.856	5204
837.993	5113
838.131	5265
838.269	5170
838.406	5220
838.544	5170
838.681	4984
838.819	4980
838.956	4881
839.094	4934
839.231	5014
839.369	5109
839.506	5425
839.643	5277
839.781	5094
839.918	4987
840.055	5052
840.193	5071
840.33	5105
840.467	5151
840.604	5227
840.742	5421
840.879	5128
841.016	5064
841.153	5155
841.29	5368
841.427	5341
841.564	5315
841.701	5334
841.838	5258
841.975	5277
842.112	5296
842.249	5128
842.385	5086
842.522	5296
842.659	5204
842.796	5124
842.933	5201
843.069	5155
843.206	5170
843.343	5315
843.479	5246
843.616	5269
843.752	5075
843.889	4976
844.025	5223
844.162	5003
844.298	5231
844.435	5098
844.571	5090
844.708	5185
844.844	5277
844.98	5398
845.117	5292
845.253	5090
845.389	5098
845.525	5128
845.661	5132
845.798	5018
845.934	5094
846.07	4999
846.206	5117
846.342	5239
846.478	5143
846.614	4987
846.75	4980
846.886	4965
847.022	5140
847.158	5014
847.294	5045
847.429	5109
847.565	5064
847.701	5246
847.837	4854
847.972	4793
848.108	4930
848.244	4919
848.379	4774
848.515	4748
848.65	4740
848.786	4793
848.921	4748
849.057	4870
849.192	4892
849.328	4816
849.463	4812
849.598	4801
849.734	4748
849.869	4634
850.004	4615
850.14	4649
850.275	4626
850.41	4508
850.545	4577
850.68	4588
850.815	4634
850.95	4592
851.085	4839
851.22	4774
851.355	4630
851.49	4611
851.625	4626
851.76	4603
851.895	4592
852.03	4538
852.165	4687
852.299	4759
852.434	4774
852.569	4706
852.703	4759
852.838	4801
852.973	4870
853.107	4927
853.242	4771
853.376	4698
853.511	4535
853.645	4565
853.78	4835
853.914	4649
854.048	4729
854.183	4626
854.317	4706
854.451	4877
854.585	4668
854.72	4641
854.854	4759
854.988	4615
855.122	4649
855.256	4538
855.39	4679
855.524	4801
855.658	4694
855.792	4675
855.926	4717
856.06	4755
856.194	4767
856.327	4729
856.461	4592
856.595	4622
856.729	4634
856.862	4733
856.996	4668
857.13	4679
857.263	4710
857.397	4805
857.53	4630
857.664	4702
857.797	4771
857.931	4805
858.064	4637
858.197	4687
858.331	4615
858.464	4592
858.597	4531
858.731	4588
858.864	4603
858.997	4565
859.13	4615
859.263	4694
859.396	4634
859.529	4577
859.662	4512
859.795	4542
859.928	4592
860.061	4797
860.194	4759
860.327	4588
860.46	4561
860.592	4702
860.725	4736
860.858	4698
860.99	4535
861.123	4516
861.256	4493
861.388	4626
861.521	5311
861.653	4455
861.786	4436
861.918	4523
862.05	4504
862.183	4546
862.315	4584
862.447	4611
862.58	4527
862.712	4390
862.844	4333
862.976	4451
863.108	4466
863.24	4839
863.372	4363
863.504	4428
863.636	4424
863.768	4474
863.9	4432
864.032	4360
864.164	4367
864.296	4440
864.428	4550
864.559	4565
864.691	4523
864.823	4466
864.954	4485
865.086	4542
865.217	4481
865.349	4443
865.48	4478
865.612	4508
865.743	4615
865.875	4440
866.006	4432
866.137	4470
866.269	4440
866.4	4409
866.531	4394
866.662	4398
866.793	4409
866.924	4390
867.055	4508
867.186	4474
867.317	4386
867.448	4363
867.579	4363
867.71	4413
867.841	4386
867.972	4459
868.103	4451
868.233	4436
868.364	4421
868.495	4451
868.625	4656
868.756	4774
868.886	4561
869.017	4630
869.147	4740
869.278	4748
869.408	4599
869.539	4630
869.669	4736
869.799	4645
869.929	4793
870.06	4672
870.19	4946
870.32	4904
870.45	4911
870.58	4976
870.71	5067
870.84	5048
870.97	4942
871.1	4889
871.23	5086
871.36	5117
871.489	5033
871.619	5098
871.749	5048
871.879	5083
872.008	5216
872.138	5098
872.267	4961
872.397	4843
872.526	4782
872.656	4702
872.785	4816
872.915	4949
873.044	5025
873.173	4927
873.303	4957
873.432	4949
873.561	4949
873.69	4889
873.819	4896
873.948	4870
874.077	4805
874.206	4759
874.335	4778
874.464	4953
874.593	5045
874.722	4991
874.851	5067
874.979	5048
875.108	5048
875.237	4908
875.365	4896
875.494	4896
875.623	4968
875.751	4854
875.88	4839
876.008	4980
876.136	5033
876.265	5151
876.393	5387
876.521	5246
876.65	5261
876.778	5132
876.906	5052
877.034	5033
877.162	5006
877.29	4991
877.418	5029
877.546	5006
877.674	5018
877.802	5029
877.93	4995
878.058	4915
878.185	4866
878.313	4984
878.441	4961
878.568	4782
878.696	4896
878.824	4957
878.951	4972
879.079	5147
879.206	5258
879.333	5094
879.461	4995
879.588	4995
879.715	5086
879.842	5258
879.97	4968
880.097	4752
880.224	4702
880.351	4831
880.478	4877
880.605	4835
880.732	4786
880.859	5064
880.986	4892
881.112	4896
881.239	4782
881.366	4626
881.493	4649
881.619	4569
881.746	4622
881.872	4626
881.999	4626
882.125	4668
882.252	4805
882.378	4843
882.505	4953
882.631	4790
882.757	4694
882.883	4752
883.01	4702
883.136	4740
883.262	4637
883.388	4615
883.514	4812
883.64	4854
883.766	4828
883.892	4672
884.018	4714
884.143	4816
884.269	5033
884.395	4637
884.52	4641
884.646	4618
884.772	4580
884.897	4512
885.023	4641
885.148	4801
885.274	4850
885.399	4828
885.524	4725
885.65	4717
885.775	4733
885.9	4611
886.025	4850
886.15	4782
886.275	4771
886.4	4653
886.525	4694
886.65	4694
886.775	4656
886.9	4919
887.025	4999
887.149	4812
887.274	4641
887.399	4580
887.523	4596
887.648	4584
887.773	4584
887.897	4736
888.021	4809
888.146	4653
888.27	4805
888.395	4896
888.519	4801
888.643	4805
888.767	4771
888.891	4714
889.015	4618
889.139	4660
889.263	4569
889.387	4748
889.511	4847
889.635	4831
889.759	4599
889.883	4618
890.006	4729
890.13	4812
890.254	4641
890.377	4645
890.501	4561
890.624	4538
890.748	4626
890.871	4466
890.995	4424
891.118	4421
891.241	4527
891.364	4519
891.488	4607
891.611	4451
891.734	4558
891.857	4615
891.98	4611
892.103	4645
892.226	4592
892.349	4527
892.471	4413
892.594	4504
892.717	4615
892.839	4523
892.962	4588
893.085	4645
893.207	4611
893.33	4481
893.452	4519
893.575	4653
893.697	4546
893.819	4740
893.941	4839
894.064	4744
894.186	4641
894.308	4577
894.43	4733
894.552	4797
894.674	4778
894.796	4512
894.918	4573
895.04	4615
895.161	4702
895.283	4634
895.405	4569
895.526	4664
895.648	4694
895.769	4641
895.891	4702
896.012	4717
896.134	4702
896.255	4622
896.376	4607
896.498	4588
896.619	4698
896.74	4634
896.861	4672
896.982	4908
897.103	5086
897.224	4828
897.345	4721
897.466	4694
897.587	4721
897.708	4809
897.828	4801
897.949	4698
898.07	4569
898.19	4672
898.311	4881
898.431	4656
898.552	4714
898.672	4805
898.792	4831
898.913	4729
899.033	4611
899.153	4504
899.273	4386
899.393	4489
899.513	4516
899.633	4592
899.753	4523
899.873	4519
899.993	4592
900.113	4523
900.232	4615
900.352	4542
900.472	4508
900.591	4402
900.711	4523
900.83	4443
900.95	4622
901.069	4683
901.189	4561
901.308	4390
901.427	4333
901.546	4379
901.665	4440
901.784	4512
901.904	4333
902.023	4318
902.141	4196
902.26	4188
902.379	4287
902.498	4223
902.617	4211
902.735	4367
902.854	4390
902.973	4341
903.091	4200
903.21	4230
903.328	4295
903.446	4246
903.565	4257
903.683	4348
903.801	4265
903.919	4375
904.038	4474
904.156	4287
904.274	4428
904.392	4394
904.51	4413
904.627	4462
904.745	4565
904.863	4660
904.981	4409
905.098	4322
905.216	4371
905.334	4390
905.451	4409
905.569	4386
905.686	4588
905.803	4584
905.921	4432
906.038	4531
906.155	4516
906.272	4379
906.389	4436
906.506	4337
906.623	4371
906.74	4367
906.857	4337
906.974	4394
907.091	4550
907.208	4664
907.324	4580
907.441	4489
907.557	4367
907.674	4333
907.79	4329
907.907	4432
908.023	4451
908.139	4500
908.256	4409
908.372	4470
908.488	4459
908.604	4402
908.72	4318
908.836	4421
908.952	4295
909.068	4508
909.184	4554
909.3	4462
909.415	4615
909.531	4554
909.647	4303
909.762	4314
909.878	4322
909.993	4474
910.108	4440
910.224	4440
910.339	4451
910.454	4348
910.57	4360
910.685	4265
910.8	4622
910.915	4668
911.03	4481
911.145	4356
911.259	4322
911.374	4356
911.489	4291
911.604	4261
911.718	4207
911.833	4196
911.947	4051
912.062	4036
912.176	4204
912.291	4246
912.405	4196
912.519	4417
912.633	4538
912.748	4386
912.862	4329
912.976	4204
913.09	4071
913.204	4154
913.318	4223
913.431	4398
913.545	4375
913.659	4470
913.772	4352
913.886	4200
914	4230
914.113	4421
914.226	4375
914.34	4371
914.453	4211
914.566	4432
914.68	4306
914.793	4318
914.906	4143
915.019	4116
915.132	4082
915.245	4147
915.358	4204
915.47	4234
915.583	4284
915.696	4261
915.809	4424
915.921	4417
916.034	4253
916.146	4291
916.259	4215
916.371	4344
916.483	4352
916.595	4276
916.708	4352
916.82	4287
916.932	4310
917.044	4337
917.156	4261
917.268	4230
917.38	4261
917.491	4276
917.603	4375
917.715	4451
917.826	4402
917.938	4337
918.049	4230
918.161	4333
918.272	4546
918.384	4478
918.495	4440
918.606	4272
918.717	4246
918.828	4363
918.939	4367
919.05	4246
919.161	4367
919.272	4177
919.383	4257
919.494	4436
919.604	4645
919.715	4440
919.826	4344
919.936	4379
920.047	4554
920.157	4523
920.267	4698
920.378	4535
920.488	4489
920.598	4710
920.708	4870
920.818	4793
920.928	4736
921.038	4938
921.148	4896
921.258	4637
921.368	4542
921.477	4504
921.587	4462
921.697	4360
921.806	4573
921.916	4379
922.025	4284
922.134	4291
922.244	4238
922.353	4371
922.462	4150
922.571	4162
922.68	4029
922.789	3987
922.898	4074
923.007	3953
923.116	4067
923.224	4067
923.333	4067
923.442	3983
923.55	3983
923.659	4013
923.767	4093
923.876	3975
923.984	4147
924.092	3964
924.201	4067
924.309	4071
924.417	4101
924.525	4017
924.633	4116
924.741	4870
924.849	3896
924.956	4093
925.064	3915
925.172	3907
925.279	3945
925.387	4017
925.494	4029
925.602	4219
925.709	4169
925.816	4048
925.924	4143
926.031	4196
926.138	4158
926.245	4211
926.352	4013
926.459	4242
926.566	4318
926.673	4166
926.779	4071
926.886	4040
926.993	4013
927.099	3945
927.206	3915
927.312	3934
927.419	4067
927.525	4010
927.631	4112
927.737	3960
927.843	3979
927.95	3835
928.056	3934
928.162	4010
928.267	4090
928.373	4664
928.479	4128
928.585	3876
928.69	3994
928.796	4048
928.901	3987
929.007	3835
929.112	4025
929.218	3994
929.323	3915
929.428	3960
929.533	4131
929.638	3880
929.743	3918
929.848	4044
929.953	4040
930.058	3960
930.163	3804
930.267	3800
930.372	3960
930.477	3842
930.581	4090
930.685	3922
930.79	3808
930.894	3876
930.998	3854
931.103	3979
931.207	3679
931.311	3682
931.415	3705
931.519	3523
931.623	3492
