Data from test_V78500241_1672.txt Node
Date: Fri Mar 25 17:00:37 CST 2022
User: usil
Spectrometer: V785-0024
Trigger mode: 0
Integration Time (sec): 4.000000E-1
Scans to average: 1
Nonlinearity correction enabled: false
Boxcar width: 0
Storing dark spectrum: false
XAxis mode: Wavelengths
Number of Pixels in Spectrum: 1024
>>>>>Begin Spectral Data<<<<<
801.071	8012
801.214	8012
801.356	7913
801.499	7890
801.641	7708
801.783	7784
801.926	7936
802.068	7894
802.211	7997
802.353	7963
802.496	7868
802.638	7845
802.78	7830
802.923	7902
803.065	7811
803.208	7913
803.35	7898
803.492	8100
803.635	8187
803.777	8035
803.919	8050
804.061	8495
804.204	8149
804.346	8016
804.488	7944
804.63	8081
804.773	7986
804.915	8115
805.057	8229
805.199	8123
805.341	8347
805.483	8244
805.626	8237
805.768	8119
805.91	8164
806.052	8199
806.194	8172
806.336	8279
806.478	8191
806.62	8062
806.762	8183
806.904	8206
807.046	8461
807.188	8431
807.33	8358
807.472	8351
807.614	8134
807.756	8199
807.898	8100
808.04	7909
808.182	7925
808.324	7925
808.465	7921
808.607	8058
808.749	8157
808.891	8206
809.033	8362
809.174	8263
809.316	8088
809.458	8024
809.6	8020
809.741	8062
809.883	7944
810.025	8138
810.166	8058
810.308	8008
810.45	7986
810.591	7883
810.733	7712
810.875	7674
811.016	7457
811.158	7460
811.299	7609
811.441	7715
811.582	7727
811.724	7578
811.865	7624
812.007	7624
812.148	7563
812.29	7712
812.431	7769
812.573	7944
812.714	7989
812.855	8077
812.997	8214
813.138	8351
813.279	8206
813.421	8123
813.562	7906
813.703	7833
813.845	7769
813.986	7422
814.127	7236
814.268	7244
814.41	7175
814.551	7126
814.692	7278
814.833	7110
814.974	7133
815.115	7168
815.256	6981
815.397	6867
815.539	6962
815.68	6825
815.821	6840
815.962	6897
816.103	6787
816.244	6715
816.385	6646
816.526	6574
816.666	6521
816.807	6346
816.948	6464
817.089	6456
817.23	6410
817.371	6357
817.512	6422
817.653	6460
817.793	6384
817.934	6410
818.075	6460
818.216	6388
818.356	6395
818.497	6228
818.638	6159
818.778	6182
818.919	6171
819.06	6117
819.2	6338
819.341	6266
819.481	6391
819.622	6570
819.762	6749
819.903	6650
820.043	6665
820.184	6593
820.324	6593
820.465	6726
820.605	6715
820.746	6658
820.886	6471
821.026	6635
821.167	6703
821.307	6810
821.447	6844
821.588	6700
821.728	6601
821.868	6464
822.008	6334
822.149	6369
822.289	6376
822.429	6117
822.569	6057
822.709	6167
822.849	5923
822.99	5931
823.13	5965
823.27	5946
823.41	5779
823.55	5805
823.69	5756
823.83	5809
823.97	5611
824.11	5570
824.25	5524
824.389	5532
824.529	5630
824.669	5501
824.809	5661
824.949	5653
825.089	5604
825.228	5474
825.368	5391
825.508	5376
825.648	5337
825.787	5398
825.927	5334
826.067	5242
826.206	5299
826.346	5402
826.485	5429
826.625	5398
826.765	5551
826.904	5509
827.044	5239
827.183	5242
827.323	5181
827.462	5235
827.601	5216
827.741	5189
827.88	5250
828.02	5124
828.159	5254
828.298	5337
828.437	5311
828.577	5326
828.716	5512
828.855	5353
828.994	5151
829.134	5094
829.273	5189
829.412	5174
829.551	5121
829.69	5185
829.829	5284
829.968	5379
830.107	5303
830.246	5258
830.385	5204
830.524	5109
830.663	5083
830.802	4999
830.941	4881
831.08	4915
831.219	5010
831.357	4999
831.496	5121
831.635	4889
831.774	4847
831.913	4843
832.051	4729
832.19	4721
832.329	4858
832.467	4740
832.606	4656
832.744	4687
832.883	4660
833.022	4759
833.16	4755
833.299	4782
833.437	4809
833.576	4847
833.714	4873
833.852	4850
833.991	4885
834.129	4995
834.267	4957
834.406	4873
834.544	5025
834.682	4961
834.821	4984
834.959	5235
835.097	4991
835.235	5121
835.373	5083
835.511	5094
835.65	4968
835.788	5037
835.926	4870
836.064	4854
836.202	4896
836.34	5143
836.478	5239
836.615	5121
836.753	5223
836.891	5307
837.029	5239
837.167	5181
837.305	5151
837.443	5166
837.58	5117
837.718	5258
837.856	5155
837.993	5132
838.131	5201
838.269	5223
838.406	5181
838.544	5204
838.681	5083
838.819	4976
838.956	4908
839.094	4892
839.231	4953
839.369	5098
839.506	5391
839.643	5269
839.781	5064
839.918	5067
840.055	5098
840.193	5048
840.33	5109
840.467	5174
840.604	5143
840.742	5478
840.879	5041
841.016	5102
841.153	5121
841.29	5372
841.427	5299
841.564	5337
841.701	5345
841.838	5303
841.975	5185
842.112	5261
842.249	5098
842.385	5109
842.522	5315
842.659	5147
842.796	5090
842.933	5174
843.069	5143
843.206	5143
843.343	5299
843.479	5258
843.616	5303
843.752	5022
843.889	4961
844.025	5212
844.162	5003
844.298	5189
844.435	5064
844.571	5025
844.708	5178
844.844	5322
844.98	5341
845.117	5315
845.253	5136
845.389	5136
845.525	5132
845.661	5094
845.798	5037
845.934	5102
846.07	5025
846.206	5212
846.342	5307
846.478	5208
846.614	4995
846.75	4965
846.886	4881
847.022	5098
847.158	5010
847.294	5041
847.429	5140
847.565	5079
847.701	5357
847.837	4858
847.972	4816
848.108	4927
848.244	4839
848.379	4759
848.515	4725
848.65	4759
848.786	4755
848.921	4759
849.057	4835
849.192	4885
849.328	4835
849.463	4847
849.598	4790
849.734	4744
849.869	4668
850.004	4626
850.14	4637
850.275	4584
850.41	4497
850.545	4584
850.68	4622
850.815	4615
850.95	4641
851.085	4854
851.22	4740
851.355	4634
851.49	4622
851.625	4599
851.76	4637
851.895	4573
852.03	4538
852.165	4649
852.299	4698
852.434	4729
852.569	4767
852.703	4759
852.838	4839
852.973	4862
853.107	4892
853.242	4733
853.376	4668
853.511	4493
853.645	4622
853.78	4767
853.914	4672
854.048	4618
854.183	4656
854.317	4649
854.451	4824
854.585	4664
854.72	4637
854.854	4672
854.988	4596
855.122	4618
855.256	4550
855.39	4630
855.524	4778
855.658	4733
855.792	4672
855.926	4706
856.06	4744
856.194	4790
856.327	4714
856.461	4577
856.595	4630
856.729	4622
856.862	4782
856.996	4706
857.13	4729
857.263	4733
857.397	4854
857.53	4641
857.664	4660
857.797	4759
857.931	4733
858.064	4675
858.197	4733
858.331	4645
858.464	4618
858.597	4523
858.731	4580
858.864	4611
858.997	4565
859.13	4675
859.263	4694
859.396	4649
859.529	4580
859.662	4596
859.795	4546
859.928	4611
860.061	4801
860.194	4793
860.327	4618
860.46	4592
860.592	4675
860.725	4717
860.858	4714
860.99	4573
861.123	4580
861.256	4489
861.388	4603
861.521	5307
861.653	4497
861.786	4447
861.918	4455
862.05	4497
862.183	4489
862.315	4584
862.447	4634
862.58	4580
862.712	4371
862.844	4333
862.976	4421
863.108	4428
863.24	4790
863.372	4390
863.504	4417
863.636	4386
863.768	4481
863.9	4451
864.032	4344
864.164	4436
864.296	4436
864.428	4558
864.559	4573
864.691	4504
864.823	4523
864.954	4470
865.086	4462
865.217	4474
865.349	4390
865.48	4413
865.612	4519
865.743	4641
865.875	4497
866.006	4371
866.137	4413
866.269	4459
866.4	4493
866.531	4424
866.662	4394
866.793	4402
866.924	4436
867.055	4489
867.186	4432
867.317	4413
867.448	4379
867.579	4360
867.71	4383
867.841	4333
867.972	4474
868.103	4527
868.233	4462
868.364	4470
868.495	4421
868.625	4611
868.756	4748
868.886	4550
869.017	4641
869.147	4805
869.278	4771
869.408	4679
869.539	4649
869.669	4702
869.799	4618
869.929	4714
870.06	4736
870.19	4900
870.32	4942
870.45	4908
870.58	5045
870.71	5079
870.84	5105
870.97	4942
871.1	4923
871.23	5136
871.36	5094
871.489	5029
871.619	5064
871.749	5098
871.879	5124
872.008	5208
872.138	5003
872.267	4987
872.397	4862
872.526	4801
872.656	4774
872.785	4790
872.915	4930
873.044	5025
873.173	4953
873.303	4938
873.432	4965
873.561	4927
873.69	4862
873.819	4843
873.948	4900
874.077	4793
874.206	4736
874.335	4812
874.464	4904
874.593	5022
874.722	4923
874.851	5128
874.979	5045
875.108	5014
875.237	4919
875.365	4915
875.494	4908
875.623	4987
875.751	4824
875.88	4896
876.008	4965
876.136	5041
876.265	5201
876.393	5353
876.521	5334
876.65	5284
876.778	5105
876.906	5056
877.034	5067
877.162	5045
877.29	4991
877.418	5071
877.546	5025
877.674	5014
877.802	4972
877.93	5037
878.058	4934
878.185	4900
878.313	4987
878.441	4915
878.568	4805
878.696	4850
878.824	4949
878.951	4965
879.079	5162
879.206	5307
879.333	5121
879.461	5006
879.588	5003
879.715	5102
879.842	5178
879.97	5022
880.097	4801
880.224	4759
880.351	4782
880.478	4748
880.605	4763
880.732	4831
880.859	5064
880.986	4915
881.112	4976
881.239	4790
881.366	4660
881.493	4653
881.619	4611
881.746	4626
881.872	4691
881.999	4569
882.125	4672
882.252	4763
882.378	4797
882.505	4919
882.631	4820
882.757	4675
882.883	4710
883.01	4721
883.136	4714
883.262	4546
883.388	4596
883.514	4790
883.64	4839
883.766	4824
883.892	4664
884.018	4767
884.143	4877
884.269	4987
884.395	4675
884.52	4630
884.646	4687
884.772	4588
884.897	4580
885.023	4645
885.148	4763
885.274	4847
885.399	4774
885.524	4725
885.65	4733
885.775	4752
885.9	4729
886.025	4870
886.15	4763
886.275	4683
886.4	4683
886.525	4733
886.65	4653
886.775	4683
886.9	4862
887.025	5022
887.149	4820
887.274	4679
887.399	4558
887.523	4611
887.648	4603
887.773	4618
887.897	4771
888.021	4793
888.146	4660
888.27	4809
888.395	4858
888.519	4812
888.643	4801
888.767	4801
888.891	4679
889.015	4592
889.139	4675
889.263	4584
889.387	4763
889.511	4858
889.635	4771
889.759	4618
889.883	4656
890.006	4710
890.13	4812
890.254	4607
890.377	4660
890.501	4535
890.624	4558
890.748	4653
890.871	4504
890.995	4459
891.118	4379
891.241	4497
891.364	4577
891.488	4603
891.611	4493
891.734	4538
891.857	4615
891.98	4558
892.103	4664
892.226	4577
892.349	4504
892.471	4375
892.594	4512
892.717	4599
892.839	4546
892.962	4596
893.085	4698
893.207	4607
893.33	4451
893.452	4523
893.575	4622
893.697	4565
893.819	4809
893.941	4831
894.064	4767
894.186	4588
894.308	4554
894.43	4710
894.552	4805
894.674	4767
894.796	4592
894.918	4641
895.04	4634
895.161	4694
895.283	4664
895.405	4573
895.526	4592
895.648	4687
895.769	4645
895.891	4706
896.012	4786
896.134	4740
896.255	4683
896.376	4653
896.498	4603
896.619	4653
896.74	4565
896.861	4664
896.982	4919
897.103	5109
897.224	4858
897.345	4767
897.466	4649
897.587	4744
897.708	4850
897.828	4782
897.949	4656
898.07	4592
898.19	4637
898.311	4793
898.431	4656
898.552	4752
898.672	4763
898.792	4816
898.913	4672
899.033	4634
899.153	4493
899.273	4459
899.393	4478
899.513	4538
899.633	4535
899.753	4531
899.873	4504
899.993	4592
900.113	4531
900.232	4577
900.352	4535
900.472	4481
900.591	4371
900.711	4508
900.83	4417
900.95	4584
901.069	4618
901.189	4493
901.308	4383
901.427	4333
901.546	4348
901.665	4481
901.784	4523
901.904	4383
902.023	4284
902.141	4211
902.26	4181
902.379	4306
902.498	4246
902.617	4227
902.735	4363
902.854	4413
902.973	4344
903.091	4185
903.21	4257
903.328	4299
903.446	4238
903.565	4253
903.683	4379
903.801	4287
903.919	4428
904.038	4409
904.156	4299
904.274	4489
904.392	4363
904.51	4432
904.627	4455
904.745	4592
904.863	4607
904.981	4398
905.098	4306
905.216	4337
905.334	4436
905.451	4409
905.569	4413
905.686	4493
905.803	4573
905.921	4367
906.038	4584
906.155	4485
906.272	4390
906.389	4455
906.506	4318
906.623	4348
906.74	4379
906.857	4318
906.974	4295
907.091	4531
907.208	4687
907.324	4577
907.441	4455
907.557	4375
907.674	4337
907.79	4287
907.907	4337
908.023	4478
908.139	4440
908.256	4413
908.372	4478
908.488	4413
908.604	4371
908.72	4325
908.836	4375
908.952	4371
909.068	4424
909.184	4561
909.3	4447
909.415	4622
909.531	4531
909.647	4344
909.762	4398
909.878	4348
909.993	4451
910.108	4432
910.224	4440
910.339	4462
910.454	4447
910.57	4322
910.685	4268
910.8	4637
910.915	4607
911.03	4478
911.145	4265
911.259	4257
911.374	4363
911.489	4253
911.604	4219
911.718	4177
911.833	4177
911.947	4086
912.062	4006
912.176	4276
912.291	4253
912.405	4242
912.519	4478
912.633	4470
912.748	4337
912.862	4348
912.976	4177
913.09	4112
913.204	4204
913.318	4230
913.431	4383
913.545	4341
913.659	4436
913.772	4341
913.886	4242
914	4234
914.113	4360
914.226	4371
914.34	4421
914.453	4246
914.566	4402
914.68	4280
914.793	4314
914.906	4154
915.019	4105
915.132	4067
915.245	4185
915.358	4192
915.47	4242
915.583	4238
915.696	4280
915.809	4455
915.921	4428
916.034	4257
916.146	4272
916.259	4223
916.371	4413
916.483	4409
916.595	4280
916.708	4337
916.82	4310
916.932	4325
917.044	4295
917.156	4310
917.268	4219
917.38	4223
917.491	4211
917.603	4322
917.715	4402
917.826	4421
917.938	4337
918.049	4287
918.161	4367
918.272	4554
918.384	4535
918.495	4455
918.606	4265
918.717	4211
918.828	4310
918.939	4371
919.05	4211
919.161	4299
919.272	4128
919.383	4200
919.494	4443
919.604	4615
919.715	4432
919.826	4341
919.936	4432
920.047	4538
920.157	4462
920.267	4672
920.378	4550
920.488	4512
920.598	4694
920.708	4854
920.818	4763
920.928	4717
921.038	4911
921.148	4904
921.258	4573
921.368	4504
921.477	4474
921.587	4481
921.697	4341
921.806	4493
921.916	4470
922.025	4265
922.134	4272
922.244	4253
922.353	4299
922.462	4150
922.571	4128
922.68	3991
922.789	3991
922.898	4025
923.007	3960
923.116	4090
923.224	4051
923.333	4071
923.442	3968
923.55	3975
923.659	4025
923.767	4086
923.876	4025
923.984	4109
924.092	4006
924.201	4055
924.309	4067
924.417	4147
924.525	4036
924.633	4074
924.741	4873
924.849	3911
924.956	4147
925.064	3945
925.172	3884
925.279	3983
925.387	4055
925.494	4051
925.602	4188
925.709	4185
925.816	4048
925.924	4086
926.031	4196
926.138	4147
926.245	4196
926.352	4093
926.459	4223
926.566	4299
926.673	4158
926.779	4055
926.886	4071
926.993	3964
927.099	3960
927.206	3949
927.312	3945
927.419	4036
927.525	3994
927.631	4055
927.737	3956
927.843	3945
927.95	3880
928.056	3926
928.162	4010
928.267	4051
928.373	4656
928.479	4131
928.585	3876
928.69	4059
928.796	4048
928.901	3972
929.007	3880
929.112	4013
929.218	3956
929.323	3941
929.428	3922
929.533	4124
929.638	3930
929.743	3937
929.848	4025
929.953	3937
930.058	3941
930.163	3793
930.267	3831
930.372	3964
930.477	3800
930.581	4090
930.685	3911
930.79	3846
930.894	3899
930.998	3808
931.103	4017
931.207	3747
931.311	3698
931.415	3671
931.519	3538
931.623	3530
