Data from test_V78500241_2506.txt Node
Date: Fri Mar 25 17:06:25 CST 2022
User: usil
Spectrometer: V785-0024
Trigger mode: 0
Integration Time (sec): 4.000000E-1
Scans to average: 1
Nonlinearity correction enabled: false
Boxcar width: 0
Storing dark spectrum: false
XAxis mode: Wavelengths
Number of Pixels in Spectrum: 1024
>>>>>Begin Spectral Data<<<<<
801.071	8027
801.214	7997
801.356	7860
801.499	7833
801.641	7833
801.783	7887
801.926	7944
802.068	7925
802.211	7989
802.353	8027
802.496	7879
802.638	7940
802.78	7932
802.923	7894
803.065	7875
803.208	7833
803.35	7989
803.492	8084
803.635	8199
803.777	8008
803.919	8062
804.061	8514
804.204	8119
804.346	8046
804.488	8005
804.63	8157
804.773	7993
804.915	8164
805.057	8309
805.199	8214
805.341	8164
805.483	8301
805.626	8290
805.768	8187
805.91	8191
806.052	8229
806.194	8119
806.336	8320
806.478	8092
806.62	8043
806.762	8126
806.904	8279
807.046	8511
807.188	8351
807.33	8286
807.472	8294
807.614	8180
807.756	8161
807.898	7982
808.04	7902
808.182	7921
808.324	7826
808.465	7906
808.607	8107
808.749	8164
808.891	8286
809.033	8267
809.174	8237
809.316	8012
809.458	8123
809.6	7967
809.741	8001
809.883	8058
810.025	8123
810.166	8103
810.308	8062
810.45	7970
810.591	7871
810.733	7738
810.875	7670
811.016	7510
811.158	7468
811.299	7559
811.441	7769
811.582	7761
811.724	7655
811.865	7480
812.007	7639
812.148	7616
812.29	7605
812.431	7704
812.573	7818
812.714	8096
812.855	8161
812.997	8199
813.138	8336
813.279	8206
813.421	8031
813.562	7917
813.703	7830
813.845	7811
813.986	7426
814.127	7316
814.268	7244
814.41	7187
814.551	7209
814.692	7255
814.833	7129
814.974	7114
815.115	7145
815.256	6966
815.397	6935
815.539	6913
815.68	6867
815.821	6802
815.962	6863
816.103	6886
816.244	6703
816.385	6688
816.526	6604
816.666	6528
816.807	6361
816.948	6460
817.089	6498
817.23	6452
817.371	6372
817.512	6350
817.653	6422
817.793	6361
817.934	6433
818.075	6536
818.216	6414
818.356	6407
818.497	6247
818.638	6106
818.778	6167
818.919	6140
819.06	6167
819.2	6323
819.341	6357
819.481	6410
819.622	6574
819.762	6768
819.903	6719
820.043	6608
820.184	6555
820.324	6585
820.465	6738
820.605	6760
820.746	6604
820.886	6506
821.026	6650
821.167	6711
821.307	6810
821.447	6783
821.588	6722
821.728	6620
821.868	6475
822.008	6365
822.149	6399
822.289	6350
822.429	6129
822.569	6091
822.709	6148
822.849	5927
822.99	5859
823.13	5931
823.27	5916
823.41	5832
823.55	5798
823.69	5760
823.83	5828
823.97	5676
824.11	5520
824.25	5554
824.389	5554
824.529	5600
824.669	5528
824.809	5627
824.949	5688
825.089	5649
825.228	5532
825.368	5406
825.508	5364
825.648	5391
825.787	5402
825.927	5406
826.067	5299
826.206	5261
826.346	5414
826.485	5391
826.625	5395
826.765	5551
826.904	5509
827.044	5296
827.183	5212
827.323	5162
827.462	5242
827.601	5166
827.741	5166
827.88	5231
828.02	5147
828.159	5277
828.298	5345
828.437	5360
828.577	5341
828.716	5478
828.855	5349
828.994	5185
829.134	5109
829.273	5239
829.412	5197
829.551	5121
829.69	5166
829.829	5201
829.968	5341
830.107	5235
830.246	5303
830.385	5151
830.524	5140
830.663	5109
830.802	4938
830.941	4923
831.08	4896
831.219	5010
831.357	4946
831.496	5155
831.635	4987
831.774	4915
831.913	4881
832.051	4755
832.19	4820
832.329	4824
832.467	4725
832.606	4615
832.744	4733
832.883	4714
833.022	4744
833.16	4831
833.299	4835
833.437	4816
833.576	4854
833.714	4873
833.852	4889
833.991	4919
834.129	4972
834.267	4908
834.406	4889
834.544	4949
834.682	4980
834.821	4980
834.959	5143
835.097	4972
835.235	5174
835.373	5094
835.511	5067
835.65	5064
835.788	5003
835.926	4915
836.064	4870
836.202	4911
836.34	5162
836.478	5208
836.615	5140
836.753	5208
836.891	5265
837.029	5273
837.167	5208
837.305	5170
837.443	5147
837.58	5086
837.718	5284
837.856	5223
837.993	5170
838.131	5307
838.269	5197
838.406	5166
838.544	5193
838.681	5090
838.819	4991
838.956	4862
839.094	4965
839.231	5018
839.369	5064
839.506	5455
839.643	5280
839.781	5083
839.918	5052
840.055	5086
840.193	5098
840.33	5143
840.467	5162
840.604	5181
840.742	5509
840.879	5060
841.016	5090
841.153	5113
841.29	5444
841.427	5368
841.564	5299
841.701	5299
841.838	5254
841.975	5242
842.112	5269
842.249	5151
842.385	5075
842.522	5318
842.659	5178
842.796	5147
842.933	5223
843.069	5128
843.206	5174
843.343	5303
843.479	5261
843.616	5299
843.752	4995
843.889	5018
844.025	5197
844.162	5090
844.298	5189
844.435	5079
844.571	5071
844.708	5178
844.844	5307
844.98	5349
845.117	5357
845.253	5132
845.389	5102
845.525	5121
845.661	5201
845.798	5083
845.934	5147
846.07	5052
846.206	5212
846.342	5277
846.478	5204
846.614	5010
846.75	4949
846.886	4942
847.022	5170
847.158	5018
847.294	5025
847.429	5121
847.565	5071
847.701	5311
847.837	4873
847.972	4870
848.108	5003
848.244	4965
848.379	4755
848.515	4755
848.65	4714
848.786	4767
848.921	4793
849.057	4873
849.192	4915
849.328	4820
849.463	4870
849.598	4816
849.734	4740
849.869	4736
850.004	4611
850.14	4660
850.275	4634
850.41	4504
850.545	4580
850.68	4603
850.815	4641
850.95	4626
851.085	4843
851.22	4729
851.355	4637
851.49	4622
851.625	4641
851.76	4649
851.895	4596
852.03	4535
852.165	4672
852.299	4752
852.434	4778
852.569	4752
852.703	4714
852.838	4831
852.973	4919
853.107	4911
853.242	4778
853.376	4675
853.511	4538
853.645	4603
853.78	4805
853.914	4664
854.048	4599
854.183	4683
854.317	4710
854.451	4854
854.585	4717
854.72	4615
854.854	4782
854.988	4649
855.122	4649
855.256	4535
855.39	4672
855.524	4797
855.658	4717
855.792	4672
855.926	4694
856.06	4797
856.194	4786
856.327	4668
856.461	4607
856.595	4630
856.729	4641
856.862	4744
856.996	4672
857.13	4721
857.263	4786
857.397	4801
857.53	4656
857.664	4691
857.797	4698
857.931	4778
858.064	4702
858.197	4725
858.331	4603
858.464	4599
858.597	4493
858.731	4664
858.864	4668
858.997	4660
859.13	4656
859.263	4687
859.396	4725
859.529	4527
859.662	4538
859.795	4478
859.928	4592
860.061	4801
860.194	4740
860.327	4649
860.46	4596
860.592	4755
860.725	4679
860.858	4752
860.99	4508
861.123	4554
861.256	4550
861.388	4626
861.521	5242
861.653	4489
861.786	4451
861.918	4455
862.05	4504
862.183	4478
862.315	4592
862.447	4615
862.58	4546
862.712	4402
862.844	4314
862.976	4485
863.108	4417
863.24	4900
863.372	4356
863.504	4447
863.636	4417
863.768	4519
863.9	4459
864.032	4367
864.164	4386
864.296	4485
864.428	4516
864.559	4573
864.691	4573
864.823	4531
864.954	4535
865.086	4531
865.217	4413
865.349	4432
865.48	4466
865.612	4481
865.743	4626
865.875	4485
866.006	4432
866.137	4512
866.269	4447
866.4	4402
866.531	4424
866.662	4424
866.793	4390
866.924	4466
867.055	4504
867.186	4455
867.317	4440
867.448	4363
867.579	4421
867.71	4371
867.841	4383
867.972	4436
868.103	4432
868.233	4394
868.364	4447
868.495	4508
868.625	4672
868.756	4763
868.886	4550
869.017	4637
869.147	4790
869.278	4790
869.408	4630
869.539	4645
869.669	4752
869.799	4653
869.929	4740
870.06	4774
870.19	4919
870.32	4965
870.45	4919
870.58	4995
870.71	5041
870.84	5060
870.97	4946
871.1	4923
871.23	5105
871.36	5121
871.489	5071
871.619	5124
871.749	5121
871.879	5151
872.008	5136
872.138	5052
872.267	4980
872.397	4820
872.526	4786
872.656	4729
872.785	4824
872.915	4934
873.044	5037
873.173	4957
873.303	4984
873.432	4946
873.561	4957
873.69	4866
873.819	4911
873.948	4900
874.077	4786
874.206	4763
874.335	4748
874.464	4911
874.593	5056
874.722	4957
874.851	5060
874.979	5086
875.108	4991
875.237	4934
875.365	4896
875.494	4923
875.623	4957
875.751	4843
875.88	4889
876.008	4987
876.136	5090
876.265	5220
876.393	5296
876.521	5227
876.65	5204
876.778	5193
876.906	5064
877.034	5025
877.162	5083
877.29	4995
877.418	5102
877.546	5071
877.674	5010
877.802	5033
877.93	5003
878.058	4968
878.185	4858
878.313	4923
878.441	4968
878.568	4793
878.696	4881
878.824	4999
878.951	5025
879.079	5143
879.206	5326
879.333	5071
879.461	5022
879.588	5037
879.715	5083
879.842	5216
879.97	4972
880.097	4786
880.224	4755
880.351	4793
880.478	4786
880.605	4744
880.732	4759
880.859	5075
880.986	4896
881.112	4942
881.239	4786
881.366	4702
881.493	4596
881.619	4603
881.746	4656
881.872	4717
881.999	4615
882.125	4687
882.252	4755
882.378	4805
882.505	4923
882.631	4763
882.757	4664
882.883	4767
883.01	4714
883.136	4641
883.262	4626
883.388	4592
883.514	4755
883.64	4900
883.766	4729
883.892	4630
884.018	4744
884.143	4923
884.269	5041
884.395	4668
884.52	4588
884.646	4675
884.772	4558
884.897	4558
885.023	4641
885.148	4801
885.274	4866
885.399	4774
885.524	4744
885.65	4694
885.775	4786
885.9	4687
886.025	4850
886.15	4774
886.275	4748
886.4	4679
886.525	4771
886.65	4691
886.775	4706
886.9	4911
887.025	5010
887.149	4839
887.274	4649
887.399	4599
887.523	4550
887.648	4626
887.773	4561
887.897	4752
888.021	4755
888.146	4660
888.27	4847
888.395	4904
888.519	4805
888.643	4816
888.767	4824
888.891	4691
889.015	4611
889.139	4668
889.263	4599
889.387	4774
889.511	4854
889.635	4805
889.759	4622
889.883	4653
890.006	4694
890.13	4881
890.254	4596
890.377	4683
890.501	4493
890.624	4546
890.748	4599
890.871	4504
890.995	4421
891.118	4417
891.241	4500
891.364	4558
891.488	4634
891.611	4519
891.734	4508
891.857	4626
891.98	4550
892.103	4668
892.226	4550
892.349	4516
892.471	4417
892.594	4554
892.717	4645
892.839	4550
892.962	4599
893.085	4611
893.207	4577
893.33	4512
893.452	4504
893.575	4637
893.697	4577
893.819	4778
893.941	4835
894.064	4748
894.186	4573
894.308	4542
894.43	4721
894.552	4835
894.674	4702
894.796	4550
894.918	4584
895.04	4584
895.161	4687
895.283	4630
895.405	4550
895.526	4630
895.648	4710
895.769	4694
895.891	4668
896.012	4683
896.134	4740
896.255	4710
896.376	4588
896.498	4618
896.619	4664
896.74	4580
896.861	4675
896.982	4915
897.103	5052
897.224	4847
897.345	4763
897.466	4637
897.587	4721
897.708	4839
897.828	4774
897.949	4679
898.07	4569
898.19	4634
898.311	4828
898.431	4687
898.552	4687
898.672	4786
898.792	4786
898.913	4790
899.033	4611
899.153	4512
899.273	4424
899.393	4459
899.513	4512
899.633	4554
899.753	4535
899.873	4481
899.993	4580
900.113	4596
900.232	4637
900.352	4550
900.472	4504
900.591	4367
900.711	4478
900.83	4413
900.95	4554
901.069	4664
901.189	4535
901.308	4390
901.427	4333
901.546	4356
901.665	4383
901.784	4508
901.904	4402
902.023	4390
902.141	4253
902.26	4166
902.379	4295
902.498	4234
902.617	4246
902.735	4344
902.854	4386
902.973	4344
903.091	4162
903.21	4230
903.328	4314
903.446	4287
903.565	4272
903.683	4314
903.801	4303
903.919	4421
904.038	4436
904.156	4295
904.274	4451
904.392	4352
904.51	4447
904.627	4474
904.745	4588
904.863	4607
904.981	4398
905.098	4261
905.216	4363
905.334	4447
905.451	4436
905.569	4451
905.686	4561
905.803	4596
905.921	4451
906.038	4558
906.155	4459
906.272	4371
906.389	4481
906.506	4363
906.623	4363
906.74	4405
906.857	4337
906.974	4348
907.091	4592
907.208	4683
907.324	4561
907.441	4485
907.557	4405
907.674	4348
907.79	4276
907.907	4390
908.023	4451
908.139	4455
908.256	4417
908.372	4512
908.488	4432
908.604	4390
908.72	4341
908.836	4344
908.952	4329
909.068	4443
909.184	4603
909.3	4493
909.415	4554
909.531	4580
909.647	4371
909.762	4360
909.878	4303
909.993	4421
910.108	4409
910.224	4390
910.339	4462
910.454	4402
910.57	4356
910.685	4318
910.8	4626
910.915	4558
911.03	4489
911.145	4303
911.259	4284
911.374	4344
911.489	4318
911.604	4261
911.718	4150
911.833	4188
911.947	4055
912.062	4029
912.176	4207
912.291	4253
912.405	4234
912.519	4466
912.633	4500
912.748	4379
912.862	4310
912.976	4219
913.09	4112
913.204	4143
913.318	4257
913.431	4356
913.545	4341
913.659	4451
913.772	4383
913.886	4280
914	4219
914.113	4363
914.226	4447
914.34	4390
914.453	4230
914.566	4390
914.68	4318
914.793	4329
914.906	4124
915.019	4162
915.132	4082
915.245	4169
915.358	4192
915.47	4227
915.583	4238
915.696	4272
915.809	4363
915.921	4386
916.034	4299
916.146	4246
916.259	4204
916.371	4394
916.483	4356
916.595	4291
916.708	4303
916.82	4303
916.932	4306
917.044	4303
917.156	4322
917.268	4230
917.38	4329
917.491	4257
917.603	4329
917.715	4390
917.826	4405
917.938	4314
918.049	4280
918.161	4360
918.272	4588
918.384	4554
918.495	4447
918.606	4268
918.717	4249
918.828	4306
918.939	4367
919.05	4234
919.161	4329
919.272	4093
919.383	4242
919.494	4413
919.604	4649
919.715	4390
919.826	4306
919.936	4394
920.047	4561
920.157	4527
920.267	4717
920.378	4569
920.488	4489
920.598	4744
920.708	4816
920.818	4774
920.928	4763
921.038	4896
921.148	4923
921.258	4637
921.368	4573
921.477	4500
921.587	4481
921.697	4394
921.806	4584
921.916	4390
922.025	4303
922.134	4238
922.244	4238
922.353	4295
922.462	4166
922.571	4105
922.68	4002
922.789	3983
922.898	4006
923.007	4010
923.116	4086
923.224	4074
923.333	4120
923.442	3979
923.55	3968
923.659	4013
923.767	4128
923.876	3983
923.984	4078
924.092	4044
924.201	4082
924.309	4071
924.417	4112
924.525	4071
924.633	4067
924.741	4873
924.849	3930
924.956	4158
925.064	3960
925.172	3907
925.279	3934
925.387	4063
925.494	4063
925.602	4207
925.709	4181
925.816	4025
925.924	4074
926.031	4154
926.138	4150
926.245	4173
926.352	4082
926.459	4242
926.566	4287
926.673	4135
926.779	4059
926.886	4093
926.993	4032
927.099	3949
927.206	3888
927.312	3949
927.419	4025
927.525	4067
927.631	4078
927.737	3979
927.843	3956
927.95	3835
928.056	3930
928.162	3983
928.267	4021
928.373	4599
928.479	4082
928.585	3831
928.69	4017
928.796	4086
928.901	4013
929.007	3823
929.112	4021
929.218	3998
929.323	3953
929.428	3956
929.533	4128
929.638	3899
929.743	3975
929.848	4029
929.953	4002
930.058	3945
930.163	3785
930.267	3842
930.372	3960
930.477	3838
930.581	4074
930.685	3941
930.79	3835
930.894	3846
930.998	3838
931.103	4021
931.207	3690
931.311	3690
931.415	3690
931.519	3534
931.623	3568
