Data from test_V78500241_481.txt Node
Date: Fri Mar 25 16:52:20 CST 2022
User: usil
Spectrometer: V785-0024
Trigger mode: 0
Integration Time (sec): 4.000000E-1
Scans to average: 1
Nonlinearity correction enabled: false
Boxcar width: 0
Storing dark spectrum: false
XAxis mode: Wavelengths
Number of Pixels in Spectrum: 1024
>>>>>Begin Spectral Data<<<<<
801.071	8054
801.214	8050
801.356	7856
801.499	7822
801.641	7788
801.783	7860
801.926	8073
802.068	7932
802.211	8084
802.353	8031
802.496	7826
802.638	7917
802.78	7887
802.923	7902
803.065	7890
803.208	7845
803.35	7959
803.492	8031
803.635	8073
803.777	8035
803.919	8149
804.061	8450
804.204	8084
804.346	7970
804.488	7898
804.63	8027
804.773	7959
804.915	8058
805.057	8256
805.199	8214
805.341	8214
805.483	8218
805.626	8153
805.768	8043
805.91	8172
806.052	8195
806.194	8069
806.336	8267
806.478	8123
806.62	8103
806.762	8149
806.904	8233
807.046	8377
807.188	8396
807.33	8221
807.472	8294
807.614	8092
807.756	8111
807.898	8024
808.04	7845
808.182	7890
808.324	7909
808.465	7871
808.607	8020
808.749	8058
808.891	8214
809.033	8267
809.174	8172
809.316	7959
809.458	7963
809.6	8005
809.741	8031
809.883	7986
810.025	8119
810.166	8081
810.308	8035
810.45	8046
810.591	7887
810.733	7658
810.875	7677
811.016	7559
811.158	7540
811.299	7609
811.441	7830
811.582	7700
811.724	7559
811.865	7518
812.007	7605
812.148	7533
812.29	7620
812.431	7776
812.573	7906
812.714	8012
812.855	8172
812.997	8248
813.138	8362
813.279	8271
813.421	8195
813.562	8058
813.703	7879
813.845	7852
813.986	7514
814.127	7350
814.268	7289
814.41	7179
814.551	7141
814.692	7175
814.833	7080
814.974	7069
815.115	7114
815.256	6962
815.397	6916
815.539	6943
815.68	6852
815.821	6760
815.962	6894
816.103	6859
816.244	6688
816.385	6700
816.526	6582
816.666	6521
816.807	6277
816.948	6506
817.089	6490
817.23	6460
817.371	6376
817.512	6361
817.653	6403
817.793	6441
817.934	6391
818.075	6407
818.216	6441
818.356	6372
818.497	6254
818.638	6060
818.778	6110
818.919	6110
819.06	6148
819.2	6296
819.341	6304
819.481	6338
819.622	6490
819.762	6730
819.903	6722
820.043	6547
820.184	6506
820.324	6601
820.465	6665
820.605	6620
820.746	6665
820.886	6483
821.026	6623
821.167	6665
821.307	6844
821.447	6825
821.588	6719
821.728	6582
821.868	6494
822.008	6342
822.149	6334
822.289	6380
822.429	6133
822.569	6159
822.709	6159
822.849	5954
822.99	5942
823.13	5942
823.27	5950
823.41	5798
823.55	5794
823.69	5809
823.83	5813
823.97	5680
824.11	5566
824.25	5543
824.389	5592
824.529	5611
824.669	5577
824.809	5688
824.949	5676
825.089	5665
825.228	5524
825.368	5414
825.508	5391
825.648	5360
825.787	5410
825.927	5459
826.067	5360
826.206	5330
826.346	5414
826.485	5471
826.625	5436
826.765	5585
826.904	5516
827.044	5277
827.183	5235
827.323	5083
827.462	5311
827.601	5193
827.741	5223
827.88	5246
828.02	5201
828.159	5223
828.298	5337
828.437	5425
828.577	5315
828.716	5543
828.855	5353
828.994	5208
829.134	5212
829.273	5155
829.412	5193
829.551	5151
829.69	5174
829.829	5341
829.968	5417
830.107	5299
830.246	5303
830.385	5246
830.524	5208
830.663	5098
830.802	5014
830.941	4961
831.08	4919
831.219	5014
831.357	5006
831.496	5189
831.635	5003
831.774	4835
831.913	4892
832.051	4824
832.19	4790
832.329	4892
832.467	4710
832.606	4641
832.744	4816
832.883	4771
833.022	4782
833.16	4816
833.299	4805
833.437	4843
833.576	4896
833.714	4957
833.852	4923
833.991	4961
834.129	4949
834.267	5018
834.406	4904
834.544	5018
834.682	5033
834.821	5003
834.959	5185
835.097	5014
835.235	5185
835.373	5181
835.511	5159
835.65	5067
835.788	5071
835.926	4900
836.064	4949
836.202	4957
836.34	5151
836.478	5220
836.615	5162
836.753	5292
836.891	5337
837.029	5242
837.167	5216
837.305	5185
837.443	5174
837.58	5117
837.718	5292
837.856	5265
837.993	5212
838.131	5246
838.269	5261
838.406	5235
838.544	5212
838.681	5109
838.819	5086
838.956	4949
839.094	4961
839.231	5010
839.369	5124
839.506	5436
839.643	5307
839.781	5064
839.918	5029
840.055	5140
840.193	5185
840.33	5079
840.467	5178
840.604	5216
840.742	5516
840.879	5140
841.016	5098
841.153	5140
841.29	5398
841.427	5372
841.564	5395
841.701	5353
841.838	5246
841.975	5315
842.112	5303
842.249	5174
842.385	5128
842.522	5372
842.659	5212
842.796	5185
842.933	5208
843.069	5162
843.206	5189
843.343	5337
843.479	5254
843.616	5322
843.752	5022
843.889	4995
844.025	5318
844.162	5071
844.298	5261
844.435	5079
844.571	5113
844.708	5265
844.844	5345
844.98	5414
845.117	5311
845.253	5155
845.389	5071
845.525	5197
845.661	5201
845.798	5098
845.934	5216
846.07	5056
846.206	5216
846.342	5296
846.478	5208
846.614	5041
846.75	5037
846.886	5018
847.022	5197
847.158	5022
847.294	5086
847.429	5166
847.565	5102
847.701	5357
847.837	4854
847.972	4889
848.108	4995
848.244	4976
848.379	4870
848.515	4786
848.65	4801
848.786	4793
848.921	4828
849.057	4885
849.192	4904
849.328	4835
849.463	4828
849.598	4843
849.734	4809
849.869	4710
850.004	4706
850.14	4714
850.275	4656
850.41	4550
850.545	4622
850.68	4584
850.815	4656
850.95	4664
851.085	4885
851.22	4797
851.355	4664
851.49	4577
851.625	4645
851.76	4649
851.895	4626
852.03	4565
852.165	4691
852.299	4702
852.434	4767
852.569	4759
852.703	4801
852.838	4862
852.973	4991
853.107	4919
853.242	4694
853.376	4706
853.511	4565
853.645	4660
853.78	4831
853.914	4698
854.048	4656
854.183	4660
854.317	4767
854.451	4866
854.585	4717
854.72	4645
854.854	4797
854.988	4577
855.122	4694
855.256	4558
855.39	4668
855.524	4885
855.658	4797
855.792	4725
855.926	4767
856.06	4774
856.194	4831
856.327	4717
856.461	4626
856.595	4660
856.729	4668
856.862	4752
856.996	4714
857.13	4759
857.263	4790
857.397	4797
857.53	4683
857.664	4744
857.797	4790
857.931	4782
858.064	4790
858.197	4797
858.331	4714
858.464	4653
858.597	4542
858.731	4634
858.864	4618
858.997	4592
859.13	4668
859.263	4683
859.396	4767
859.529	4611
859.662	4538
859.795	4577
859.928	4622
860.061	4801
860.194	4793
860.327	4630
860.46	4584
860.592	4725
860.725	4725
860.858	4721
860.99	4645
861.123	4523
861.256	4588
861.388	4649
861.521	5368
861.653	4527
861.786	4470
861.918	4504
862.05	4527
862.183	4561
862.315	4649
862.447	4656
862.58	4527
862.712	4432
862.844	4348
862.976	4542
863.108	4428
863.24	4862
863.372	4383
863.504	4428
863.636	4470
863.768	4546
863.9	4432
864.032	4409
864.164	4424
864.296	4493
864.428	4611
864.559	4580
864.691	4584
864.823	4561
864.954	4466
865.086	4546
865.217	4497
865.349	4462
865.48	4481
865.612	4542
865.743	4664
865.875	4489
866.006	4436
866.137	4485
866.269	4459
866.4	4447
866.531	4447
866.662	4421
866.793	4440
866.924	4474
867.055	4489
867.186	4508
867.317	4436
867.448	4383
867.579	4356
867.71	4417
867.841	4383
867.972	4485
868.103	4489
868.233	4470
868.364	4470
868.495	4531
868.625	4660
868.756	4786
868.886	4622
869.017	4653
869.147	4797
869.278	4767
869.408	4698
869.539	4725
869.669	4740
869.799	4744
869.929	4767
870.06	4748
870.19	4972
870.32	4934
870.45	5006
870.58	5086
870.71	5140
870.84	5113
870.97	4976
871.1	4934
871.23	5193
871.36	5193
871.489	5037
871.619	5064
871.749	5094
871.879	5143
872.008	5140
872.138	5037
872.267	5060
872.397	4892
872.526	4801
872.656	4755
872.785	4862
872.915	5003
873.044	5067
873.173	4999
873.303	4946
873.432	5022
873.561	4953
873.69	4889
873.819	4930
873.948	4927
874.077	4881
874.206	4733
874.335	4831
874.464	4938
874.593	5098
874.722	4968
874.851	5151
874.979	5045
875.108	5075
875.237	4961
875.365	4911
875.494	4923
875.623	5022
875.751	4854
875.88	4870
876.008	5003
876.136	5105
876.265	5197
876.393	5368
876.521	5299
876.65	5208
876.778	5162
876.906	5083
877.034	5045
877.162	5094
877.29	5064
877.418	5067
877.546	5086
877.674	5090
877.802	5083
877.93	5048
878.058	4911
878.185	4930
878.313	4976
878.441	4965
878.568	4778
878.696	4919
878.824	4946
878.951	5029
879.079	5155
879.206	5273
879.333	5090
879.461	5045
879.588	5045
879.715	5132
879.842	5280
879.97	5033
880.097	4831
880.224	4767
880.351	4828
880.478	4866
880.605	4812
880.732	4824
880.859	5117
880.986	4850
881.112	4938
881.239	4771
881.366	4645
881.493	4611
881.619	4599
881.746	4687
881.872	4641
881.999	4611
882.125	4706
882.252	4786
882.378	4847
882.505	4976
882.631	4850
882.757	4702
882.883	4763
883.01	4763
883.136	4702
883.262	4637
883.388	4649
883.514	4771
883.64	4858
883.766	4790
883.892	4710
884.018	4702
884.143	4904
884.269	5048
884.395	4744
884.52	4637
884.646	4645
884.772	4656
884.897	4561
885.023	4714
885.148	4774
885.274	4877
885.399	4831
885.524	4698
885.65	4729
885.775	4771
885.9	4733
886.025	4889
886.15	4831
886.275	4702
886.4	4679
886.525	4740
886.65	4675
886.775	4706
886.9	4892
887.025	5014
887.149	4824
887.274	4687
887.399	4573
887.523	4577
887.648	4561
887.773	4603
887.897	4736
888.021	4736
888.146	4660
888.27	4820
888.395	4930
888.519	4824
888.643	4801
888.767	4847
888.891	4740
889.015	4622
889.139	4687
889.263	4577
889.387	4812
889.511	4908
889.635	4843
889.759	4656
889.883	4672
890.006	4744
890.13	4843
890.254	4649
890.377	4683
890.501	4565
890.624	4580
890.748	4656
890.871	4497
890.995	4481
891.118	4398
891.241	4519
891.364	4561
891.488	4660
891.611	4558
891.734	4554
891.857	4580
891.98	4592
892.103	4672
892.226	4607
892.349	4535
892.471	4462
892.594	4535
892.717	4653
892.839	4592
892.962	4649
893.085	4691
893.207	4611
893.33	4504
893.452	4565
893.575	4622
893.697	4577
893.819	4801
893.941	4847
894.064	4797
894.186	4592
894.308	4573
894.43	4744
894.552	4790
894.674	4736
894.796	4550
894.918	4634
895.04	4569
895.161	4717
895.283	4664
895.405	4599
895.526	4630
895.648	4660
895.769	4691
895.891	4740
896.012	4793
896.134	4694
896.255	4645
896.376	4653
896.498	4675
896.619	4687
896.74	4573
896.861	4664
896.982	4919
897.103	5056
897.224	4843
897.345	4744
897.466	4645
897.587	4710
897.708	4915
897.828	4858
897.949	4649
898.07	4573
898.19	4630
898.311	4831
898.431	4687
898.552	4767
898.672	4820
898.792	4767
898.913	4763
899.033	4668
899.153	4500
899.273	4424
899.393	4531
899.513	4577
899.633	4523
899.753	4546
899.873	4527
899.993	4565
900.113	4615
900.232	4603
900.352	4546
900.472	4542
900.591	4405
900.711	4527
900.83	4424
900.95	4630
901.069	4706
901.189	4512
901.308	4413
901.427	4344
901.546	4390
901.665	4504
901.784	4493
901.904	4367
902.023	4333
902.141	4200
902.26	4192
902.379	4356
902.498	4246
902.617	4242
902.735	4432
902.854	4386
902.973	4383
903.091	4238
903.21	4265
903.328	4314
903.446	4291
903.565	4234
903.683	4356
903.801	4276
903.919	4394
904.038	4447
904.156	4329
904.274	4459
904.392	4394
904.51	4481
904.627	4443
904.745	4603
904.863	4634
904.981	4390
905.098	4341
905.216	4398
905.334	4413
905.451	4424
905.569	4455
905.686	4596
905.803	4569
905.921	4417
906.038	4542
906.155	4459
906.272	4428
906.389	4432
906.506	4348
906.623	4394
906.74	4428
906.857	4314
906.974	4459
907.091	4592
907.208	4706
907.324	4561
907.441	4497
907.557	4360
907.674	4363
907.79	4348
907.907	4383
908.023	4508
908.139	4451
908.256	4421
908.372	4489
908.488	4455
908.604	4318
908.72	4303
908.836	4379
908.952	4360
909.068	4424
909.184	4573
909.3	4485
909.415	4546
909.531	4580
909.647	4371
909.762	4428
909.878	4379
909.993	4394
910.108	4413
910.224	4379
910.339	4493
910.454	4443
910.57	4360
910.685	4322
910.8	4660
910.915	4592
911.03	4508
911.145	4348
911.259	4352
911.374	4356
911.489	4306
911.604	4287
911.718	4200
911.833	4169
911.947	4097
912.062	4071
912.176	4238
912.291	4268
912.405	4284
912.519	4474
912.633	4508
912.748	4386
912.862	4341
912.976	4196
913.09	4105
913.204	4185
913.318	4268
913.431	4417
913.545	4386
913.659	4398
913.772	4356
913.886	4261
914	4211
914.113	4398
914.226	4440
914.34	4447
914.453	4249
914.566	4447
914.68	4306
914.793	4333
914.906	4188
915.019	4154
915.132	4090
915.245	4166
915.358	4227
915.47	4223
915.583	4280
915.696	4291
915.809	4386
915.921	4470
916.034	4242
916.146	4322
916.259	4219
916.371	4424
916.483	4360
916.595	4299
916.708	4325
916.82	4325
916.932	4341
917.044	4322
917.156	4344
917.268	4253
917.38	4280
917.491	4287
917.603	4379
917.715	4432
917.826	4405
917.938	4333
918.049	4215
918.161	4428
918.272	4542
918.384	4538
918.495	4436
918.606	4272
918.717	4257
918.828	4356
918.939	4318
919.05	4310
919.161	4367
919.272	4124
919.383	4253
919.494	4443
919.604	4607
919.715	4451
919.826	4394
919.936	4398
920.047	4550
920.157	4481
920.267	4740
920.378	4535
920.488	4527
920.598	4721
920.708	4847
920.818	4748
920.928	4767
921.038	4930
921.148	4942
921.258	4607
921.368	4588
921.477	4497
921.587	4470
921.697	4371
921.806	4592
921.916	4424
922.025	4284
922.134	4265
922.244	4188
922.353	4322
922.462	4192
922.571	4120
922.68	4044
922.789	3998
922.898	4025
923.007	4025
923.116	4131
923.224	4048
923.333	4063
923.442	4029
923.55	3987
923.659	4055
923.767	4158
923.876	3991
923.984	4135
924.092	3979
924.201	4048
924.309	4128
924.417	4097
924.525	4071
924.633	4112
924.741	5094
924.849	3953
924.956	4082
925.064	3949
925.172	3907
925.279	3960
925.387	4051
925.494	4067
925.602	4204
925.709	4234
925.816	4048
925.924	4109
926.031	4230
926.138	4124
926.245	4196
926.352	4120
926.459	4280
926.566	4341
926.673	4150
926.779	4067
926.886	4086
926.993	3991
927.099	3953
927.206	3945
927.312	3903
927.419	4029
927.525	4021
927.631	4082
927.737	3972
927.843	3941
927.95	3880
928.056	3934
928.162	4002
928.267	4036
928.373	4691
928.479	4143
928.585	3842
928.69	4032
928.796	4078
928.901	3953
929.007	3823
929.112	3983
929.218	3983
929.323	3983
929.428	3956
929.533	4105
929.638	3884
929.743	3994
929.848	3994
929.953	4036
930.058	3945
930.163	3766
930.267	3842
930.372	3964
930.477	3854
930.581	4093
930.685	3915
930.79	3816
930.894	3861
930.998	3854
931.103	4017
931.207	3713
931.311	3679
931.415	3717
931.519	3549
931.623	3584
