Data from test_V78500241_524.txt Node
Date: Fri Mar 25 16:52:38 CST 2022
User: usil
Spectrometer: V785-0024
Trigger mode: 0
Integration Time (sec): 4.000000E-1
Scans to average: 1
Nonlinearity correction enabled: false
Boxcar width: 0
Storing dark spectrum: false
XAxis mode: Wavelengths
Number of Pixels in Spectrum: 1024
>>>>>Begin Spectral Data<<<<<
801.071	7978
801.214	7974
801.356	7860
801.499	7792
801.641	7826
801.783	7879
801.926	8027
802.068	7932
802.211	7993
802.353	8142
802.496	7871
802.638	7871
802.78	7986
802.923	7936
803.065	7852
803.208	7822
803.35	7951
803.492	8031
803.635	8065
803.777	7978
803.919	8145
804.061	8408
804.204	8092
804.346	8073
804.488	7944
804.63	8081
804.773	7986
804.915	8088
805.057	8248
805.199	8168
805.341	8191
805.483	8259
805.626	8214
805.768	8081
805.91	8126
806.052	8195
806.194	8100
806.336	8267
806.478	8103
806.62	8103
806.762	8183
806.904	8305
807.046	8419
807.188	8294
807.33	8240
807.472	8298
807.614	8111
807.756	8134
807.898	7997
808.04	7921
808.182	7913
808.324	7868
808.465	7879
808.607	8012
808.749	8077
808.891	8244
809.033	8282
809.174	8138
809.316	8054
809.458	8096
809.6	7917
809.741	8100
809.883	8020
810.025	8054
810.166	8039
810.308	8062
810.45	8031
810.591	7928
810.733	7811
810.875	7651
811.016	7609
811.158	7563
811.299	7616
811.441	7708
811.582	7757
811.724	7609
811.865	7586
812.007	7586
812.148	7651
812.29	7613
812.431	7761
812.573	7909
812.714	8077
812.855	8164
812.997	8244
813.138	8404
813.279	8221
813.421	8191
813.562	8031
813.703	8016
813.845	7837
813.986	7563
814.127	7358
814.268	7305
814.41	7251
814.551	7263
814.692	7187
814.833	7118
814.974	7221
815.115	7133
815.256	6973
815.397	7042
815.539	7004
815.68	6897
815.821	6859
815.962	6932
816.103	6916
816.244	6726
816.385	6700
816.526	6658
816.666	6460
816.807	6346
816.948	6532
817.089	6502
817.23	6521
817.371	6483
817.512	6399
817.653	6490
817.793	6327
817.934	6448
818.075	6555
818.216	6483
818.356	6429
818.497	6205
818.638	6087
818.778	6163
818.919	6133
819.06	6140
819.2	6346
819.341	6327
819.481	6369
819.622	6525
819.762	6745
819.903	6772
820.043	6658
820.184	6662
820.324	6665
820.465	6700
820.605	6658
820.746	6627
820.886	6547
821.026	6707
821.167	6707
821.307	6818
821.447	6791
821.588	6715
821.728	6578
821.868	6502
822.008	6327
822.149	6376
822.289	6464
822.429	6144
822.569	6159
822.709	6148
822.849	5942
822.99	5935
823.13	5893
823.27	5893
823.41	5790
823.55	5794
823.69	5832
823.83	5847
823.97	5707
824.11	5577
824.25	5558
824.389	5585
824.529	5646
824.669	5535
824.809	5672
824.949	5676
825.089	5657
825.228	5570
825.368	5452
825.508	5395
825.648	5315
825.787	5383
825.927	5395
826.067	5330
826.206	5357
826.346	5402
826.485	5455
826.625	5467
826.765	5532
826.904	5474
827.044	5303
827.183	5216
827.323	5128
827.462	5258
827.601	5223
827.741	5231
827.88	5231
828.02	5109
828.159	5261
828.298	5330
828.437	5383
828.577	5299
828.716	5455
828.855	5360
828.994	5189
829.134	5208
829.273	5277
829.412	5174
829.551	5121
829.69	5181
829.829	5265
829.968	5383
830.107	5284
830.246	5353
830.385	5162
830.524	5151
830.663	5083
830.802	4965
830.941	4900
831.08	4911
831.219	4927
831.357	4987
831.496	5181
831.635	4911
831.774	4870
831.913	4839
832.051	4801
832.19	4820
832.329	4911
832.467	4740
832.606	4675
832.744	4752
832.883	4793
833.022	4733
833.16	4828
833.299	4847
833.437	4862
833.576	4870
833.714	4904
833.852	4881
833.991	4870
834.129	4923
834.267	4987
834.406	4927
834.544	5033
834.682	4987
834.821	4995
834.959	5185
835.097	5003
835.235	5204
835.373	5056
835.511	5124
835.65	5029
835.788	5048
835.926	4908
836.064	4896
836.202	4946
836.34	5147
836.478	5280
836.615	5147
836.753	5242
836.891	5315
837.029	5265
837.167	5201
837.305	5212
837.443	5159
837.58	5124
837.718	5258
837.856	5197
837.993	5178
838.131	5212
838.269	5239
838.406	5250
838.544	5178
838.681	5079
838.819	5018
838.956	4923
839.094	4915
839.231	4991
839.369	5132
839.506	5425
839.643	5242
839.781	5098
839.918	5014
840.055	5109
840.193	5121
840.33	5121
840.467	5162
840.604	5277
840.742	5490
840.879	5113
841.016	5143
841.153	5166
841.29	5402
841.427	5330
841.564	5318
841.701	5395
841.838	5265
841.975	5239
842.112	5254
842.249	5136
842.385	5140
842.522	5357
842.659	5162
842.796	5181
842.933	5212
843.069	5121
843.206	5193
843.343	5341
843.479	5227
843.616	5288
843.752	4995
843.889	5022
844.025	5239
844.162	5067
844.298	5269
844.435	5121
844.571	5094
844.708	5227
844.844	5322
844.98	5353
845.117	5303
845.253	5185
845.389	5090
845.525	5170
845.661	5121
845.798	5083
845.934	5181
846.07	5067
846.206	5231
846.342	5311
846.478	5231
846.614	5064
846.75	4991
846.886	4961
847.022	5166
847.158	5014
847.294	5105
847.429	5151
847.565	5113
847.701	5360
847.837	4881
847.972	4828
848.108	4972
848.244	4965
848.379	4843
848.515	4755
848.65	4702
848.786	4755
848.921	4828
849.057	4900
849.192	4934
849.328	4847
849.463	4892
849.598	4854
849.734	4778
849.869	4694
850.004	4645
850.14	4683
850.275	4645
850.41	4535
850.545	4565
850.68	4592
850.815	4641
850.95	4664
851.085	4831
851.22	4778
851.355	4660
851.49	4641
851.625	4683
851.76	4611
851.895	4584
852.03	4596
852.165	4649
852.299	4771
852.434	4843
852.569	4763
852.703	4828
852.838	4862
852.973	4923
853.107	4923
853.242	4755
853.376	4664
853.511	4580
853.645	4626
853.78	4774
853.914	4706
854.048	4645
854.183	4645
854.317	4679
854.451	4850
854.585	4683
854.72	4630
854.854	4782
854.988	4607
855.122	4626
855.256	4478
855.39	4714
855.524	4828
855.658	4717
855.792	4714
855.926	4797
856.06	4778
856.194	4820
856.327	4702
856.461	4622
856.595	4615
856.729	4580
856.862	4767
856.996	4736
857.13	4748
857.263	4748
857.397	4870
857.53	4653
857.664	4733
857.797	4774
857.931	4793
858.064	4694
858.197	4748
858.331	4710
858.464	4607
858.597	4527
858.731	4679
858.864	4702
858.997	4580
859.13	4687
859.263	4736
859.396	4702
859.529	4637
859.662	4588
859.795	4573
859.928	4622
860.061	4755
860.194	4816
860.327	4630
860.46	4588
860.592	4687
860.725	4714
860.858	4759
860.99	4588
861.123	4519
861.256	4527
861.388	4660
861.521	5452
861.653	4493
861.786	4500
861.918	4481
862.05	4558
862.183	4561
862.315	4592
862.447	4675
862.58	4550
862.712	4417
862.844	4363
862.976	4512
863.108	4474
863.24	4934
863.372	4383
863.504	4424
863.636	4379
863.768	4489
863.9	4462
864.032	4371
864.164	4424
864.296	4519
864.428	4573
864.559	4573
864.691	4565
864.823	4535
864.954	4474
865.086	4523
865.217	4485
865.349	4421
865.48	4504
865.612	4523
865.743	4668
865.875	4459
866.006	4424
866.137	4489
866.269	4436
866.4	4481
866.531	4417
866.662	4451
866.793	4428
866.924	4367
867.055	4504
867.186	4481
867.317	4474
867.448	4398
867.579	4409
867.71	4436
867.841	4375
867.972	4466
868.103	4481
868.233	4481
868.364	4493
868.495	4497
868.625	4672
868.756	4771
868.886	4588
869.017	4653
869.147	4797
869.278	4752
869.408	4672
869.539	4611
869.669	4721
869.799	4641
869.929	4782
870.06	4733
870.19	4961
870.32	4934
870.45	4965
870.58	5052
870.71	5105
870.84	5094
870.97	4953
871.1	4900
871.23	5143
871.36	5185
871.489	5029
871.619	5041
871.749	5090
871.879	5136
872.008	5147
872.138	5102
872.267	4999
872.397	4828
872.526	4790
872.656	4767
872.785	4839
872.915	4968
873.044	5086
873.173	4999
873.303	4976
873.432	5006
873.561	4942
873.69	4919
873.819	4870
873.948	4934
874.077	4793
874.206	4714
874.335	4767
874.464	4915
874.593	5102
874.722	4999
874.851	5151
874.979	5060
875.108	5022
875.237	4923
875.365	4896
875.494	4885
875.623	4968
875.751	4858
875.88	4919
876.008	4999
876.136	5025
876.265	5250
876.393	5292
876.521	5269
876.65	5273
876.778	5197
876.906	5121
877.034	5010
877.162	5086
877.29	5014
877.418	5083
877.546	5052
877.674	5022
877.802	5079
877.93	5014
878.058	4938
878.185	4908
878.313	4976
878.441	5018
878.568	4778
878.696	4938
878.824	5010
878.951	4980
879.079	5140
879.206	5326
879.333	5155
879.461	4968
879.588	5052
879.715	5140
879.842	5201
879.97	5006
880.097	4721
880.224	4782
880.351	4835
880.478	4866
880.605	4793
880.732	4805
880.859	5098
880.986	4892
881.112	4957
881.239	4820
881.366	4664
881.493	4637
881.619	4569
881.746	4668
881.872	4717
881.999	4656
882.125	4660
882.252	4790
882.378	4843
882.505	4980
882.631	4812
882.757	4672
882.883	4740
883.01	4793
883.136	4691
883.262	4630
883.388	4656
883.514	4828
883.64	4843
883.766	4786
883.892	4660
884.018	4759
884.143	4885
884.269	5056
884.395	4664
884.52	4641
884.646	4664
884.772	4584
884.897	4569
885.023	4664
885.148	4748
885.274	4862
885.399	4839
885.524	4717
885.65	4714
885.775	4733
885.9	4744
886.025	4881
886.15	4778
886.275	4736
886.4	4736
886.525	4748
886.65	4698
886.775	4664
886.9	4904
887.025	5014
887.149	4805
887.274	4664
887.399	4603
887.523	4637
887.648	4618
887.773	4577
887.897	4778
888.021	4782
888.146	4656
888.27	4824
888.395	4923
888.519	4805
888.643	4801
888.767	4854
888.891	4672
889.015	4615
889.139	4641
889.263	4607
889.387	4759
889.511	4873
889.635	4805
889.759	4641
889.883	4641
890.006	4714
890.13	4805
890.254	4653
890.377	4653
890.501	4523
890.624	4565
890.748	4641
890.871	4497
890.995	4432
891.118	4440
891.241	4516
891.364	4531
891.488	4622
891.611	4462
891.734	4561
891.857	4637
891.98	4538
892.103	4649
892.226	4592
892.349	4527
892.471	4428
892.594	4519
892.717	4607
892.839	4565
892.962	4577
893.085	4691
893.207	4580
893.33	4489
893.452	4516
893.575	4622
893.697	4637
893.819	4843
893.941	4850
894.064	4805
894.186	4577
894.308	4592
894.43	4748
894.552	4831
894.674	4759
894.796	4558
894.918	4630
895.04	4584
895.161	4706
895.283	4675
895.405	4584
895.526	4630
895.648	4698
895.769	4721
895.891	4740
896.012	4763
896.134	4733
896.255	4668
896.376	4634
896.498	4668
896.619	4721
896.74	4641
896.861	4634
896.982	4934
897.103	5102
897.224	4835
897.345	4767
897.466	4664
897.587	4694
897.708	4862
897.828	4790
897.949	4679
898.07	4565
898.19	4588
898.311	4812
898.431	4683
898.552	4786
898.672	4824
898.792	4824
898.913	4797
899.033	4584
899.153	4516
899.273	4402
899.393	4527
899.513	4516
899.633	4538
899.753	4573
899.873	4531
899.993	4584
900.113	4535
900.232	4523
900.352	4558
900.472	4561
900.591	4405
900.711	4504
900.83	4440
900.95	4637
901.069	4717
901.189	4538
901.308	4371
901.427	4314
901.546	4432
901.665	4478
901.784	4516
901.904	4386
902.023	4356
902.141	4215
902.26	4135
902.379	4287
902.498	4246
902.617	4215
902.735	4405
902.854	4409
902.973	4341
903.091	4211
903.21	4223
903.328	4303
903.446	4272
903.565	4219
903.683	4318
903.801	4306
903.919	4402
904.038	4417
904.156	4322
904.274	4424
904.392	4436
904.51	4455
904.627	4470
904.745	4603
904.863	4592
904.981	4424
905.098	4306
905.216	4402
905.334	4447
905.451	4413
905.569	4424
905.686	4523
905.803	4527
905.921	4413
906.038	4485
906.155	4485
906.272	4390
906.389	4447
906.506	4348
906.623	4348
906.74	4375
906.857	4333
906.974	4409
907.091	4588
907.208	4660
907.324	4573
907.441	4512
907.557	4363
907.674	4363
907.79	4348
907.907	4383
908.023	4485
908.139	4470
908.256	4459
908.372	4474
908.488	4447
908.604	4367
908.72	4329
908.836	4455
908.952	4398
909.068	4436
909.184	4596
909.3	4497
909.415	4569
909.531	4527
909.647	4356
909.762	4383
909.878	4352
909.993	4459
910.108	4413
910.224	4394
910.339	4432
910.454	4379
910.57	4428
910.685	4310
910.8	4706
910.915	4615
911.03	4516
911.145	4306
911.259	4314
911.374	4394
911.489	4318
911.604	4310
911.718	4143
911.833	4188
911.947	4109
912.062	4032
912.176	4230
912.291	4227
912.405	4272
912.519	4459
912.633	4485
912.748	4398
912.862	4325
912.976	4215
913.09	4093
913.204	4135
913.318	4284
913.431	4371
913.545	4421
913.659	4432
913.772	4371
913.886	4261
914	4246
914.113	4344
914.226	4405
914.34	4379
914.453	4219
914.566	4424
914.68	4303
914.793	4371
914.906	4162
915.019	4112
915.132	4071
915.245	4211
915.358	4238
915.47	4207
915.583	4291
915.696	4306
915.809	4451
915.921	4440
916.034	4242
916.146	4223
916.259	4158
916.371	4383
916.483	4367
916.595	4284
916.708	4333
916.82	4303
916.932	4295
917.044	4322
917.156	4303
917.268	4246
917.38	4322
917.491	4249
917.603	4341
917.715	4413
917.826	4428
917.938	4379
918.049	4261
918.161	4344
918.272	4546
918.384	4500
918.495	4459
918.606	4306
918.717	4249
918.828	4322
918.939	4341
919.05	4253
919.161	4318
919.272	4139
919.383	4242
919.494	4455
919.604	4630
919.715	4398
919.826	4329
919.936	4413
920.047	4489
920.157	4424
920.267	4710
920.378	4535
920.488	4558
920.598	4763
920.708	4900
920.818	4778
920.928	4733
921.038	4949
921.148	4927
921.258	4649
921.368	4596
921.477	4485
921.587	4466
921.697	4390
921.806	4554
921.916	4428
922.025	4303
922.134	4272
922.244	4238
922.353	4360
922.462	4177
922.571	4101
922.68	3998
922.789	3956
922.898	4055
923.007	3972
923.116	4093
923.224	4067
923.333	4109
923.442	4006
923.55	4002
923.659	4025
923.767	4158
923.876	4051
923.984	4169
924.092	3987
924.201	4093
924.309	4112
924.417	4169
924.525	4044
924.633	4109
924.741	5067
924.849	3937
924.956	4109
925.064	3960
925.172	3846
925.279	3960
925.387	4074
925.494	4090
925.602	4215
925.709	4188
925.816	4029
925.924	4112
926.031	4246
926.138	4112
926.245	4215
926.352	4059
926.459	4249
926.566	4314
926.673	4147
926.779	4067
926.886	4074
926.993	4013
927.099	3949
927.206	3949
927.312	3926
927.419	4029
927.525	4017
927.631	4078
927.737	3983
927.843	3945
927.95	3846
928.056	3968
928.162	3991
928.267	4040
928.373	4721
928.479	4139
928.585	3884
928.69	4013
928.796	4093
928.901	4010
929.007	3857
929.112	3979
929.218	3975
929.323	3934
929.428	3937
929.533	4128
929.638	3949
929.743	3983
929.848	4051
929.953	4021
930.058	3949
930.163	3774
930.267	3854
930.372	3987
930.477	3789
930.581	4090
930.685	3964
930.79	3816
930.894	3884
930.998	3838
931.103	4032
931.207	3747
931.311	3713
931.415	3667
931.519	3542
931.623	3568
