Data from test_V78500241_587.txt Node
Date: Fri Mar 25 16:53:05 CST 2022
User: usil
Spectrometer: V785-0024
Trigger mode: 0
Integration Time (sec): 4.000000E-1
Scans to average: 1
Nonlinearity correction enabled: false
Boxcar width: 0
Storing dark spectrum: false
XAxis mode: Wavelengths
Number of Pixels in Spectrum: 1024
>>>>>Begin Spectral Data<<<<<
801.071	8043
801.214	8069
801.356	7830
801.499	7906
801.641	7792
801.783	7814
801.926	8020
802.068	7955
802.211	7993
802.353	7982
802.496	7849
802.638	7898
802.78	7849
802.923	7887
803.065	7852
803.208	7792
803.35	8016
803.492	8027
803.635	8138
803.777	8031
803.919	8123
804.061	8434
804.204	8187
804.346	8043
804.488	7989
804.63	8065
804.773	7989
804.915	8145
805.057	8275
805.199	8172
805.341	8225
805.483	8355
805.626	8221
805.768	8062
805.91	8149
806.052	8210
806.194	8107
806.336	8328
806.478	8111
806.62	8096
806.762	8115
806.904	8259
807.046	8423
807.188	8355
807.33	8252
807.472	8358
807.614	8202
807.756	8123
807.898	8001
808.04	7906
808.182	7902
808.324	7906
808.465	7902
808.607	8016
808.749	8176
808.891	8267
809.033	8248
809.174	8119
809.316	8145
809.458	8062
809.6	7997
809.741	8046
809.883	8039
810.025	8005
810.166	8046
810.308	7967
810.45	8024
810.591	7852
810.733	7689
810.875	7685
811.016	7529
811.158	7506
811.299	7609
811.441	7772
811.582	7693
811.724	7559
811.865	7578
812.007	7578
812.148	7628
812.29	7670
812.431	7708
812.573	7883
812.714	7989
812.855	8138
812.997	8237
813.138	8442
813.279	8191
813.421	8119
813.562	7986
813.703	7917
813.845	7803
813.986	7495
814.127	7339
814.268	7278
814.41	7164
814.551	7209
814.692	7217
814.833	7034
814.974	7091
815.115	7149
815.256	6981
815.397	6894
815.539	6970
815.68	6894
815.821	6818
815.962	6916
816.103	6863
816.244	6719
816.385	6642
816.526	6631
816.666	6509
816.807	6315
816.948	6498
817.089	6467
817.23	6422
817.371	6365
817.512	6308
817.653	6338
817.793	6357
817.934	6422
818.075	6422
818.216	6464
818.356	6475
818.497	6247
818.638	6091
818.778	6159
818.919	6121
819.06	6117
819.2	6304
819.341	6331
819.481	6365
819.622	6536
819.762	6703
819.903	6673
820.043	6582
820.184	6582
820.324	6570
820.465	6665
820.605	6616
820.746	6608
820.886	6540
821.026	6589
821.167	6696
821.307	6745
821.447	6711
821.588	6627
821.728	6547
821.868	6547
822.008	6258
822.149	6334
822.289	6262
822.429	6129
822.569	6072
822.709	6117
822.849	5927
822.99	5863
823.13	5901
823.27	5935
823.41	5756
823.55	5809
823.69	5783
823.83	5832
823.97	5661
824.11	5486
824.25	5509
824.389	5589
824.529	5547
824.669	5501
824.809	5634
824.949	5691
825.089	5611
825.228	5562
825.368	5391
825.508	5360
825.648	5318
825.787	5387
825.927	5330
826.067	5318
826.206	5315
826.346	5406
826.485	5444
826.625	5452
826.765	5528
826.904	5452
827.044	5311
827.183	5235
827.323	5155
827.462	5242
827.601	5121
827.741	5151
827.88	5254
828.02	5075
828.159	5273
828.298	5261
828.437	5318
828.577	5239
828.716	5463
828.855	5353
828.994	5166
829.134	5147
829.273	5208
829.412	5162
829.551	5132
829.69	5098
829.829	5204
829.968	5364
830.107	5246
830.246	5277
830.385	5212
830.524	5174
830.663	5029
830.802	4942
830.941	4904
831.08	4896
831.219	4972
831.357	4957
831.496	5140
831.635	4896
831.774	4854
831.913	4809
832.051	4714
832.19	4771
832.329	4786
832.467	4687
832.606	4615
832.744	4691
832.883	4714
833.022	4641
833.16	4790
833.299	4797
833.437	4771
833.576	4831
833.714	4862
833.852	4892
833.991	4870
834.129	4965
834.267	4889
834.406	4934
834.544	4965
834.682	4908
834.821	4965
834.959	5140
835.097	4976
835.235	5151
835.373	5067
835.511	5117
835.65	5048
835.788	5018
835.926	4938
836.064	4870
836.202	4854
836.34	5109
836.478	5239
836.615	5136
836.753	5201
836.891	5227
837.029	5204
837.167	5189
837.305	5174
837.443	5162
837.58	5029
837.718	5273
837.856	5170
837.993	5170
838.131	5197
838.269	5193
838.406	5193
838.544	5174
838.681	5045
838.819	4984
838.956	4911
839.094	4915
839.231	5033
839.369	5109
839.506	5433
839.643	5280
839.781	5022
839.918	4999
840.055	5109
840.193	5113
840.33	5090
840.467	5140
840.604	5193
840.742	5448
840.879	5052
841.016	5083
841.153	5124
841.29	5357
841.427	5337
841.564	5273
841.701	5307
841.838	5250
841.975	5254
842.112	5284
842.249	5071
842.385	5109
842.522	5337
842.659	5140
842.796	5151
842.933	5155
843.069	5178
843.206	5147
843.343	5261
843.479	5189
843.616	5220
843.752	4987
843.889	5022
844.025	5220
844.162	5018
844.298	5174
844.435	5090
844.571	5037
844.708	5231
844.844	5303
844.98	5296
845.117	5330
845.253	5071
845.389	5140
845.525	5128
845.661	5121
845.798	5041
845.934	5124
846.07	5079
846.206	5174
846.342	5296
846.478	5181
846.614	5014
846.75	4972
846.886	4984
847.022	5140
847.158	5006
847.294	5056
847.429	5090
847.565	5052
847.701	5292
847.837	4858
847.972	4831
848.108	4968
848.244	4900
848.379	4786
848.515	4748
848.65	4698
848.786	4767
848.921	4736
849.057	4877
849.192	4900
849.328	4820
849.463	4858
849.598	4774
849.734	4710
849.869	4683
850.004	4618
850.14	4691
850.275	4611
850.41	4535
850.545	4569
850.68	4580
850.815	4653
850.95	4569
851.085	4820
851.22	4668
851.355	4733
851.49	4592
851.625	4634
851.76	4656
851.895	4561
852.03	4538
852.165	4664
852.299	4664
852.434	4828
852.569	4740
852.703	4702
852.838	4843
852.973	4881
853.107	4923
853.242	4736
853.376	4706
853.511	4542
853.645	4645
853.78	4752
853.914	4698
854.048	4691
854.183	4626
854.317	4706
854.451	4786
854.585	4683
854.72	4596
854.854	4755
854.988	4615
855.122	4630
855.256	4504
855.39	4637
855.524	4809
855.658	4725
855.792	4672
855.926	4656
856.06	4752
856.194	4805
856.327	4679
856.461	4603
856.595	4588
856.729	4664
856.862	4725
856.996	4736
857.13	4725
857.263	4755
857.397	4790
857.53	4672
857.664	4672
857.797	4736
857.931	4782
858.064	4656
858.197	4706
858.331	4599
858.464	4626
858.597	4561
858.731	4675
858.864	4656
858.997	4580
859.13	4698
859.263	4649
859.396	4702
859.529	4656
859.662	4550
859.795	4546
859.928	4637
860.061	4740
860.194	4740
860.327	4618
860.46	4508
860.592	4683
860.725	4740
860.858	4702
860.99	4546
861.123	4531
861.256	4516
861.388	4637
861.521	5357
861.653	4478
861.786	4485
861.918	4481
862.05	4493
862.183	4523
862.315	4645
862.447	4637
862.58	4561
862.712	4443
862.844	4303
862.976	4447
863.108	4478
863.24	4908
863.372	4356
863.504	4402
863.636	4367
863.768	4447
863.9	4474
864.032	4371
864.164	4417
864.296	4451
864.428	4588
864.559	4569
864.691	4565
864.823	4550
864.954	4550
865.086	4542
865.217	4428
865.349	4386
865.48	4447
865.612	4474
865.743	4622
865.875	4474
866.006	4417
866.137	4451
866.269	4428
866.4	4394
866.531	4409
866.662	4417
866.793	4386
866.924	4386
867.055	4504
867.186	4421
867.317	4451
867.448	4409
867.579	4432
867.71	4398
867.841	4356
867.972	4455
868.103	4436
868.233	4470
868.364	4409
868.495	4508
868.625	4691
868.756	4778
868.886	4516
869.017	4634
869.147	4786
869.278	4748
869.408	4641
869.539	4592
869.669	4694
869.799	4653
869.929	4771
870.06	4733
870.19	4930
870.32	4908
870.45	4904
870.58	4968
870.71	5060
870.84	5075
870.97	4934
871.1	4885
871.23	5086
871.36	5105
871.489	5033
871.619	5067
871.749	5094
871.879	5147
872.008	5197
872.138	5056
872.267	4896
872.397	4843
872.526	4797
872.656	4725
872.785	4790
872.915	4946
873.044	4976
873.173	4896
873.303	4927
873.432	4915
873.561	4968
873.69	4850
873.819	4816
873.948	4881
874.077	4828
874.206	4748
874.335	4778
874.464	4881
874.593	5041
874.722	4930
874.851	5094
874.979	5041
875.108	5041
875.237	4919
875.365	4908
875.494	4847
875.623	4946
875.751	4862
875.88	4870
876.008	4934
876.136	5037
876.265	5143
876.393	5368
876.521	5246
876.65	5178
876.778	5147
876.906	5045
877.034	5025
877.162	5083
877.29	5003
877.418	5041
877.546	5060
877.674	5022
877.802	5037
877.93	5022
878.058	4900
878.185	4862
878.313	4965
878.441	4938
878.568	4767
878.696	4771
878.824	4972
878.951	5006
879.079	5102
879.206	5246
879.333	5060
879.461	4991
879.588	4949
879.715	5079
879.842	5250
879.97	4987
880.097	4786
880.224	4736
880.351	4828
880.478	4797
880.605	4790
880.732	4805
880.859	5117
880.986	4930
881.112	4873
881.239	4790
881.366	4675
881.493	4607
881.619	4584
881.746	4675
881.872	4645
881.999	4637
882.125	4687
882.252	4801
882.378	4831
882.505	4991
882.631	4793
882.757	4698
882.883	4733
883.01	4706
883.136	4660
883.262	4573
883.388	4622
883.514	4839
883.64	4862
883.766	4786
883.892	4683
884.018	4698
884.143	4881
884.269	4980
884.395	4698
884.52	4634
884.646	4653
884.772	4596
884.897	4584
885.023	4649
885.148	4767
885.274	4877
885.399	4755
885.524	4691
885.65	4634
885.775	4729
885.9	4740
886.025	4877
886.15	4805
886.275	4714
886.4	4630
886.525	4702
886.65	4691
886.775	4702
886.9	4900
887.025	5037
887.149	4835
887.274	4683
887.399	4573
887.523	4588
887.648	4588
887.773	4558
887.897	4752
888.021	4805
888.146	4668
888.27	4809
888.395	4896
888.519	4790
888.643	4778
888.767	4835
888.891	4660
889.015	4550
889.139	4641
889.263	4573
889.387	4771
889.511	4809
889.635	4782
889.759	4630
889.883	4615
890.006	4729
890.13	4816
890.254	4634
890.377	4702
890.501	4519
890.624	4485
890.748	4706
890.871	4489
890.995	4447
891.118	4424
891.241	4508
891.364	4527
891.488	4599
891.611	4478
891.734	4599
891.857	4618
891.98	4550
892.103	4649
892.226	4584
892.349	4516
892.471	4417
892.594	4546
892.717	4626
892.839	4565
892.962	4569
893.085	4634
893.207	4611
893.33	4413
893.452	4512
893.575	4641
893.697	4546
893.819	4797
893.941	4797
894.064	4824
894.186	4577
894.308	4584
894.43	4714
894.552	4793
894.674	4736
894.796	4558
894.918	4561
895.04	4565
895.161	4740
895.283	4664
895.405	4588
895.526	4653
895.648	4714
895.769	4691
895.891	4687
896.012	4755
896.134	4725
896.255	4656
896.376	4599
896.498	4664
896.619	4721
896.74	4618
896.861	4653
896.982	4877
897.103	5071
897.224	4854
897.345	4733
897.466	4656
897.587	4721
897.708	4862
897.828	4812
897.949	4649
898.07	4558
898.19	4626
898.311	4831
898.431	4615
898.552	4778
898.672	4793
898.792	4740
898.913	4767
899.033	4615
899.153	4508
899.273	4436
899.393	4478
899.513	4485
899.633	4493
899.753	4523
899.873	4535
899.993	4592
900.113	4577
900.232	4626
900.352	4558
900.472	4478
900.591	4405
900.711	4478
900.83	4436
900.95	4561
901.069	4683
901.189	4565
901.308	4405
901.427	4325
901.546	4367
901.665	4451
901.784	4504
901.904	4417
902.023	4325
902.141	4188
902.26	4200
902.379	4272
902.498	4200
902.617	4204
902.735	4398
902.854	4409
902.973	4360
903.091	4196
903.21	4223
903.328	4287
903.446	4261
903.565	4249
903.683	4356
903.801	4314
903.919	4436
904.038	4386
904.156	4360
904.274	4405
904.392	4428
904.51	4451
904.627	4481
904.745	4535
904.863	4615
904.981	4428
905.098	4287
905.216	4360
905.334	4424
905.451	4481
905.569	4409
905.686	4554
905.803	4535
905.921	4440
906.038	4584
906.155	4531
906.272	4398
906.389	4478
906.506	4394
906.623	4394
906.74	4409
906.857	4268
906.974	4325
907.091	4561
907.208	4683
907.324	4535
907.441	4527
907.557	4341
907.674	4333
907.79	4352
907.907	4371
908.023	4527
908.139	4485
908.256	4508
908.372	4428
908.488	4478
908.604	4325
908.72	4360
908.836	4379
908.952	4360
909.068	4398
909.184	4527
909.3	4455
909.415	4565
909.531	4592
909.647	4360
909.762	4413
909.878	4348
909.993	4436
910.108	4390
910.224	4390
910.339	4523
910.454	4470
910.57	4371
910.685	4325
910.8	4675
910.915	4618
911.03	4485
911.145	4341
911.259	4284
911.374	4360
911.489	4314
911.604	4238
911.718	4162
911.833	4204
911.947	4074
912.062	3975
912.176	4230
912.291	4234
912.405	4261
912.519	4474
912.633	4519
912.748	4371
912.862	4287
912.976	4196
913.09	4128
913.204	4166
913.318	4249
913.431	4398
913.545	4360
913.659	4436
913.772	4375
913.886	4253
914	4257
914.113	4314
914.226	4394
914.34	4360
914.453	4234
914.566	4432
914.68	4329
914.793	4306
914.906	4173
915.019	4135
915.132	4074
915.245	4166
915.358	4257
915.47	4230
915.583	4265
915.696	4276
915.809	4409
915.921	4398
916.034	4291
916.146	4280
916.259	4234
916.371	4383
916.483	4306
916.595	4253
916.708	4341
916.82	4299
916.932	4314
917.044	4352
917.156	4333
917.268	4242
917.38	4284
917.491	4272
917.603	4322
917.715	4390
917.826	4424
917.938	4337
918.049	4211
918.161	4371
918.272	4569
918.384	4523
918.495	4478
918.606	4318
918.717	4242
918.828	4344
918.939	4371
919.05	4200
919.161	4363
919.272	4150
919.383	4211
919.494	4440
919.604	4596
919.715	4421
919.826	4322
919.936	4402
920.047	4535
920.157	4519
920.267	4660
920.378	4538
920.488	4527
920.598	4702
920.708	4870
920.818	4744
920.928	4767
921.038	4976
921.148	4881
921.258	4645
921.368	4573
921.477	4470
921.587	4485
921.697	4409
921.806	4580
921.916	4447
922.025	4249
922.134	4303
922.244	4196
922.353	4352
922.462	4154
922.571	4128
922.68	3987
922.789	3960
922.898	4048
923.007	4002
923.116	4086
923.224	4021
923.333	4059
923.442	3964
923.55	3968
923.659	3998
923.767	4124
923.876	4006
923.984	4131
924.092	3964
924.201	4097
924.309	4078
924.417	4135
924.525	4078
924.633	4101
924.741	5033
924.849	3941
924.956	4139
925.064	3941
925.172	3945
925.279	4002
925.387	4040
925.494	4067
925.602	4188
925.709	4154
925.816	4074
925.924	4124
926.031	4227
926.138	4181
926.245	4207
926.352	4097
926.459	4223
926.566	4299
926.673	4181
926.779	4048
926.886	4078
926.993	3991
927.099	3918
927.206	3972
927.312	3960
927.419	3998
927.525	4067
927.631	4101
927.737	3987
927.843	3956
927.95	3865
928.056	3956
928.162	3949
928.267	4010
928.373	4679
928.479	4078
928.585	3876
928.69	4055
928.796	4036
928.901	3979
929.007	3816
929.112	4010
929.218	3968
929.323	3968
929.428	3937
929.533	4101
929.638	3949
929.743	3968
929.848	4013
929.953	4006
930.058	3903
930.163	3804
930.267	3823
930.372	3987
930.477	3835
930.581	4048
930.685	3922
930.79	3857
930.894	3873
930.998	3865
931.103	4040
931.207	3663
931.311	3682
931.415	3663
931.519	3553
931.623	3553
