Data from test_V78500241_2803.txt Node
Date: Fri Mar 25 17:08:29 CST 2022
User: usil
Spectrometer: V785-0024
Trigger mode: 0
Integration Time (sec): 4.000000E-1
Scans to average: 1
Nonlinearity correction enabled: false
Boxcar width: 0
Storing dark spectrum: false
XAxis mode: Wavelengths
Number of Pixels in Spectrum: 1024
>>>>>Begin Spectral Data<<<<<
801.071	8027
801.214	7970
801.356	7883
801.499	7894
801.641	7731
801.783	7814
801.926	7951
802.068	7928
802.211	7982
802.353	7993
802.496	7913
802.638	7913
802.78	7947
802.923	7928
803.065	7845
803.208	7845
803.35	7993
803.492	8119
803.635	8153
803.777	8016
803.919	8081
804.061	8450
804.204	8138
804.346	8008
804.488	7894
804.63	8084
804.773	8069
804.915	8195
805.057	8294
805.199	8172
805.341	8214
805.483	8275
805.626	8199
805.768	8126
805.91	8218
806.052	8263
806.194	8164
806.336	8294
806.478	8119
806.62	8073
806.762	8161
806.904	8336
807.046	8427
807.188	8370
807.33	8351
807.472	8355
807.614	8263
807.756	8157
807.898	7936
808.04	7925
808.182	7887
808.324	7879
808.465	8020
808.607	8092
808.749	8157
808.891	8267
809.033	8347
809.174	8202
809.316	8088
809.458	8062
809.6	7982
809.741	8062
809.883	8005
810.025	8149
810.166	8100
810.308	7967
810.45	7997
810.591	7944
810.733	7677
810.875	7647
811.016	7540
811.158	7525
811.299	7616
811.441	7795
811.582	7693
811.724	7605
811.865	7499
812.007	7639
812.148	7537
812.29	7655
812.431	7742
812.573	7837
812.714	8024
812.855	8107
812.997	8240
813.138	8294
813.279	8229
813.421	8161
813.562	8024
813.703	7864
813.845	7776
813.986	7518
814.127	7278
814.268	7221
814.41	7240
814.551	7171
814.692	7183
814.833	7164
814.974	7126
815.115	7091
815.256	6962
815.397	6951
815.539	7008
815.68	6821
815.821	6749
815.962	6901
816.103	6829
816.244	6722
816.385	6654
816.526	6696
816.666	6509
816.807	6327
816.948	6433
817.089	6551
817.23	6448
817.371	6342
817.512	6403
817.653	6395
817.793	6323
817.934	6384
818.075	6464
818.216	6464
818.356	6395
818.497	6285
818.638	6167
818.778	6190
818.919	6175
819.06	6148
819.2	6365
819.341	6289
819.481	6384
819.622	6498
819.762	6745
819.903	6753
820.043	6692
820.184	6574
820.324	6574
820.465	6654
820.605	6741
820.746	6677
820.886	6525
821.026	6677
821.167	6650
821.307	6814
821.447	6810
821.588	6604
821.728	6517
821.868	6479
822.008	6315
822.149	6445
822.289	6350
822.429	6194
822.569	6098
822.709	6190
822.849	5958
822.99	5988
823.13	5927
823.27	5908
823.41	5832
823.55	5767
823.69	5733
823.83	5756
823.97	5630
824.11	5490
824.25	5493
824.389	5581
824.529	5581
824.669	5547
824.809	5600
824.949	5634
825.089	5623
825.228	5493
825.368	5395
825.508	5330
825.648	5318
825.787	5372
825.927	5311
826.067	5303
826.206	5307
826.346	5372
826.485	5387
826.625	5463
826.765	5493
826.904	5493
827.044	5227
827.183	5208
827.323	5124
827.462	5227
827.601	5201
827.741	5227
827.88	5223
828.02	5147
828.159	5258
828.298	5288
828.437	5387
828.577	5273
828.716	5429
828.855	5349
828.994	5159
829.134	5151
829.273	5189
829.412	5147
829.551	5151
829.69	5102
829.829	5280
829.968	5299
830.107	5254
830.246	5284
830.385	5159
830.524	5102
830.663	5048
830.802	4980
830.941	4858
831.08	4866
831.219	4999
831.357	4968
831.496	5147
831.635	4896
831.774	4850
831.913	4858
832.051	4797
832.19	4702
832.329	4812
832.467	4687
832.606	4592
832.744	4782
832.883	4744
833.022	4755
833.16	4778
833.299	4797
833.437	4847
833.576	4816
833.714	4862
833.852	4839
833.991	4892
834.129	4949
834.267	4927
834.406	4923
834.544	4938
834.682	4923
834.821	4987
834.959	5136
835.097	5025
835.235	5159
835.373	5090
835.511	5136
835.65	4972
835.788	5056
835.926	4938
836.064	4858
836.202	4938
836.34	5098
836.478	5265
836.615	5124
836.753	5220
836.891	5303
837.029	5311
837.167	5121
837.305	5143
837.443	5117
837.58	5045
837.718	5250
837.856	5181
837.993	5181
838.131	5292
838.269	5204
838.406	5208
838.544	5128
838.681	5037
838.819	4968
838.956	4904
839.094	4900
839.231	4927
839.369	5094
839.506	5436
839.643	5242
839.781	5143
839.918	5014
840.055	5098
840.193	5109
840.33	5151
840.467	5151
840.604	5162
840.742	5398
840.879	5041
841.016	5064
841.153	5090
841.29	5364
841.427	5326
841.564	5303
841.701	5360
841.838	5307
841.975	5227
842.112	5227
842.249	5117
842.385	5117
842.522	5288
842.659	5227
842.796	5155
842.933	5178
843.069	5128
843.206	5132
843.343	5349
843.479	5212
843.616	5246
843.752	5029
843.889	5022
844.025	5212
844.162	5033
844.298	5197
844.435	5098
844.571	5086
844.708	5239
844.844	5299
844.98	5318
845.117	5220
845.253	5109
845.389	5094
845.525	5174
845.661	5178
845.798	5067
845.934	5124
846.07	5067
846.206	5216
846.342	5254
846.478	5132
846.614	5022
846.75	4972
846.886	4942
847.022	5143
847.158	5052
847.294	5045
847.429	5079
847.565	5037
847.701	5326
847.837	4885
847.972	4812
848.108	4942
848.244	4911
848.379	4801
848.515	4687
848.65	4736
848.786	4759
848.921	4778
849.057	4873
849.192	4942
849.328	4801
849.463	4862
849.598	4835
849.734	4801
849.869	4733
850.004	4679
850.14	4683
850.275	4588
850.41	4489
850.545	4573
850.68	4649
850.815	4611
850.95	4611
851.085	4812
851.22	4744
851.355	4637
851.49	4626
851.625	4664
851.76	4634
851.895	4554
852.03	4550
852.165	4729
852.299	4736
852.434	4759
852.569	4778
852.703	4771
852.838	4831
852.973	4919
853.107	4919
853.242	4763
853.376	4702
853.511	4550
853.645	4668
853.78	4824
853.914	4717
854.048	4679
854.183	4615
854.317	4694
854.451	4828
854.585	4615
854.72	4683
854.854	4774
854.988	4565
855.122	4649
855.256	4512
855.39	4660
855.524	4793
855.658	4675
855.792	4679
855.926	4706
856.06	4740
856.194	4782
856.327	4706
856.461	4569
856.595	4622
856.729	4626
856.862	4721
856.996	4710
857.13	4736
857.263	4744
857.397	4809
857.53	4653
857.664	4740
857.797	4771
857.931	4687
858.064	4691
858.197	4790
858.331	4645
858.464	4634
858.597	4504
858.731	4622
858.864	4664
858.997	4580
859.13	4675
859.263	4668
859.396	4653
859.529	4607
859.662	4607
859.795	4535
859.928	4630
860.061	4740
860.194	4736
860.327	4588
860.46	4577
860.592	4706
860.725	4702
860.858	4717
860.99	4554
861.123	4508
861.256	4504
861.388	4637
861.521	5303
861.653	4481
861.786	4409
861.918	4459
862.05	4565
862.183	4523
862.315	4592
862.447	4656
862.58	4519
862.712	4447
862.844	4318
862.976	4497
863.108	4459
863.24	4786
863.372	4344
863.504	4375
863.636	4386
863.768	4466
863.9	4466
864.032	4371
864.164	4379
864.296	4489
864.428	4565
864.559	4565
864.691	4592
864.823	4554
864.954	4489
865.086	4516
865.217	4500
865.349	4409
865.48	4436
865.612	4478
865.743	4618
865.875	4481
866.006	4462
866.137	4432
866.269	4447
866.4	4455
866.531	4421
866.662	4440
866.793	4413
866.924	4405
867.055	4497
867.186	4440
867.317	4394
867.448	4383
867.579	4405
867.71	4398
867.841	4337
867.972	4508
868.103	4428
868.233	4478
868.364	4470
868.495	4455
868.625	4675
868.756	4729
868.886	4546
869.017	4596
869.147	4759
869.278	4839
869.408	4668
869.539	4607
869.669	4698
869.799	4653
869.929	4790
870.06	4748
870.19	4991
870.32	4889
870.45	4949
870.58	5022
870.71	5090
870.84	5075
870.97	4938
871.1	4892
871.23	5155
871.36	5056
871.489	4984
871.619	5094
871.749	5128
871.879	5140
872.008	5212
872.138	5083
872.267	4987
872.397	4835
872.526	4828
872.656	4721
872.785	4805
872.915	4980
873.044	5041
873.173	4930
873.303	4976
873.432	4923
873.561	4976
873.69	4843
873.819	4915
873.948	4885
874.077	4824
874.206	4748
874.335	4812
874.464	4987
874.593	5067
874.722	4968
874.851	5094
874.979	5029
875.108	5018
875.237	4877
875.365	4908
875.494	4850
875.623	4946
875.751	4839
875.88	4862
876.008	4991
876.136	4995
876.265	5189
876.393	5372
876.521	5258
876.65	5220
876.778	5140
876.906	5060
877.034	5048
877.162	5037
877.29	4984
877.418	5014
877.546	5025
877.674	5045
877.802	5071
877.93	5041
878.058	4870
878.185	4881
878.313	4995
878.441	4968
878.568	4809
878.696	4850
878.824	4934
878.951	4968
879.079	5105
879.206	5277
879.333	5102
879.461	5014
879.588	5018
879.715	5143
879.842	5212
879.97	4991
880.097	4733
880.224	4790
880.351	4793
880.478	4885
880.605	4854
880.732	4801
880.859	5067
880.986	4877
881.112	4980
881.239	4774
881.366	4694
881.493	4622
881.619	4580
881.746	4596
881.872	4675
881.999	4649
882.125	4664
882.252	4847
882.378	4809
882.505	4961
882.631	4820
882.757	4656
882.883	4740
883.01	4698
883.136	4618
883.262	4649
883.388	4596
883.514	4820
883.64	4854
883.766	4805
883.892	4630
884.018	4755
884.143	4820
884.269	4980
884.395	4710
884.52	4596
884.646	4687
884.772	4599
884.897	4546
885.023	4664
885.148	4786
885.274	4854
885.399	4797
885.524	4725
885.65	4683
885.775	4736
885.9	4717
886.025	4854
886.15	4809
886.275	4694
886.4	4660
886.525	4721
886.65	4687
886.775	4691
886.9	4972
887.025	4991
887.149	4786
887.274	4645
887.399	4569
887.523	4584
887.648	4618
887.773	4599
887.897	4733
888.021	4752
888.146	4645
888.27	4812
888.395	4927
888.519	4824
888.643	4824
888.767	4812
888.891	4675
889.015	4584
889.139	4664
889.263	4622
889.387	4725
889.511	4847
889.635	4828
889.759	4637
889.883	4637
890.006	4748
890.13	4835
890.254	4622
890.377	4729
890.501	4558
890.624	4481
890.748	4664
890.871	4565
890.995	4500
891.118	4390
891.241	4500
891.364	4497
891.488	4637
891.611	4508
891.734	4550
891.857	4592
891.98	4523
892.103	4649
892.226	4603
892.349	4550
892.471	4462
892.594	4519
892.717	4569
892.839	4554
892.962	4577
893.085	4660
893.207	4535
893.33	4390
893.452	4466
893.575	4645
893.697	4554
893.819	4782
893.941	4839
894.064	4752
894.186	4531
894.308	4607
894.43	4698
894.552	4843
894.674	4748
894.796	4550
894.918	4561
895.04	4573
895.161	4721
895.283	4672
895.405	4554
895.526	4653
895.648	4714
895.769	4691
895.891	4721
896.012	4767
896.134	4748
896.255	4672
896.376	4641
896.498	4637
896.619	4599
896.74	4615
896.861	4656
896.982	4908
897.103	5113
897.224	4805
897.345	4771
897.466	4691
897.587	4729
897.708	4862
897.828	4725
897.949	4630
898.07	4565
898.19	4622
898.311	4786
898.431	4687
898.552	4694
898.672	4812
898.792	4797
898.913	4767
899.033	4611
899.153	4519
899.273	4394
899.393	4470
899.513	4538
899.633	4542
899.753	4580
899.873	4527
899.993	4554
900.113	4523
900.232	4573
900.352	4538
900.472	4470
900.591	4367
900.711	4485
900.83	4421
900.95	4584
901.069	4679
901.189	4538
901.308	4348
901.427	4325
901.546	4394
901.665	4447
901.784	4531
901.904	4413
902.023	4268
902.141	4150
902.26	4188
902.379	4314
902.498	4249
902.617	4242
902.735	4371
902.854	4383
902.973	4386
903.091	4181
903.21	4215
903.328	4265
903.446	4268
903.565	4265
903.683	4386
903.801	4265
903.919	4417
904.038	4447
904.156	4344
904.274	4432
904.392	4394
904.51	4443
904.627	4481
904.745	4611
904.863	4645
904.981	4383
905.098	4310
905.216	4371
905.334	4440
905.451	4478
905.569	4455
905.686	4558
905.803	4569
905.921	4413
906.038	4504
906.155	4470
906.272	4337
906.389	4474
906.506	4329
906.623	4344
906.74	4310
906.857	4295
906.974	4394
907.091	4538
907.208	4694
907.324	4558
907.441	4485
907.557	4337
907.674	4398
907.79	4287
907.907	4371
908.023	4432
908.139	4474
908.256	4398
908.372	4504
908.488	4459
908.604	4383
908.72	4329
908.836	4398
908.952	4390
909.068	4447
909.184	4554
909.3	4478
909.415	4618
909.531	4546
909.647	4360
909.762	4386
909.878	4337
909.993	4417
910.108	4443
910.224	4398
910.339	4455
910.454	4443
910.57	4352
910.685	4325
910.8	4622
910.915	4565
911.03	4466
911.145	4322
911.259	4337
911.374	4375
911.489	4348
911.604	4284
911.718	4181
911.833	4215
911.947	4086
912.062	4048
912.176	4280
912.291	4249
912.405	4242
912.519	4474
912.633	4470
912.748	4386
912.862	4356
912.976	4169
913.09	4097
913.204	4166
913.318	4196
913.431	4333
913.545	4371
913.659	4485
913.772	4341
913.886	4227
914	4204
914.113	4356
914.226	4451
914.34	4394
914.453	4253
914.566	4428
914.68	4295
914.793	4318
914.906	4188
915.019	4097
915.132	4086
915.245	4192
915.358	4268
915.47	4200
915.583	4272
915.696	4329
915.809	4455
915.921	4383
916.034	4295
916.146	4280
916.259	4204
916.371	4348
916.483	4360
916.595	4318
916.708	4367
916.82	4360
916.932	4337
917.044	4310
917.156	4352
917.268	4253
917.38	4280
917.491	4253
917.603	4344
917.715	4409
917.826	4398
917.938	4306
918.049	4265
918.161	4375
918.272	4565
918.384	4573
918.495	4500
918.606	4306
918.717	4249
918.828	4360
918.939	4402
919.05	4268
919.161	4371
919.272	4166
919.383	4234
919.494	4481
919.604	4607
919.715	4478
919.826	4333
919.936	4390
920.047	4542
920.157	4466
920.267	4683
920.378	4554
920.488	4497
920.598	4733
920.708	4900
920.818	4759
920.928	4767
921.038	4984
921.148	4949
921.258	4641
921.368	4554
921.477	4459
921.587	4428
921.697	4466
921.806	4565
921.916	4428
922.025	4253
922.134	4280
922.244	4207
922.353	4344
922.462	4173
922.571	4139
922.68	4010
922.789	3983
922.898	4040
923.007	4010
923.116	4097
923.224	4071
923.333	4112
923.442	3956
923.55	3956
923.659	4036
923.767	4131
923.876	4010
923.984	4139
924.092	3994
924.201	4101
924.309	4063
924.417	4124
924.525	4071
924.633	4128
924.741	4877
924.849	3899
924.956	4150
925.064	3975
925.172	3884
925.279	4006
925.387	4063
925.494	4078
925.602	4215
925.709	4166
925.816	4021
925.924	4139
926.031	4173
926.138	4196
926.245	4169
926.352	4067
926.459	4238
926.566	4348
926.673	4162
926.779	4082
926.886	4067
926.993	4002
927.099	3987
927.206	3892
927.312	3941
927.419	4078
927.525	4036
927.631	4128
927.737	3975
927.843	3945
927.95	3812
928.056	3964
928.162	4002
928.267	4051
928.373	4672
928.479	4150
928.585	3850
928.69	4048
928.796	4105
928.901	3979
929.007	3838
929.112	3979
929.218	3994
929.323	3949
929.428	3968
929.533	4109
929.638	3911
929.743	3945
929.848	4025
929.953	4013
930.058	3953
930.163	3759
930.267	3823
930.372	3991
930.477	3800
930.581	4071
930.685	3937
930.79	3854
930.894	3869
930.998	3869
931.103	4021
931.207	3751
931.311	3675
931.415	3682
931.519	3568
931.623	3591
