Data from test_V78500241_445.txt Node
Date: Fri Mar 25 16:52:05 CST 2022
User: usil
Spectrometer: V785-0024
Trigger mode: 0
Integration Time (sec): 4.000000E-1
Scans to average: 1
Nonlinearity correction enabled: false
Boxcar width: 0
Storing dark spectrum: false
XAxis mode: Wavelengths
Number of Pixels in Spectrum: 1024
>>>>>Begin Spectral Data<<<<<
801.071	8073
801.214	8050
801.356	7921
801.499	7845
801.641	7852
801.783	7906
801.926	8043
802.068	8031
802.211	7986
802.353	8054
802.496	7913
802.638	7871
802.78	7887
802.923	7917
803.065	7879
803.208	7830
803.35	7913
803.492	8008
803.635	8111
803.777	8005
803.919	8153
804.061	8484
804.204	8126
804.346	8039
804.488	7906
804.63	8062
804.773	8043
804.915	8043
805.057	8309
805.199	8187
805.341	8248
805.483	8294
805.626	8161
805.768	8088
805.91	8244
806.052	8138
806.194	8180
806.336	8355
806.478	8115
806.62	8111
806.762	8142
806.904	8290
807.046	8442
807.188	8259
807.33	8263
807.472	8332
807.614	8187
807.756	8149
807.898	8027
808.04	7932
808.182	7921
808.324	7936
808.465	7936
808.607	8119
808.749	8107
808.891	8187
809.033	8267
809.174	8172
809.316	8016
809.458	8111
809.6	7940
809.741	8077
809.883	8058
810.025	8138
810.166	8111
810.308	8096
810.45	8035
810.591	7852
810.733	7734
810.875	7719
811.016	7529
811.158	7552
811.299	7670
811.441	7750
811.582	7658
811.724	7651
811.865	7578
812.007	7696
812.148	7620
812.29	7639
812.431	7772
812.573	7970
812.714	8024
812.855	8225
812.997	8282
813.138	8374
813.279	8229
813.421	8088
813.562	8031
813.703	7986
813.845	7799
813.986	7514
814.127	7373
814.268	7392
814.41	7232
814.551	7285
814.692	7213
814.833	7076
814.974	7129
815.115	7194
815.256	6981
815.397	6920
815.539	7034
815.68	6840
815.821	6833
815.962	6867
816.103	6852
816.244	6783
816.385	6726
816.526	6688
816.666	6544
816.807	6327
816.948	6452
817.089	6464
817.23	6437
817.371	6422
817.512	6448
817.653	6365
817.793	6407
817.934	6365
818.075	6471
818.216	6475
818.356	6445
818.497	6319
818.638	6152
818.778	6201
818.919	6110
819.06	6121
819.2	6342
819.341	6346
819.481	6384
819.622	6525
819.762	6764
819.903	6684
820.043	6578
820.184	6597
820.324	6578
820.465	6745
820.605	6677
820.746	6662
820.886	6532
821.026	6635
821.167	6684
821.307	6753
821.447	6772
821.588	6726
821.728	6589
821.868	6490
822.008	6338
822.149	6380
822.289	6308
822.429	6201
822.569	6026
822.709	6121
822.849	5893
822.99	5889
823.13	5927
823.27	5935
823.41	5844
823.55	5855
823.69	5729
823.83	5840
823.97	5657
824.11	5589
824.25	5532
824.389	5543
824.529	5615
824.669	5539
824.809	5661
824.949	5649
825.089	5585
825.228	5592
825.368	5383
825.508	5334
825.648	5395
825.787	5433
825.927	5398
826.067	5315
826.206	5288
826.346	5364
826.485	5463
826.625	5406
826.765	5573
826.904	5501
827.044	5273
827.183	5235
827.323	5075
827.462	5269
827.601	5204
827.741	5235
827.88	5174
828.02	5185
828.159	5284
828.298	5383
828.437	5364
828.577	5292
828.716	5543
828.855	5334
828.994	5181
829.134	5181
829.273	5212
829.412	5189
829.551	5178
829.69	5204
829.829	5220
829.968	5383
830.107	5231
830.246	5318
830.385	5220
830.524	5170
830.663	5067
830.802	5010
830.941	4911
831.08	4908
831.219	4991
831.357	4965
831.496	5185
831.635	4972
831.774	4850
831.913	4824
832.051	4725
832.19	4767
832.329	4862
832.467	4691
832.606	4660
832.744	4763
832.883	4710
833.022	4752
833.16	4816
833.299	4847
833.437	4805
833.576	4877
833.714	4843
833.852	4900
833.991	4904
834.129	4976
834.267	4930
834.406	4870
834.544	4976
834.682	4999
834.821	4968
834.959	5174
835.097	4995
835.235	5109
835.373	5132
835.511	5113
835.65	5014
835.788	5048
835.926	4858
836.064	4900
836.202	4946
836.34	5208
836.478	5227
836.615	5121
836.753	5246
836.891	5284
837.029	5307
837.167	5227
837.305	5193
837.443	5189
837.58	5121
837.718	5212
837.856	5181
837.993	5155
838.131	5235
838.269	5223
838.406	5208
838.544	5185
838.681	5064
838.819	5025
838.956	4877
839.094	4919
839.231	4999
839.369	5048
839.506	5417
839.643	5296
839.781	5094
839.918	5018
840.055	5090
840.193	5124
840.33	5102
840.467	5140
840.604	5162
840.742	5417
840.879	5136
841.016	5132
841.153	5208
841.29	5368
841.427	5349
841.564	5337
841.701	5337
841.838	5288
841.975	5250
842.112	5318
842.249	5185
842.385	5102
842.522	5349
842.659	5132
842.796	5185
842.933	5235
843.069	5143
843.206	5166
843.343	5364
843.479	5201
843.616	5269
843.752	5014
843.889	5025
844.025	5235
844.162	5052
844.298	5231
844.435	5056
844.571	5025
844.708	5239
844.844	5330
844.98	5345
845.117	5299
845.253	5174
845.389	5086
845.525	5193
845.661	5102
845.798	5025
845.934	5143
846.07	5086
846.206	5223
846.342	5258
846.478	5208
846.614	5056
846.75	5033
846.886	4968
847.022	5201
847.158	4999
847.294	5033
847.429	5094
847.565	5048
847.701	5315
847.837	4873
847.972	4809
848.108	4976
848.244	4953
848.379	4763
848.515	4752
848.65	4759
848.786	4755
848.921	4835
849.057	4854
849.192	4877
849.328	4778
849.463	4835
849.598	4771
849.734	4816
849.869	4653
850.004	4664
850.14	4733
850.275	4637
850.41	4531
850.545	4512
850.68	4561
850.815	4592
850.95	4656
851.085	4790
851.22	4717
851.355	4675
851.49	4645
851.625	4607
851.76	4668
851.895	4573
852.03	4535
852.165	4691
852.299	4782
852.434	4824
852.569	4721
852.703	4778
852.838	4850
852.973	4949
853.107	4934
853.242	4740
853.376	4683
853.511	4558
853.645	4603
853.78	4774
853.914	4698
854.048	4706
854.183	4664
854.317	4702
854.451	4870
854.585	4694
854.72	4618
854.854	4801
854.988	4615
855.122	4618
855.256	4558
855.39	4660
855.524	4778
855.658	4714
855.792	4702
855.926	4725
856.06	4774
856.194	4805
856.327	4698
856.461	4637
856.595	4649
856.729	4588
856.862	4774
856.996	4672
857.13	4721
857.263	4797
857.397	4831
857.53	4634
857.664	4744
857.797	4786
857.931	4763
858.064	4668
858.197	4763
858.331	4691
858.464	4615
858.597	4538
858.731	4618
858.864	4668
858.997	4664
859.13	4679
859.263	4664
859.396	4687
859.529	4588
859.662	4508
859.795	4508
859.928	4607
860.061	4733
860.194	4797
860.327	4660
860.46	4603
860.592	4744
860.725	4691
860.858	4710
860.99	4607
861.123	4478
861.256	4519
861.388	4634
861.521	5433
861.653	4470
861.786	4424
861.918	4474
862.05	4531
862.183	4538
862.315	4618
862.447	4683
862.58	4588
862.712	4432
862.844	4348
862.976	4474
863.108	4516
863.24	4801
863.372	4356
863.504	4428
863.636	4383
863.768	4489
863.9	4417
864.032	4375
864.164	4379
864.296	4485
864.428	4516
864.559	4592
864.691	4573
864.823	4451
864.954	4512
865.086	4504
865.217	4451
865.349	4375
865.48	4474
865.612	4523
865.743	4675
865.875	4436
866.006	4398
866.137	4481
866.269	4466
866.4	4436
866.531	4379
866.662	4417
866.793	4383
866.924	4409
867.055	4535
867.186	4462
867.317	4447
867.448	4386
867.579	4421
867.71	4424
867.841	4443
867.972	4417
868.103	4424
868.233	4417
868.364	4424
868.495	4500
868.625	4683
868.756	4736
868.886	4573
869.017	4569
869.147	4778
869.278	4782
869.408	4675
869.539	4622
869.669	4740
869.799	4660
869.929	4744
870.06	4717
870.19	4984
870.32	4908
870.45	4949
870.58	5033
870.71	5113
870.84	5109
870.97	4904
871.1	4934
871.23	5045
871.36	5121
871.489	5041
871.619	5067
871.749	5094
871.879	5124
872.008	5166
872.138	5041
872.267	5006
872.397	4862
872.526	4889
872.656	4786
872.785	4824
872.915	4919
873.044	5056
873.173	4938
873.303	4923
873.432	4938
873.561	5033
873.69	4873
873.819	4877
873.948	4987
874.077	4820
874.206	4771
874.335	4793
874.464	4949
874.593	5067
874.722	4919
874.851	5094
874.979	5113
875.108	5041
875.237	4942
875.365	4866
875.494	4866
875.623	5003
875.751	4839
875.88	4877
876.008	4999
876.136	5010
876.265	5242
876.393	5357
876.521	5239
876.65	5174
876.778	5124
876.906	5105
877.034	5041
877.162	5014
877.29	4995
877.418	5041
877.546	5060
877.674	5037
877.802	5045
877.93	5018
878.058	4923
878.185	4896
878.313	4900
878.441	4976
878.568	4805
878.696	4896
878.824	5048
878.951	5029
879.079	5136
879.206	5265
879.333	5121
879.461	4946
879.588	5018
879.715	5121
879.842	5227
879.97	5052
880.097	4782
880.224	4721
880.351	4816
880.478	4820
880.605	4797
880.732	4801
880.859	5113
880.986	4892
881.112	4866
881.239	4805
881.366	4706
881.493	4618
881.619	4615
881.746	4660
881.872	4660
881.999	4656
882.125	4721
882.252	4831
882.378	4816
882.505	5025
882.631	4801
882.757	4630
882.883	4717
883.01	4702
883.136	4714
883.262	4573
883.388	4569
883.514	4778
883.64	4873
883.766	4771
883.892	4725
884.018	4748
884.143	4904
884.269	5033
884.395	4694
884.52	4687
884.646	4618
884.772	4584
884.897	4542
885.023	4721
885.148	4793
885.274	4847
885.399	4839
885.524	4721
885.65	4668
885.775	4706
885.9	4698
886.025	4858
886.15	4805
886.275	4729
886.4	4649
886.525	4767
886.65	4649
886.775	4679
886.9	4923
887.025	5045
887.149	4812
887.274	4706
887.399	4596
887.523	4588
887.648	4573
887.773	4538
887.897	4744
888.021	4801
888.146	4660
888.27	4816
888.395	4911
888.519	4774
888.643	4812
888.767	4816
888.891	4706
889.015	4664
889.139	4683
889.263	4603
889.387	4774
889.511	4854
889.635	4793
889.759	4626
889.883	4694
890.006	4763
890.13	4824
890.254	4653
890.377	4675
890.501	4546
890.624	4584
890.748	4626
890.871	4535
890.995	4481
891.118	4367
891.241	4523
891.364	4565
891.488	4618
891.611	4519
891.734	4554
891.857	4649
891.98	4577
892.103	4641
892.226	4630
892.349	4504
892.471	4405
892.594	4535
892.717	4554
892.839	4550
892.962	4630
893.085	4710
893.207	4603
893.33	4474
893.452	4508
893.575	4668
893.697	4577
893.819	4797
893.941	4820
894.064	4748
894.186	4573
894.308	4611
894.43	4771
894.552	4828
894.674	4793
894.796	4561
894.918	4622
895.04	4573
895.161	4710
895.283	4641
895.405	4569
895.526	4637
895.648	4649
895.769	4691
895.891	4733
896.012	4820
896.134	4717
896.255	4641
896.376	4596
896.498	4630
896.619	4660
896.74	4637
896.861	4634
896.982	4957
897.103	5132
897.224	4824
897.345	4771
897.466	4740
897.587	4714
897.708	4885
897.828	4778
897.949	4672
898.07	4550
898.19	4622
898.311	4835
898.431	4679
898.552	4717
898.672	4809
898.792	4839
898.913	4733
899.033	4615
899.153	4546
899.273	4451
899.393	4493
899.513	4527
899.633	4554
899.753	4535
899.873	4478
899.993	4596
900.113	4516
900.232	4596
900.352	4565
900.472	4478
900.591	4440
900.711	4500
900.83	4440
900.95	4622
901.069	4721
901.189	4538
901.308	4360
901.427	4333
901.546	4371
901.665	4470
901.784	4531
901.904	4413
902.023	4295
902.141	4196
902.26	4173
902.379	4291
902.498	4230
902.617	4185
902.735	4352
902.854	4394
902.973	4287
903.091	4234
903.21	4219
903.328	4306
903.446	4276
903.565	4253
903.683	4363
903.801	4272
903.919	4443
904.038	4481
904.156	4310
904.274	4432
904.392	4398
904.51	4459
904.627	4489
904.745	4592
904.863	4611
904.981	4352
905.098	4306
905.216	4360
905.334	4428
905.451	4409
905.569	4436
905.686	4500
905.803	4550
905.921	4394
906.038	4523
906.155	4474
906.272	4432
906.389	4489
906.506	4367
906.623	4356
906.74	4367
906.857	4348
906.974	4390
907.091	4542
907.208	4664
907.324	4603
907.441	4466
907.557	4356
907.674	4363
907.79	4299
907.907	4424
908.023	4481
908.139	4497
908.256	4440
908.372	4519
908.488	4424
908.604	4375
908.72	4348
908.836	4386
908.952	4329
909.068	4398
909.184	4607
909.3	4497
909.415	4577
909.531	4538
909.647	4360
909.762	4371
909.878	4352
909.993	4424
910.108	4413
910.224	4428
910.339	4466
910.454	4405
910.57	4390
910.685	4303
910.8	4622
910.915	4607
911.03	4481
911.145	4363
911.259	4322
911.374	4329
911.489	4322
911.604	4287
911.718	4143
911.833	4173
911.947	4055
912.062	4086
912.176	4227
912.291	4234
912.405	4230
912.519	4428
912.633	4493
912.748	4375
912.862	4303
912.976	4227
913.09	4139
913.204	4196
913.318	4280
913.431	4379
913.545	4375
913.659	4504
913.772	4367
913.886	4223
914	4261
914.113	4405
914.226	4428
914.34	4394
914.453	4230
914.566	4413
914.68	4314
914.793	4363
914.906	4150
915.019	4135
915.132	4135
915.245	4211
915.358	4230
915.47	4238
915.583	4291
915.696	4314
915.809	4398
915.921	4432
916.034	4268
916.146	4268
916.259	4192
916.371	4390
916.483	4337
916.595	4291
916.708	4337
916.82	4356
916.932	4310
917.044	4379
917.156	4375
917.268	4246
917.38	4246
917.491	4284
917.603	4390
917.715	4459
917.826	4459
917.938	4367
918.049	4268
918.161	4371
918.272	4523
918.384	4538
918.495	4424
918.606	4299
918.717	4230
918.828	4356
918.939	4322
919.05	4246
919.161	4356
919.272	4086
919.383	4249
919.494	4481
919.604	4656
919.715	4462
919.826	4356
919.936	4402
920.047	4558
920.157	4485
920.267	4698
920.378	4527
920.488	4478
920.598	4729
920.708	4904
920.818	4755
920.928	4767
921.038	4961
921.148	4900
921.258	4634
921.368	4535
921.477	4538
921.587	4459
921.697	4367
921.806	4497
921.916	4462
922.025	4272
922.134	4249
922.244	4219
922.353	4344
922.462	4154
922.571	4135
922.68	3998
922.789	4017
922.898	4044
923.007	3994
923.116	4097
923.224	4048
923.333	4086
923.442	3972
923.55	3987
923.659	4048
923.767	4090
923.876	3975
923.984	4139
924.092	3956
924.201	4090
924.309	4097
924.417	4128
924.525	4055
924.633	4101
924.741	5018
924.849	3964
924.956	4109
925.064	3934
925.172	3888
925.279	3930
925.387	4044
925.494	4048
925.602	4219
925.709	4227
925.816	4048
925.924	4139
926.031	4227
926.138	4162
926.245	4204
926.352	4082
926.459	4234
926.566	4295
926.673	4200
926.779	4090
926.886	4036
926.993	4006
927.099	3994
927.206	3941
927.312	3979
927.419	4071
927.525	4029
927.631	4101
927.737	3956
927.843	3960
927.95	3865
928.056	3972
928.162	3998
928.267	4040
928.373	4679
928.479	4135
928.585	3892
928.69	4059
928.796	4067
928.901	3979
929.007	3827
929.112	4021
929.218	4006
929.323	3918
929.428	3922
929.533	4067
929.638	3899
929.743	3983
929.848	4032
929.953	3975
930.058	3945
930.163	3793
930.267	3812
930.372	3983
930.477	3819
930.581	4139
930.685	3934
930.79	3808
930.894	3857
930.998	3842
931.103	4010
931.207	3660
931.311	3713
931.415	3675
931.519	3538
931.623	3572
