Data from test_V78500241_799.txt Node
Date: Fri Mar 25 16:54:33 CST 2022
User: usil
Spectrometer: V785-0024
Trigger mode: 0
Integration Time (sec): 4.000000E-1
Scans to average: 1
Nonlinearity correction enabled: false
Boxcar width: 0
Storing dark spectrum: false
XAxis mode: Wavelengths
Number of Pixels in Spectrum: 1024
>>>>>Begin Spectral Data<<<<<
801.071	8031
801.214	7993
801.356	7803
801.499	7898
801.641	7837
801.783	7830
801.926	8016
802.068	7925
802.211	7959
802.353	7932
802.496	7871
802.638	7959
802.78	8012
802.923	7982
803.065	7883
803.208	7833
803.35	7940
803.492	8142
803.635	8267
803.777	8008
803.919	8065
804.061	8431
804.204	8096
804.346	8062
804.488	7917
804.63	8130
804.773	8046
804.915	8092
805.057	8271
805.199	8130
805.341	8244
805.483	8317
805.626	8202
805.768	8161
805.91	8096
806.052	8191
806.194	8100
806.336	8313
806.478	8130
806.62	8016
806.762	8103
806.904	8218
807.046	8438
807.188	8446
807.33	8286
807.472	8294
807.614	8237
807.756	8103
807.898	7993
808.04	7833
808.182	7902
808.324	7841
808.465	7890
808.607	8073
808.749	8031
808.891	8119
809.033	8275
809.174	8218
809.316	8081
809.458	8123
809.6	7947
809.741	7997
809.883	7970
810.025	8077
810.166	8092
810.308	8043
810.45	8065
810.591	7856
810.733	7677
810.875	7658
811.016	7537
811.158	7487
811.299	7563
811.441	7715
811.582	7628
811.724	7487
811.865	7525
812.007	7613
812.148	7533
812.29	7563
812.431	7658
812.573	7856
812.714	7887
812.855	8164
812.997	8240
813.138	8294
813.279	8119
813.421	8084
813.562	8005
813.703	7822
813.845	7780
813.986	7476
814.127	7217
814.268	7259
814.41	7194
814.551	7072
814.692	7145
814.833	7042
814.974	7034
815.115	7065
815.256	6871
815.397	6913
815.539	6916
815.68	6810
815.821	6806
815.962	6802
816.103	6795
816.244	6711
816.385	6593
816.526	6631
816.666	6471
816.807	6338
816.948	6384
817.089	6460
817.23	6391
817.371	6319
817.512	6403
817.653	6357
817.793	6369
817.934	6418
818.075	6448
818.216	6418
818.356	6289
818.497	6186
818.638	6144
818.778	6171
818.919	6152
819.06	6095
819.2	6308
819.341	6327
819.481	6399
819.622	6422
819.762	6734
819.903	6692
820.043	6574
820.184	6589
820.324	6513
820.465	6669
820.605	6662
820.746	6635
820.886	6513
821.026	6646
821.167	6715
821.307	6810
821.447	6791
821.588	6669
821.728	6555
821.868	6509
822.008	6308
822.149	6372
822.289	6372
822.429	6201
822.569	6076
822.709	6136
822.849	5931
822.99	5893
823.13	5961
823.27	5992
823.41	5764
823.55	5779
823.69	5722
823.83	5745
823.97	5646
824.11	5554
824.25	5535
824.389	5581
824.529	5596
824.669	5543
824.809	5668
824.949	5676
825.089	5596
825.228	5604
825.368	5471
825.508	5383
825.648	5387
825.787	5429
825.927	5383
826.067	5311
826.206	5288
826.346	5414
826.485	5398
826.625	5444
826.765	5589
826.904	5478
827.044	5334
827.183	5254
827.323	5174
827.462	5292
827.601	5197
827.741	5227
827.88	5250
828.02	5098
828.159	5311
828.298	5311
828.437	5417
828.577	5334
828.716	5524
828.855	5303
828.994	5231
829.134	5155
829.273	5170
829.412	5216
829.551	5105
829.69	5178
829.829	5265
829.968	5417
830.107	5227
830.246	5250
830.385	5174
830.524	5178
830.663	5113
830.802	5041
830.941	4900
831.08	4889
831.219	5067
831.357	4999
831.496	5174
831.635	4934
831.774	4850
831.913	4877
832.051	4736
832.19	4778
832.329	4809
832.467	4748
832.606	4702
832.744	4786
832.883	4740
833.022	4767
833.16	4786
833.299	4881
833.437	4835
833.576	4908
833.714	4858
833.852	4900
833.991	4896
834.129	4957
834.267	4968
834.406	4957
834.544	5025
834.682	4999
834.821	4957
834.959	5151
835.097	5033
835.235	5155
835.373	5121
835.511	5155
835.65	5109
835.788	5079
835.926	4968
836.064	4923
836.202	4965
836.34	5174
836.478	5246
836.615	5121
836.753	5239
836.891	5345
837.029	5311
837.167	5254
837.305	5151
837.443	5162
837.58	5128
837.718	5258
837.856	5193
837.993	5170
838.131	5242
838.269	5212
838.406	5220
838.544	5231
838.681	5029
838.819	5064
838.956	4911
839.094	4957
839.231	4995
839.369	5090
839.506	5417
839.643	5292
839.781	5079
839.918	5052
840.055	5128
840.193	5083
840.33	5143
840.467	5136
840.604	5223
840.742	5490
840.879	5136
841.016	5102
841.153	5216
841.29	5387
841.427	5311
841.564	5318
841.701	5337
841.838	5288
841.975	5193
842.112	5318
842.249	5105
842.385	5098
842.522	5345
842.659	5201
842.796	5216
842.933	5242
843.069	5132
843.206	5170
843.343	5372
843.479	5265
843.616	5242
843.752	5052
843.889	5079
844.025	5231
844.162	5010
844.298	5201
844.435	5136
844.571	5067
844.708	5250
844.844	5322
844.98	5421
845.117	5277
845.253	5170
845.389	5113
845.525	5189
845.661	5159
845.798	5071
845.934	5189
846.07	5045
846.206	5265
846.342	5303
846.478	5189
846.614	5033
846.75	4976
846.886	4949
847.022	5185
847.158	5090
847.294	5132
847.429	5147
847.565	5075
847.701	5334
847.837	4866
847.972	4805
848.108	4957
848.244	4961
848.379	4809
848.515	4786
848.65	4752
848.786	4763
848.921	4786
849.057	4908
849.192	4915
849.328	4843
849.463	4896
849.598	4824
849.734	4744
849.869	4714
850.004	4641
850.14	4679
850.275	4641
850.41	4550
850.545	4580
850.68	4596
850.815	4637
850.95	4691
851.085	4900
851.22	4774
851.355	4736
851.49	4660
851.625	4664
851.76	4672
851.895	4618
852.03	4550
852.165	4641
852.299	4740
852.434	4786
852.569	4771
852.703	4812
852.838	4858
852.973	4930
853.107	4934
853.242	4736
853.376	4691
853.511	4618
853.645	4626
853.78	4816
853.914	4687
854.048	4706
854.183	4656
854.317	4710
854.451	4862
854.585	4668
854.72	4626
854.854	4790
854.988	4645
855.122	4649
855.256	4516
855.39	4721
855.524	4816
855.658	4706
855.792	4687
855.926	4755
856.06	4805
856.194	4835
856.327	4675
856.461	4615
856.595	4637
856.729	4706
856.862	4736
856.996	4698
857.13	4698
857.263	4786
857.397	4805
857.53	4656
857.664	4763
857.797	4797
857.931	4820
858.064	4694
858.197	4733
858.331	4683
858.464	4645
858.597	4542
858.731	4675
858.864	4656
858.997	4634
859.13	4664
859.263	4714
859.396	4672
859.529	4645
859.662	4542
859.795	4538
859.928	4596
860.061	4771
860.194	4729
860.327	4626
860.46	4611
860.592	4675
860.725	4698
860.858	4790
860.99	4615
861.123	4508
861.256	4603
861.388	4656
861.521	5254
861.653	4546
861.786	4470
861.918	4462
862.05	4516
862.183	4626
862.315	4573
862.447	4675
862.58	4538
862.712	4443
862.844	4306
862.976	4470
863.108	4489
863.24	4805
863.372	4329
863.504	4386
863.636	4428
863.768	4470
863.9	4474
864.032	4390
864.164	4417
864.296	4500
864.428	4603
864.559	4607
864.691	4535
864.823	4508
864.954	4485
865.086	4493
865.217	4478
865.349	4459
865.48	4405
865.612	4500
865.743	4645
865.875	4485
866.006	4451
866.137	4478
866.269	4421
866.4	4451
866.531	4402
866.662	4409
866.793	4440
866.924	4390
867.055	4493
867.186	4519
867.317	4409
867.448	4390
867.579	4379
867.71	4367
867.841	4344
867.972	4466
868.103	4462
868.233	4459
868.364	4459
868.495	4462
868.625	4637
868.756	4774
868.886	4596
869.017	4634
869.147	4778
869.278	4824
869.408	4675
869.539	4679
869.669	4744
869.799	4679
869.929	4778
870.06	4774
870.19	4984
870.32	4961
870.45	4965
870.58	5056
870.71	5109
870.84	5124
870.97	4957
871.1	4892
871.23	5121
871.36	5117
871.489	4987
871.619	5117
871.749	5071
871.879	5124
872.008	5201
872.138	5045
872.267	4968
872.397	4820
872.526	4793
872.656	4725
872.785	4820
872.915	4968
873.044	5033
873.173	4946
873.303	4968
873.432	5003
873.561	4961
873.69	4930
873.819	4862
873.948	4881
874.077	4858
874.206	4771
874.335	4809
874.464	4972
874.593	5045
874.722	5010
874.851	5124
874.979	5041
875.108	5075
875.237	4957
875.365	4892
875.494	4934
875.623	4999
875.751	4877
875.88	4889
876.008	5006
876.136	4965
876.265	5250
876.393	5353
876.521	5299
876.65	5250
876.778	5189
876.906	5067
877.034	5018
877.162	5037
877.29	4976
877.418	5010
877.546	5060
877.674	5018
877.802	5037
877.93	4984
878.058	4961
878.185	4877
878.313	4938
878.441	4980
878.568	4862
878.696	4839
878.824	4949
878.951	5056
879.079	5132
879.206	5288
879.333	5105
879.461	4961
879.588	5006
879.715	5117
879.842	5208
879.97	5014
880.097	4748
880.224	4778
880.351	4828
880.478	4843
880.605	4828
880.732	4786
880.859	5086
880.986	4873
881.112	4892
881.239	4767
881.366	4702
881.493	4649
881.619	4588
881.746	4653
881.872	4630
881.999	4675
882.125	4763
882.252	4767
882.378	4801
882.505	4927
882.631	4767
882.757	4748
882.883	4733
883.01	4744
883.136	4675
883.262	4580
883.388	4672
883.514	4835
883.64	4900
883.766	4850
883.892	4714
884.018	4801
884.143	4900
884.269	5067
884.395	4649
884.52	4634
884.646	4637
884.772	4584
884.897	4580
885.023	4706
885.148	4805
885.274	4923
885.399	4828
885.524	4675
885.65	4721
885.775	4790
885.9	4706
886.025	4812
886.15	4786
886.275	4717
886.4	4637
886.525	4763
886.65	4660
886.775	4733
886.9	4953
887.025	4965
887.149	4816
887.274	4675
887.399	4573
887.523	4550
887.648	4603
887.773	4641
887.897	4763
888.021	4767
888.146	4656
888.27	4793
888.395	4972
888.519	4774
888.643	4755
888.767	4843
888.891	4679
889.015	4599
889.139	4687
889.263	4634
889.387	4763
889.511	4862
889.635	4736
889.759	4714
889.883	4630
890.006	4744
890.13	4809
890.254	4626
890.377	4634
890.501	4550
890.624	4546
890.748	4660
890.871	4478
890.995	4417
891.118	4344
891.241	4497
891.364	4565
891.488	4679
891.611	4478
891.734	4497
891.857	4592
891.98	4523
892.103	4679
892.226	4603
892.349	4535
892.471	4402
892.594	4596
892.717	4527
892.839	4558
892.962	4607
893.085	4645
893.207	4607
893.33	4436
893.452	4508
893.575	4714
893.697	4580
893.819	4809
893.941	4809
894.064	4812
894.186	4588
894.308	4577
894.43	4702
894.552	4805
894.674	4778
894.796	4554
894.918	4615
895.04	4584
895.161	4694
895.283	4672
895.405	4607
895.526	4607
895.648	4679
895.769	4679
895.891	4698
896.012	4733
896.134	4694
896.255	4641
896.376	4653
896.498	4626
896.619	4672
896.74	4653
896.861	4641
896.982	4934
897.103	5045
897.224	4763
897.345	4744
897.466	4710
897.587	4755
897.708	4854
897.828	4782
897.949	4645
898.07	4535
898.19	4630
898.311	4839
898.431	4714
898.552	4740
898.672	4805
898.792	4793
898.913	4755
899.033	4634
899.153	4527
899.273	4451
899.393	4504
899.513	4531
899.633	4516
899.753	4558
899.873	4516
899.993	4561
900.113	4512
900.232	4641
900.352	4512
900.472	4489
900.591	4417
900.711	4474
900.83	4455
900.95	4618
901.069	4748
901.189	4599
901.308	4314
901.427	4348
901.546	4402
901.665	4474
901.784	4500
901.904	4417
902.023	4295
902.141	4200
902.26	4181
902.379	4329
902.498	4287
902.617	4265
902.735	4402
902.854	4440
902.973	4375
903.091	4200
903.21	4246
903.328	4299
903.446	4265
903.565	4272
903.683	4367
903.801	4341
903.919	4421
904.038	4474
904.156	4306
904.274	4413
904.392	4386
904.51	4371
904.627	4493
904.745	4573
904.863	4607
904.981	4375
905.098	4299
905.216	4398
905.334	4428
905.451	4417
905.569	4478
905.686	4565
905.803	4592
905.921	4402
906.038	4573
906.155	4428
906.272	4371
906.389	4466
906.506	4409
906.623	4325
906.74	4398
906.857	4344
906.974	4344
907.091	4569
907.208	4664
907.324	4607
907.441	4542
907.557	4322
907.674	4341
907.79	4280
907.907	4390
908.023	4470
908.139	4478
908.256	4440
908.372	4489
908.488	4459
908.604	4360
908.72	4333
908.836	4383
908.952	4356
909.068	4409
909.184	4542
909.3	4470
909.415	4603
909.531	4538
909.647	4363
909.762	4386
909.878	4318
909.993	4394
910.108	4413
910.224	4413
910.339	4459
910.454	4428
910.57	4360
910.685	4333
910.8	4675
910.915	4615
911.03	4504
911.145	4325
911.259	4303
911.374	4348
911.489	4295
911.604	4291
911.718	4158
911.833	4207
911.947	4071
912.062	4006
912.176	4185
912.291	4268
912.405	4268
912.519	4432
912.633	4508
912.748	4421
912.862	4329
912.976	4204
913.09	4109
913.204	4196
913.318	4227
913.431	4348
913.545	4405
913.659	4470
913.772	4356
913.886	4238
914	4230
914.113	4371
914.226	4428
914.34	4424
914.453	4227
914.566	4421
914.68	4344
914.793	4314
914.906	4166
915.019	4120
915.132	4051
915.245	4143
915.358	4219
915.47	4200
915.583	4234
915.696	4322
915.809	4447
915.921	4379
916.034	4272
916.146	4322
916.259	4207
916.371	4409
916.483	4337
916.595	4215
916.708	4318
916.82	4303
916.932	4325
917.044	4325
917.156	4383
917.268	4234
917.38	4284
917.491	4261
917.603	4367
917.715	4424
917.826	4402
917.938	4318
918.049	4272
918.161	4398
918.272	4512
918.384	4558
918.495	4409
918.606	4299
918.717	4223
918.828	4352
918.939	4367
919.05	4227
919.161	4284
919.272	4124
919.383	4219
919.494	4459
919.604	4630
919.715	4398
919.826	4348
919.936	4394
920.047	4516
920.157	4428
920.267	4725
920.378	4519
920.488	4512
920.598	4725
920.708	4858
920.818	4755
920.928	4805
921.038	4953
921.148	4908
921.258	4599
921.368	4558
921.477	4478
921.587	4455
921.697	4360
921.806	4535
921.916	4383
922.025	4276
922.134	4322
922.244	4211
922.353	4341
922.462	4135
922.571	4101
922.68	4006
922.789	3987
922.898	3975
923.007	3975
923.116	4093
923.224	4086
923.333	4071
923.442	3979
923.55	3972
923.659	4025
923.767	4101
923.876	4010
923.984	4124
924.092	4040
924.201	4059
924.309	4093
924.417	4120
924.525	4063
924.633	4097
924.741	4873
924.849	3922
924.956	4105
925.064	3983
925.172	3899
925.279	3964
925.387	4048
925.494	4071
925.602	4207
925.709	4215
925.816	4002
925.924	4169
926.031	4227
926.138	4166
926.245	4207
926.352	4109
926.459	4223
926.566	4276
926.673	4158
926.779	4139
926.886	4059
926.993	3979
927.099	3930
927.206	3934
927.312	3934
927.419	4013
927.525	4059
927.631	4101
927.737	3941
927.843	3918
927.95	3838
928.056	3899
928.162	3972
928.267	4074
928.373	4637
928.479	4135
928.585	3907
928.69	4040
928.796	4059
928.901	3922
929.007	3831
929.112	4017
929.218	3937
929.323	3941
929.428	3941
929.533	4071
929.638	3926
929.743	3956
929.848	4063
929.953	3987
930.058	3941
930.163	3762
930.267	3861
930.372	3937
930.477	3797
930.581	4101
930.685	3983
930.79	3823
930.894	3823
930.998	3842
931.103	4006
931.207	3724
931.311	3679
931.415	3663
931.519	3526
931.623	3553
