Data from test_V78500241_837.txt Node
Date: Fri Mar 25 16:54:49 CST 2022
User: usil
Spectrometer: V785-0024
Trigger mode: 0
Integration Time (sec): 4.000000E-1
Scans to average: 1
Nonlinearity correction enabled: false
Boxcar width: 0
Storing dark spectrum: false
XAxis mode: Wavelengths
Number of Pixels in Spectrum: 1024
>>>>>Begin Spectral Data<<<<<
801.071	7967
801.214	8050
801.356	7890
801.499	7856
801.641	7761
801.783	7822
801.926	7902
802.068	7932
802.211	7921
802.353	7963
802.496	7875
802.638	7852
802.78	7875
802.923	7921
803.065	7841
803.208	7967
803.35	8027
803.492	8161
803.635	8073
803.777	8016
803.919	8077
804.061	8450
804.204	8096
804.346	8016
804.488	7936
804.63	8103
804.773	8027
804.915	8126
805.057	8237
805.199	8149
805.341	8180
805.483	8221
805.626	8195
805.768	8107
805.91	8183
806.052	8164
806.194	8043
806.336	8286
806.478	8062
806.62	8039
806.762	8081
806.904	8229
807.046	8412
807.188	8328
807.33	8347
807.472	8328
807.614	8111
807.756	8100
807.898	7989
808.04	7890
808.182	7883
808.324	7887
808.465	7849
808.607	8027
808.749	8058
808.891	8214
809.033	8271
809.174	8111
809.316	8035
809.458	7955
809.6	7940
809.741	7970
809.883	7963
810.025	8077
810.166	8054
810.308	8008
810.45	8016
810.591	7826
810.733	7734
810.875	7750
811.016	7556
811.158	7480
811.299	7575
811.441	7693
811.582	7624
811.724	7552
811.865	7563
812.007	7563
812.148	7521
812.29	7559
812.431	7693
812.573	7833
812.714	7909
812.855	8065
812.997	8183
813.138	8351
813.279	8172
813.421	8084
813.562	8016
813.703	7864
813.845	7795
813.986	7468
814.127	7217
814.268	7221
814.41	7187
814.551	7095
814.692	7164
814.833	7019
814.974	7103
815.115	7080
815.256	6901
815.397	6875
815.539	6932
815.68	6859
815.821	6779
815.962	6863
816.103	6848
816.244	6673
816.385	6646
816.526	6608
816.666	6475
816.807	6281
816.948	6369
817.089	6456
817.23	6456
817.371	6369
817.512	6300
817.653	6380
817.793	6311
817.934	6448
818.075	6410
818.216	6448
818.356	6388
818.497	6182
818.638	6087
818.778	6144
818.919	6091
819.06	6178
819.2	6311
819.341	6270
819.481	6327
819.622	6521
819.762	6726
819.903	6684
820.043	6559
820.184	6547
820.324	6502
820.465	6642
820.605	6677
820.746	6650
820.886	6506
821.026	6711
821.167	6635
821.307	6833
821.447	6703
821.588	6650
821.728	6566
821.868	6437
822.008	6285
822.149	6327
822.289	6369
822.429	6121
822.569	6072
822.709	6136
822.849	5946
822.99	5897
823.13	5954
823.27	5912
823.41	5783
823.55	5783
823.69	5756
823.83	5729
823.97	5642
824.11	5528
824.25	5497
824.389	5528
824.529	5604
824.669	5486
824.809	5649
824.949	5642
825.089	5558
825.228	5596
825.368	5379
825.508	5299
825.648	5311
825.787	5353
825.927	5372
826.067	5277
826.206	5246
826.346	5307
826.485	5379
826.625	5376
826.765	5497
826.904	5448
827.044	5246
827.183	5174
827.323	5071
827.462	5284
827.601	5098
827.741	5128
827.88	5178
828.02	5067
828.159	5204
828.298	5246
828.437	5345
828.577	5235
828.716	5440
828.855	5318
828.994	5121
829.134	5151
829.273	5132
829.412	5155
829.551	5128
829.69	5094
829.829	5204
829.968	5322
830.107	5246
830.246	5246
830.385	5178
830.524	5143
830.663	5083
830.802	4984
830.941	4908
831.08	4946
831.219	4927
831.357	4991
831.496	5109
831.635	4919
831.774	4786
831.913	4793
832.051	4675
832.19	4714
832.329	4793
832.467	4710
832.606	4596
832.744	4714
832.883	4714
833.022	4733
833.16	4797
833.299	4736
833.437	4782
833.576	4835
833.714	4862
833.852	4831
833.991	4896
834.129	4972
834.267	4953
834.406	4904
834.544	4965
834.682	4972
834.821	4961
834.959	5136
835.097	4965
835.235	5170
835.373	5086
835.511	5045
835.65	5022
835.788	4972
835.926	4873
836.064	4850
836.202	4946
836.34	5124
836.478	5201
836.615	5143
836.753	5181
836.891	5223
837.029	5254
837.167	5193
837.305	5136
837.443	5090
837.58	5094
837.718	5330
837.856	5124
837.993	5079
838.131	5223
838.269	5193
838.406	5174
838.544	5140
838.681	4991
838.819	5010
838.956	4896
839.094	4870
839.231	4980
839.369	5060
839.506	5353
839.643	5208
839.781	5029
839.918	5025
840.055	5033
840.193	5094
840.33	5075
840.467	5147
840.604	5181
840.742	5440
840.879	5079
841.016	5079
841.153	5105
841.29	5334
841.427	5296
841.564	5311
841.701	5334
841.838	5284
841.975	5185
842.112	5246
842.249	5086
842.385	5098
842.522	5280
842.659	5174
842.796	5086
842.933	5178
843.069	5067
843.206	5128
843.343	5303
843.479	5239
843.616	5197
843.752	5022
843.889	4987
844.025	5181
844.162	4965
844.298	5121
844.435	5033
844.571	5052
844.708	5162
844.844	5242
844.98	5311
845.117	5269
845.253	5128
845.389	5033
845.525	5201
845.661	5086
845.798	5014
845.934	5155
846.07	4980
846.206	5181
846.342	5235
846.478	5174
846.614	4999
846.75	4987
846.886	4904
847.022	5090
847.158	4999
847.294	5033
847.429	5060
847.565	4991
847.701	5318
847.837	4843
847.972	4782
848.108	4923
848.244	4915
848.379	4797
848.515	4683
848.65	4679
848.786	4702
848.921	4653
849.057	4831
849.192	4900
849.328	4828
849.463	4835
849.598	4778
849.734	4752
849.869	4736
850.004	4580
850.14	4634
850.275	4618
850.41	4508
850.545	4516
850.68	4603
850.815	4584
850.95	4622
851.085	4858
851.22	4717
851.355	4706
851.49	4618
851.625	4656
851.76	4618
851.895	4531
852.03	4546
852.165	4660
852.299	4725
852.434	4740
852.569	4725
852.703	4790
852.838	4854
852.973	4942
853.107	4904
853.242	4755
853.376	4675
853.511	4561
853.645	4668
853.78	4824
853.914	4702
854.048	4656
854.183	4672
854.317	4759
854.451	4828
854.585	4691
854.72	4672
854.854	4767
854.988	4626
855.122	4664
855.256	4573
855.39	4675
855.524	4812
855.658	4755
855.792	4744
855.926	4744
856.06	4767
856.194	4824
856.327	4721
856.461	4588
856.595	4660
856.729	4653
856.862	4828
856.996	4744
857.13	4752
857.263	4797
857.397	4873
857.53	4675
857.664	4801
857.797	4816
857.931	4843
858.064	4672
858.197	4778
858.331	4691
858.464	4634
858.597	4550
858.731	4656
858.864	4634
858.997	4679
859.13	4656
859.263	4691
859.396	4740
859.529	4577
859.662	4622
859.795	4588
859.928	4637
860.061	4831
860.194	4835
860.327	4679
860.46	4565
860.592	4748
860.725	4816
860.858	4717
860.99	4618
861.123	4596
861.256	4573
861.388	4679
861.521	5372
861.653	4474
861.786	4516
861.918	4455
862.05	4569
862.183	4580
862.315	4634
862.447	4702
862.58	4523
862.712	4432
862.844	4344
862.976	4508
863.108	4519
863.24	4759
863.372	4352
863.504	4459
863.636	4394
863.768	4504
863.9	4478
864.032	4394
864.164	4508
864.296	4489
864.428	4558
864.559	4584
864.691	4565
864.823	4561
864.954	4485
865.086	4519
865.217	4455
865.349	4409
865.48	4485
865.612	4531
865.743	4653
865.875	4516
866.006	4451
866.137	4485
866.269	4417
866.4	4470
866.531	4447
866.662	4440
866.793	4424
866.924	4447
867.055	4485
867.186	4462
867.317	4405
867.448	4383
867.579	4421
867.71	4402
867.841	4417
867.972	4462
868.103	4470
868.233	4493
868.364	4398
868.495	4493
868.625	4698
868.756	4774
868.886	4596
869.017	4637
869.147	4805
869.278	4778
869.408	4653
869.539	4618
869.669	4729
869.799	4683
869.929	4782
870.06	4763
870.19	4965
870.32	4980
870.45	4968
870.58	5029
870.71	5124
870.84	5102
870.97	4934
871.1	4934
871.23	5140
871.36	5124
871.489	5041
871.619	5098
871.749	5102
871.879	5151
872.008	5201
872.138	5090
872.267	4991
872.397	4866
872.526	4812
872.656	4729
872.785	4812
872.915	4968
873.044	5075
873.173	5003
873.303	5014
873.432	4961
873.561	5014
873.69	4919
873.819	4877
873.948	4858
874.077	4786
874.206	4717
874.335	4782
874.464	4927
874.593	5117
874.722	4995
874.851	5162
874.979	5067
875.108	5071
875.237	4930
875.365	4889
875.494	4930
875.623	5003
875.751	4881
875.88	4923
876.008	5018
876.136	5048
876.265	5208
876.393	5402
876.521	5258
876.65	5254
876.778	5181
876.906	5102
877.034	5060
877.162	5079
877.29	4995
877.418	5033
877.546	5025
877.674	5083
877.802	5105
877.93	5033
878.058	4984
878.185	4889
878.313	4942
878.441	4991
878.568	4812
878.696	4850
878.824	4972
878.951	5003
879.079	5155
879.206	5269
879.333	5140
879.461	5003
879.588	5067
879.715	5132
879.842	5223
879.97	5067
880.097	4801
880.224	4786
880.351	4839
880.478	4816
880.605	4828
880.732	4778
880.859	5132
880.986	4923
881.112	4934
881.239	4786
881.366	4679
881.493	4660
881.619	4611
881.746	4687
881.872	4649
881.999	4656
882.125	4710
882.252	4782
882.378	4828
882.505	5029
882.631	4797
882.757	4698
882.883	4755
883.01	4714
883.136	4675
883.262	4630
883.388	4630
883.514	4870
883.64	4862
883.766	4805
883.892	4656
884.018	4748
884.143	4839
884.269	5029
884.395	4660
884.52	4622
884.646	4721
884.772	4577
884.897	4622
885.023	4679
885.148	4809
885.274	4885
885.399	4748
885.524	4736
885.65	4698
885.775	4816
885.9	4736
886.025	4877
886.15	4790
886.275	4683
886.4	4687
886.525	4687
886.65	4698
886.775	4710
886.9	4881
887.025	5041
887.149	4805
887.274	4736
887.399	4592
887.523	4660
887.648	4588
887.773	4645
887.897	4801
888.021	4782
888.146	4672
888.27	4820
888.395	4870
888.519	4820
888.643	4828
888.767	4858
888.891	4698
889.015	4569
889.139	4672
889.263	4607
889.387	4793
889.511	4889
889.635	4847
889.759	4710
889.883	4630
890.006	4752
890.13	4820
890.254	4645
890.377	4786
890.501	4580
890.624	4516
890.748	4611
890.871	4519
890.995	4436
891.118	4348
891.241	4519
891.364	4573
891.488	4656
891.611	4470
891.734	4550
891.857	4664
891.98	4535
892.103	4683
892.226	4569
892.349	4561
892.471	4474
892.594	4592
892.717	4641
892.839	4580
892.962	4656
893.085	4683
893.207	4569
893.33	4459
893.452	4561
893.575	4660
893.697	4645
893.819	4801
893.941	4839
894.064	4820
894.186	4615
894.308	4607
894.43	4782
894.552	4831
894.674	4767
894.796	4607
894.918	4580
895.04	4596
895.161	4725
895.283	4691
895.405	4569
895.526	4698
895.648	4691
895.769	4710
895.891	4736
896.012	4790
896.134	4759
896.255	4668
896.376	4668
896.498	4630
896.619	4660
896.74	4603
896.861	4668
896.982	4927
897.103	5121
897.224	4812
897.345	4752
897.466	4683
897.587	4774
897.708	4877
897.828	4801
897.949	4698
898.07	4580
898.19	4580
898.311	4873
898.431	4691
898.552	4714
898.672	4843
898.792	4809
898.913	4790
899.033	4607
899.153	4493
899.273	4459
899.393	4516
899.513	4519
899.633	4561
899.753	4573
899.873	4512
899.993	4618
900.113	4558
900.232	4622
900.352	4561
900.472	4508
900.591	4424
900.711	4508
900.83	4424
900.95	4622
901.069	4672
901.189	4542
901.308	4371
901.427	4318
901.546	4363
901.665	4440
901.784	4546
901.904	4424
902.023	4318
902.141	4215
902.26	4188
902.379	4337
902.498	4234
902.617	4230
902.735	4375
902.854	4413
902.973	4383
903.091	4219
903.21	4280
903.328	4310
903.446	4299
903.565	4257
903.683	4348
903.801	4291
903.919	4440
904.038	4409
904.156	4272
904.274	4508
904.392	4424
904.51	4466
904.627	4443
904.745	4569
904.863	4653
904.981	4432
905.098	4322
905.216	4409
905.334	4440
905.451	4451
905.569	4451
905.686	4508
905.803	4607
905.921	4462
906.038	4573
906.155	4478
906.272	4424
906.389	4478
906.506	4379
906.623	4363
906.74	4428
906.857	4318
906.974	4398
907.091	4596
907.208	4706
907.324	4603
907.441	4519
907.557	4325
907.674	4356
907.79	4337
907.907	4428
908.023	4508
908.139	4512
908.256	4402
908.372	4455
908.488	4470
908.604	4341
908.72	4405
908.836	4363
908.952	4398
909.068	4462
909.184	4626
909.3	4485
909.415	4565
909.531	4565
909.647	4360
909.762	4371
909.878	4363
909.993	4421
910.108	4440
910.224	4394
910.339	4512
910.454	4394
910.57	4367
910.685	4291
910.8	4649
910.915	4626
911.03	4512
911.145	4386
911.259	4310
911.374	4352
911.489	4329
911.604	4284
911.718	4223
911.833	4185
911.947	4078
912.062	4074
912.176	4207
912.291	4204
912.405	4257
912.519	4504
912.633	4493
912.748	4367
912.862	4325
912.976	4158
913.09	4097
913.204	4173
913.318	4204
913.431	4394
913.545	4348
913.659	4424
913.772	4383
913.886	4234
914	4204
914.113	4405
914.226	4428
914.34	4405
914.453	4249
914.566	4421
914.68	4352
914.793	4318
914.906	4173
915.019	4139
915.132	4120
915.245	4166
915.358	4204
915.47	4253
915.583	4318
915.696	4306
915.809	4383
915.921	4481
916.034	4257
916.146	4299
916.259	4249
916.371	4356
916.483	4390
916.595	4257
916.708	4363
916.82	4303
916.932	4287
917.044	4337
917.156	4344
917.268	4234
917.38	4291
917.491	4249
917.603	4348
917.715	4417
917.826	4447
917.938	4333
918.049	4204
918.161	4428
918.272	4542
918.384	4554
918.495	4447
918.606	4344
918.717	4249
918.828	4356
918.939	4402
919.05	4246
919.161	4333
919.272	4158
919.383	4257
919.494	4440
919.604	4615
919.715	4432
919.826	4375
919.936	4379
920.047	4573
920.157	4504
920.267	4694
920.378	4607
920.488	4516
920.598	4721
920.708	4881
920.818	4812
920.928	4733
921.038	4957
921.148	4927
921.258	4656
921.368	4588
921.477	4554
921.587	4485
921.697	4402
921.806	4584
921.916	4504
922.025	4318
922.134	4295
922.244	4249
922.353	4409
922.462	4230
922.571	4166
922.68	4040
922.789	4021
922.898	4086
923.007	4006
923.116	4158
923.224	4078
923.333	4139
923.442	4055
923.55	4029
923.659	4086
923.767	4147
923.876	4063
923.984	4105
924.092	4071
924.201	4116
924.309	4131
924.417	4200
924.525	4101
924.633	4105
924.741	4862
924.849	3941
924.956	4204
925.064	3987
925.172	3876
925.279	4006
925.387	4109
925.494	4112
925.602	4219
925.709	4204
925.816	4109
925.924	4188
926.031	4242
926.138	4181
926.245	4249
926.352	4116
926.459	4299
926.566	4363
926.673	4188
926.779	4109
926.886	4074
926.993	4067
927.099	4017
927.206	3937
927.312	3979
927.419	4143
927.525	4055
927.631	4135
927.737	3945
927.843	3987
927.95	3892
928.056	3968
928.162	3983
928.267	4101
928.373	4717
928.479	4143
928.585	3903
928.69	4010
928.796	4147
928.901	4051
929.007	3915
929.112	4029
929.218	4010
929.323	3949
929.428	3979
929.533	4185
929.638	3937
929.743	3979
929.848	4097
929.953	4071
930.058	3930
930.163	3835
930.267	3861
930.372	4048
930.477	3865
930.581	4120
930.685	3983
930.79	3873
930.894	3937
930.998	3842
931.103	4067
931.207	3770
931.311	3705
931.415	3679
931.519	3545
931.623	3610
