Data from test_V78500241_2318.txt Node
Date: Fri Mar 25 17:05:07 CST 2022
User: usil
Spectrometer: V785-0024
Trigger mode: 0
Integration Time (sec): 4.000000E-1
Scans to average: 1
Nonlinearity correction enabled: false
Boxcar width: 0
Storing dark spectrum: false
XAxis mode: Wavelengths
Number of Pixels in Spectrum: 1024
>>>>>Begin Spectral Data<<<<<
801.071	8027
801.214	7959
801.356	7928
801.499	7833
801.641	7814
801.783	7833
801.926	7959
802.068	7974
802.211	8005
802.353	7963
802.496	7837
802.638	7940
802.78	7826
802.923	7936
803.065	7909
803.208	7875
803.35	7917
803.492	8065
803.635	8180
803.777	8065
803.919	8130
804.061	8438
804.204	8176
804.346	8077
804.488	8069
804.63	8024
804.773	8035
804.915	8126
805.057	8313
805.199	8164
805.341	8263
805.483	8248
805.626	8233
805.768	8138
805.91	8286
806.052	8259
806.194	8138
806.336	8267
806.478	8161
806.62	8050
806.762	8069
806.904	8202
807.046	8454
807.188	8336
807.33	8263
807.472	8347
807.614	8225
807.756	8153
807.898	8035
808.04	7845
808.182	7883
808.324	7887
808.465	7887
808.607	8050
808.749	8168
808.891	8199
809.033	8343
809.174	8221
809.316	8039
809.458	8058
809.6	8027
809.741	8065
809.883	8050
810.025	8035
810.166	8092
810.308	7963
810.45	7967
810.591	7833
810.733	7803
810.875	7636
811.016	7559
811.158	7491
811.299	7636
811.441	7693
811.582	7731
811.724	7594
811.865	7567
812.007	7624
812.148	7571
812.29	7586
812.431	7772
812.573	7898
812.714	7989
812.855	8153
812.997	8225
813.138	8305
813.279	8161
813.421	8107
813.562	7845
813.703	7822
813.845	7746
813.986	7426
814.127	7232
814.268	7187
814.41	7160
814.551	7160
814.692	7228
814.833	7107
814.974	7156
815.115	7122
815.256	7012
815.397	6966
815.539	6977
815.68	6783
815.821	6749
815.962	6829
816.103	6802
816.244	6726
816.385	6601
816.526	6559
816.666	6517
816.807	6235
816.948	6418
817.089	6460
817.23	6388
817.371	6331
817.512	6388
817.653	6372
817.793	6399
817.934	6418
818.075	6452
818.216	6460
818.356	6429
818.497	6315
818.638	6220
818.778	6175
818.919	6194
819.06	6171
819.2	6311
819.341	6342
819.481	6376
819.622	6521
819.762	6722
819.903	6703
820.043	6578
820.184	6566
820.324	6608
820.465	6684
820.605	6669
820.746	6623
820.886	6509
821.026	6635
821.167	6688
821.307	6829
821.447	6768
821.588	6715
821.728	6578
821.868	6517
822.008	6323
822.149	6342
822.289	6327
822.429	6209
822.569	6110
822.709	6144
822.849	5954
822.99	5893
823.13	5912
823.27	5958
823.41	5786
823.55	5779
823.69	5760
823.83	5828
823.97	5661
824.11	5543
824.25	5528
824.389	5577
824.529	5573
824.669	5539
824.809	5634
824.949	5642
825.089	5668
825.228	5611
825.368	5376
825.508	5376
825.648	5345
825.787	5383
825.927	5376
826.067	5280
826.206	5265
826.346	5406
826.485	5383
826.625	5379
826.765	5554
826.904	5474
827.044	5223
827.183	5204
827.323	5155
827.462	5201
827.601	5121
827.741	5178
827.88	5166
828.02	5113
828.159	5216
828.298	5337
828.437	5353
828.577	5246
828.716	5474
828.855	5334
828.994	5162
829.134	5143
829.273	5265
829.412	5143
829.551	5105
829.69	5189
829.829	5254
829.968	5357
830.107	5246
830.246	5280
830.385	5208
830.524	5132
830.663	5071
830.802	5025
830.941	4889
831.08	4877
831.219	5010
831.357	4999
831.496	5174
831.635	4999
831.774	4847
831.913	4820
832.051	4763
832.19	4698
832.329	4866
832.467	4740
832.606	4656
832.744	4668
832.883	4733
833.022	4714
833.16	4790
833.299	4862
833.437	4816
833.576	4843
833.714	4850
833.852	4847
833.991	4930
834.129	4987
834.267	4938
834.406	4889
834.544	5006
834.682	4984
834.821	4965
834.959	5181
835.097	4980
835.235	5147
835.373	5086
835.511	5098
835.65	5014
835.788	4968
835.926	4835
836.064	4870
836.202	4889
836.34	5117
836.478	5136
836.615	5124
836.753	5170
836.891	5280
837.029	5261
837.167	5178
837.305	5174
837.443	5155
837.58	5071
837.718	5216
837.856	5147
837.993	5151
838.131	5250
838.269	5220
838.406	5227
838.544	5174
838.681	5041
838.819	4980
838.956	4870
839.094	4885
839.231	4965
839.369	5083
839.506	5379
839.643	5280
839.781	5056
839.918	5006
840.055	5094
840.193	5014
840.33	5098
840.467	5124
840.604	5178
840.742	5410
840.879	5086
841.016	5048
841.153	5128
841.29	5357
841.427	5360
841.564	5357
841.701	5357
841.838	5265
841.975	5220
842.112	5246
842.249	5098
842.385	5079
842.522	5284
842.659	5212
842.796	5143
842.933	5201
843.069	5162
843.206	5121
843.343	5303
843.479	5239
843.616	5242
843.752	5071
843.889	5048
844.025	5201
844.162	5010
844.298	5185
844.435	5102
844.571	5056
844.708	5212
844.844	5303
844.98	5303
845.117	5261
845.253	5170
845.389	5086
845.525	5124
845.661	5121
845.798	5056
845.934	5124
846.07	5006
846.206	5197
846.342	5231
846.478	5140
846.614	4984
846.75	4946
846.886	4953
847.022	5140
847.158	5003
847.294	5094
847.429	5109
847.565	5025
847.701	5326
847.837	4866
847.972	4824
848.108	4934
848.244	4900
848.379	4778
848.515	4710
848.65	4687
848.786	4733
848.921	4805
849.057	4847
849.192	4904
849.328	4801
849.463	4824
849.598	4744
849.734	4733
849.869	4687
850.004	4592
850.14	4683
850.275	4603
850.41	4516
850.545	4599
850.68	4615
850.815	4573
850.95	4645
851.085	4824
851.22	4694
851.355	4679
851.49	4618
851.625	4618
851.76	4637
851.895	4565
852.03	4527
852.165	4672
852.299	4698
852.434	4809
852.569	4725
852.703	4790
852.838	4881
852.973	4972
853.107	4908
853.242	4733
853.376	4672
853.511	4531
853.645	4607
853.78	4778
853.914	4687
854.048	4622
854.183	4710
854.317	4729
854.451	4885
854.585	4683
854.72	4637
854.854	4744
854.988	4565
855.122	4649
855.256	4535
855.39	4592
855.524	4782
855.658	4710
855.792	4687
855.926	4683
856.06	4782
856.194	4771
856.327	4710
856.461	4622
856.595	4599
856.729	4603
856.862	4725
856.996	4702
857.13	4729
857.263	4748
857.397	4824
857.53	4656
857.664	4717
857.797	4801
857.931	4771
858.064	4706
858.197	4752
858.331	4622
858.464	4611
858.597	4497
858.731	4641
858.864	4641
858.997	4607
859.13	4664
859.263	4645
859.396	4691
859.529	4565
859.662	4577
859.795	4535
859.928	4664
860.061	4736
860.194	4740
860.327	4611
860.46	4603
860.592	4675
860.725	4672
860.858	4755
860.99	4599
861.123	4535
861.256	4550
861.388	4641
861.521	5250
861.653	4504
861.786	4421
861.918	4478
862.05	4493
862.183	4508
862.315	4588
862.447	4592
862.58	4546
862.712	4405
862.844	4341
862.976	4500
863.108	4451
863.24	4820
863.372	4325
863.504	4363
863.636	4424
863.768	4462
863.9	4447
864.032	4329
864.164	4424
864.296	4459
864.428	4558
864.559	4531
864.691	4527
864.823	4508
864.954	4519
865.086	4531
865.217	4470
865.349	4405
865.48	4432
865.612	4489
865.743	4592
865.875	4523
866.006	4428
866.137	4459
866.269	4394
866.4	4390
866.531	4405
866.662	4440
866.793	4398
866.924	4421
867.055	4478
867.186	4447
867.317	4402
867.448	4348
867.579	4390
867.71	4360
867.841	4390
867.972	4459
868.103	4481
868.233	4447
868.364	4436
868.495	4535
868.625	4656
868.756	4755
868.886	4516
869.017	4683
869.147	4755
869.278	4793
869.408	4653
869.539	4634
869.669	4706
869.799	4641
869.929	4771
870.06	4786
870.19	4999
870.32	4889
870.45	4949
870.58	5022
870.71	5109
870.84	5067
870.97	4938
871.1	4900
871.23	5109
871.36	5185
871.489	5003
871.619	5083
871.749	5121
871.879	5147
872.008	5151
872.138	5045
872.267	4953
872.397	4866
872.526	4744
872.656	4710
872.785	4763
872.915	4938
873.044	5025
873.173	4946
873.303	4930
873.432	4991
873.561	4949
873.69	4839
873.819	4885
873.948	4968
874.077	4854
874.206	4755
874.335	4828
874.464	4900
874.593	5003
874.722	4946
874.851	5121
874.979	5045
875.108	5029
875.237	4927
875.365	4900
875.494	4919
875.623	4980
875.751	4816
875.88	4820
876.008	4972
876.136	5014
876.265	5216
876.393	5296
876.521	5269
876.65	5242
876.778	5193
876.906	5086
877.034	5014
877.162	5048
877.29	4965
877.418	5037
877.546	5090
877.674	5067
877.802	4999
877.93	5029
878.058	4949
878.185	4870
878.313	4930
878.441	4957
878.568	4858
878.696	4843
878.824	4946
878.951	5014
879.079	5121
879.206	5349
879.333	5094
879.461	4980
879.588	5029
879.715	5086
879.842	5204
879.97	4968
880.097	4793
880.224	4744
880.351	4771
880.478	4816
880.605	4793
880.732	4740
880.859	5075
880.986	4858
881.112	4927
881.239	4809
881.366	4649
881.493	4565
881.619	4569
881.746	4637
881.872	4592
881.999	4672
882.125	4694
882.252	4740
882.378	4801
882.505	4911
882.631	4763
882.757	4698
882.883	4729
883.01	4740
883.136	4660
883.262	4535
883.388	4637
883.514	4809
883.64	4862
883.766	4782
883.892	4637
884.018	4706
884.143	4873
884.269	5037
884.395	4656
884.52	4615
884.646	4618
884.772	4599
884.897	4527
885.023	4630
885.148	4733
885.274	4885
885.399	4752
885.524	4691
885.65	4740
885.775	4679
885.9	4702
886.025	4839
886.15	4812
886.275	4675
886.4	4694
886.525	4782
886.65	4698
886.775	4721
886.9	4877
887.025	4965
887.149	4809
887.274	4656
887.399	4538
887.523	4607
887.648	4580
887.773	4577
887.897	4721
888.021	4755
888.146	4664
888.27	4790
888.395	4870
888.519	4793
888.643	4790
888.767	4790
888.891	4683
889.015	4607
889.139	4683
889.263	4649
889.387	4729
889.511	4889
889.635	4797
889.759	4656
889.883	4656
890.006	4683
890.13	4835
890.254	4622
890.377	4668
890.501	4558
890.624	4512
890.748	4634
890.871	4500
890.995	4455
891.118	4386
891.241	4516
891.364	4508
891.488	4603
891.611	4466
891.734	4535
891.857	4637
891.98	4565
892.103	4626
892.226	4569
892.349	4561
892.471	4436
892.594	4592
892.717	4603
892.839	4523
892.962	4596
893.085	4698
893.207	4622
893.33	4489
893.452	4527
893.575	4592
893.697	4546
893.819	4748
893.941	4854
894.064	4759
894.186	4569
894.308	4535
894.43	4630
894.552	4797
894.674	4755
894.796	4546
894.918	4592
895.04	4599
895.161	4725
895.283	4675
895.405	4561
895.526	4588
895.648	4691
895.769	4694
895.891	4679
896.012	4725
896.134	4679
896.255	4683
896.376	4634
896.498	4641
896.619	4683
896.74	4630
896.861	4641
896.982	4896
897.103	5105
897.224	4805
897.345	4668
897.466	4649
897.587	4717
897.708	4858
897.828	4793
897.949	4645
898.07	4554
898.19	4603
898.311	4801
898.431	4645
898.552	4740
898.672	4820
898.792	4790
898.913	4729
899.033	4626
899.153	4542
899.273	4413
899.393	4481
899.513	4523
899.633	4538
899.753	4569
899.873	4519
899.993	4607
900.113	4500
900.232	4538
900.352	4519
900.472	4474
900.591	4402
900.711	4481
900.83	4436
900.95	4603
901.069	4683
901.189	4485
901.308	4360
901.427	4314
901.546	4363
901.665	4432
901.784	4542
901.904	4383
902.023	4341
902.141	4158
902.26	4150
902.379	4287
902.498	4238
902.617	4242
902.735	4348
902.854	4348
902.973	4375
903.091	4204
903.21	4261
903.328	4268
903.446	4265
903.565	4272
903.683	4383
903.801	4295
903.919	4394
904.038	4394
904.156	4306
904.274	4424
904.392	4383
904.51	4443
904.627	4478
904.745	4592
904.863	4634
904.981	4386
905.098	4276
905.216	4344
905.334	4443
905.451	4443
905.569	4440
905.686	4558
905.803	4561
905.921	4413
906.038	4569
906.155	4512
906.272	4390
906.389	4451
906.506	4306
906.623	4383
906.74	4371
906.857	4291
906.974	4352
907.091	4584
907.208	4660
907.324	4573
907.441	4516
907.557	4356
907.674	4329
907.79	4314
907.907	4383
908.023	4489
908.139	4470
908.256	4424
908.372	4504
908.488	4432
908.604	4348
908.72	4318
908.836	4402
908.952	4383
909.068	4428
909.184	4569
909.3	4470
909.415	4558
909.531	4573
909.647	4280
909.762	4421
909.878	4325
909.993	4459
910.108	4413
910.224	4394
910.339	4451
910.454	4371
910.57	4398
910.685	4314
910.8	4637
910.915	4611
911.03	4474
911.145	4295
911.259	4344
911.374	4379
911.489	4295
911.604	4261
911.718	4185
911.833	4207
911.947	4112
912.062	4017
912.176	4181
912.291	4242
912.405	4215
912.519	4451
912.633	4535
912.748	4417
912.862	4310
912.976	4196
913.09	4082
913.204	4169
913.318	4223
913.431	4375
913.545	4394
913.659	4402
913.772	4333
913.886	4276
914	4242
914.113	4344
914.226	4421
914.34	4344
914.453	4207
914.566	4451
914.68	4291
914.793	4322
914.906	4150
915.019	4154
915.132	4086
915.245	4181
915.358	4219
915.47	4242
915.583	4227
915.696	4291
915.809	4314
915.921	4402
916.034	4265
916.146	4246
916.259	4211
916.371	4352
916.483	4356
916.595	4280
916.708	4310
916.82	4375
916.932	4299
917.044	4333
917.156	4314
917.268	4230
917.38	4299
917.491	4299
917.603	4344
917.715	4428
917.826	4440
917.938	4360
918.049	4227
918.161	4379
918.272	4546
918.384	4554
918.495	4470
918.606	4287
918.717	4238
918.828	4341
918.939	4367
919.05	4257
919.161	4299
919.272	4128
919.383	4169
919.494	4443
919.604	4596
919.715	4432
919.826	4371
919.936	4398
920.047	4504
920.157	4459
920.267	4664
920.378	4523
920.488	4489
920.598	4717
920.708	4896
920.818	4721
920.928	4759
921.038	4927
921.148	4934
921.258	4603
921.368	4531
921.477	4481
921.587	4436
921.697	4417
921.806	4542
921.916	4443
922.025	4257
922.134	4246
922.244	4265
922.353	4363
922.462	4169
922.571	4135
922.68	3983
922.789	3968
922.898	4048
923.007	3998
923.116	4097
923.224	4055
923.333	4090
923.442	3998
923.55	3983
923.659	4036
923.767	4139
923.876	3979
923.984	4116
924.092	4036
924.201	4105
924.309	4105
924.417	4112
924.525	4078
924.633	4059
924.741	5037
924.849	3907
924.956	4109
925.064	3972
925.172	3907
925.279	3968
925.387	4036
925.494	4048
925.602	4242
925.709	4158
925.816	4029
925.924	4147
926.031	4200
926.138	4124
926.245	4185
926.352	4105
926.459	4242
926.566	4265
926.673	4166
926.779	4032
926.886	4112
926.993	3994
927.099	3915
927.206	3956
927.312	3979
927.419	4116
927.525	4017
927.631	4086
927.737	4002
927.843	3915
927.95	3831
928.056	3953
928.162	3922
928.267	4112
928.373	4687
928.479	4105
928.585	3880
928.69	4025
928.796	4051
928.901	3987
929.007	3831
929.112	3994
929.218	3968
929.323	3941
929.428	3934
929.533	4063
929.638	3876
929.743	3937
929.848	4044
929.953	3994
930.058	3949
930.163	3774
930.267	3819
930.372	3953
930.477	3819
930.581	4074
930.685	3972
930.79	3816
930.894	3899
930.998	3846
931.103	4021
931.207	3648
931.311	3717
931.415	3660
931.519	3488
931.623	3557
