Data from test_V78500241_1651.txt Node
Date: Fri Mar 25 17:00:28 CST 2022
User: usil
Spectrometer: V785-0024
Trigger mode: 0
Integration Time (sec): 4.000000E-1
Scans to average: 1
Nonlinearity correction enabled: false
Boxcar width: 0
Storing dark spectrum: false
XAxis mode: Wavelengths
Number of Pixels in Spectrum: 1024
>>>>>Begin Spectral Data<<<<<
801.071	8054
801.214	8039
801.356	7890
801.499	7879
801.641	7799
801.783	7757
801.926	7989
802.068	7947
802.211	7982
802.353	8058
802.496	7860
802.638	7811
802.78	7909
802.923	7894
803.065	7879
803.208	7944
803.35	7940
803.492	8073
803.635	8157
803.777	8039
803.919	8073
804.061	8457
804.204	8123
804.346	8005
804.488	7898
804.63	8103
804.773	8016
804.915	8145
805.057	8355
805.199	8161
805.341	8183
805.483	8301
805.626	8218
805.768	8123
805.91	8187
806.052	8240
806.194	8103
806.336	8240
806.478	8081
806.62	8088
806.762	8138
806.904	8279
807.046	8499
807.188	8252
807.33	8256
807.472	8279
807.614	8134
807.756	8081
807.898	7974
808.04	7868
808.182	7890
808.324	7890
808.465	7982
808.607	8092
808.749	8119
808.891	8214
809.033	8324
809.174	8221
809.316	8111
809.458	8005
809.6	8005
809.741	8062
809.883	8008
810.025	8119
810.166	8043
810.308	7997
810.45	8024
810.591	7803
810.733	7719
810.875	7636
811.016	7518
811.158	7540
811.299	7578
811.441	7700
811.582	7685
811.724	7643
811.865	7556
812.007	7636
812.148	7567
812.29	7693
812.431	7685
812.573	7921
812.714	7974
812.855	8012
812.997	8195
813.138	8339
813.279	8233
813.421	8084
813.562	7944
813.703	7826
813.845	7746
813.986	7445
814.127	7312
814.268	7232
814.41	7164
814.551	7209
814.692	7263
814.833	7129
814.974	7107
815.115	7114
815.256	6951
815.397	6859
815.539	6863
815.68	6768
815.821	6749
815.962	6810
816.103	6700
816.244	6665
816.385	6582
816.526	6563
816.666	6448
816.807	6296
816.948	6467
817.089	6479
817.23	6456
817.371	6372
817.512	6395
817.653	6342
817.793	6388
817.934	6429
818.075	6429
818.216	6391
818.356	6418
818.497	6270
818.638	6117
818.778	6121
818.919	6159
819.06	6140
819.2	6304
819.341	6372
819.481	6357
819.622	6517
819.762	6703
819.903	6681
820.043	6616
820.184	6585
820.324	6506
820.465	6783
820.605	6707
820.746	6749
820.886	6574
821.026	6654
821.167	6757
821.307	6783
821.447	6779
821.588	6620
821.728	6604
821.868	6525
822.008	6323
822.149	6365
822.289	6372
822.429	6213
822.569	6087
822.709	6133
822.849	5935
822.99	5847
823.13	6007
823.27	5912
823.41	5832
823.55	5786
823.69	5764
823.83	5836
823.97	5665
824.11	5615
824.25	5493
824.389	5585
824.529	5642
824.669	5581
824.809	5684
824.949	5668
825.089	5646
825.228	5589
825.368	5448
825.508	5357
825.648	5379
825.787	5360
825.927	5425
826.067	5353
826.206	5357
826.346	5440
826.485	5395
826.625	5429
826.765	5570
826.904	5539
827.044	5265
827.183	5212
827.323	5124
827.462	5303
827.601	5193
827.741	5216
827.88	5242
828.02	5208
828.159	5277
828.298	5357
828.437	5395
828.577	5299
828.716	5486
828.855	5357
828.994	5208
829.134	5174
829.273	5204
829.412	5193
829.551	5174
829.69	5242
829.829	5284
829.968	5402
830.107	5292
830.246	5311
830.385	5193
830.524	5151
830.663	5090
830.802	5014
830.941	4923
831.08	4930
831.219	5014
831.357	5029
831.496	5197
831.635	4987
831.774	4904
831.913	4862
832.051	4733
832.19	4782
832.329	4881
832.467	4725
832.606	4656
832.744	4771
832.883	4831
833.022	4736
833.16	4790
833.299	4877
833.437	4824
833.576	4870
833.714	4934
833.852	4915
833.991	4900
834.129	5014
834.267	4995
834.406	4927
834.544	5003
834.682	5010
834.821	4972
834.959	5204
835.097	5018
835.235	5185
835.373	5121
835.511	5105
835.65	5090
835.788	5022
835.926	4949
836.064	4927
836.202	4946
836.34	5193
836.478	5242
836.615	5181
836.753	5246
836.891	5277
837.029	5277
837.167	5227
837.305	5220
837.443	5170
837.58	5094
837.718	5292
837.856	5242
837.993	5155
838.131	5242
838.269	5242
838.406	5231
838.544	5254
838.681	5010
838.819	5003
838.956	4873
839.094	4949
839.231	5010
839.369	5124
839.506	5444
839.643	5258
839.781	5117
839.918	5029
840.055	5117
840.193	5147
840.33	5181
840.467	5140
840.604	5181
840.742	5471
840.879	5083
841.016	5079
841.153	5201
841.29	5417
841.427	5360
841.564	5334
841.701	5341
841.838	5280
841.975	5239
842.112	5288
842.249	5147
842.385	5071
842.522	5337
842.659	5212
842.796	5109
842.933	5201
843.069	5166
843.206	5140
843.343	5284
843.479	5284
843.616	5318
843.752	5045
843.889	5056
844.025	5258
844.162	4976
844.298	5288
844.435	5064
844.571	5083
844.708	5201
844.844	5337
844.98	5372
845.117	5299
845.253	5204
845.389	5121
845.525	5181
845.661	5193
845.798	5102
845.934	5220
846.07	5037
846.206	5204
846.342	5318
846.478	5185
846.614	5010
846.75	4942
846.886	5014
847.022	5166
847.158	5010
847.294	5048
847.429	5128
847.565	5071
847.701	5379
847.837	4862
847.972	4812
848.108	4991
848.244	4946
848.379	4797
848.515	4702
848.65	4721
848.786	4778
848.921	4793
849.057	4873
849.192	4953
849.328	4809
849.463	4873
849.598	4812
849.734	4744
849.869	4702
850.004	4653
850.14	4641
850.275	4634
850.41	4554
850.545	4592
850.68	4615
850.815	4729
850.95	4634
851.085	4873
851.22	4752
851.355	4679
851.49	4622
851.625	4630
851.76	4645
851.895	4577
852.03	4577
852.165	4675
852.299	4717
852.434	4847
852.569	4805
852.703	4767
852.838	4877
852.973	4961
853.107	4965
853.242	4771
853.376	4672
853.511	4607
853.645	4603
853.78	4812
853.914	4721
854.048	4729
854.183	4653
854.317	4706
854.451	4866
854.585	4691
854.72	4679
854.854	4809
854.988	4599
855.122	4649
855.256	4531
855.39	4706
855.524	4820
855.658	4706
855.792	4748
855.926	4748
856.06	4820
856.194	4870
856.327	4729
856.461	4603
856.595	4626
856.729	4626
856.862	4835
856.996	4710
857.13	4755
857.263	4797
857.397	4816
857.53	4706
857.664	4729
857.797	4820
857.931	4790
858.064	4725
858.197	4733
858.331	4668
858.464	4622
858.597	4550
858.731	4626
858.864	4637
858.997	4584
859.13	4675
859.263	4706
859.396	4717
859.529	4611
859.662	4603
859.795	4596
859.928	4649
860.061	4786
860.194	4809
860.327	4687
860.46	4554
860.592	4672
860.725	4748
860.858	4740
860.99	4615
861.123	4508
861.256	4565
861.388	4645
861.521	5231
861.653	4508
861.786	4478
861.918	4538
862.05	4523
862.183	4596
862.315	4630
862.447	4668
862.58	4558
862.712	4436
862.844	4375
862.976	4459
863.108	4462
863.24	4744
863.372	4371
863.504	4455
863.636	4462
863.768	4443
863.9	4443
864.032	4409
864.164	4451
864.296	4504
864.428	4577
864.559	4580
864.691	4584
864.823	4542
864.954	4538
865.086	4481
865.217	4466
865.349	4500
865.48	4481
865.612	4558
865.743	4599
865.875	4508
866.006	4451
866.137	4512
866.269	4497
866.4	4383
866.531	4478
866.662	4440
866.793	4459
866.924	4443
867.055	4493
867.186	4474
867.317	4455
867.448	4421
867.579	4409
867.71	4405
867.841	4417
867.972	4470
868.103	4470
868.233	4497
868.364	4436
868.495	4519
868.625	4630
868.756	4790
868.886	4573
869.017	4637
869.147	4759
869.278	4778
869.408	4641
869.539	4630
869.669	4729
869.799	4668
869.929	4782
870.06	4744
870.19	5014
870.32	4938
870.45	4980
870.58	5022
870.71	5121
870.84	5132
870.97	4999
871.1	4908
871.23	5151
871.36	5105
871.489	5048
871.619	5071
871.749	5113
871.879	5117
872.008	5197
872.138	5071
872.267	5048
872.397	4854
872.526	4843
872.656	4733
872.785	4847
872.915	4984
873.044	5079
873.173	4961
873.303	4991
873.432	4961
873.561	4968
873.69	4885
873.819	4919
873.948	4866
874.077	4828
874.206	4801
874.335	4805
874.464	4938
874.593	5075
874.722	4968
874.851	5109
874.979	5090
875.108	5045
875.237	4889
875.365	4908
875.494	4896
875.623	4991
875.751	4835
875.88	4873
876.008	5041
876.136	5128
876.265	5166
876.393	5372
876.521	5280
876.65	5250
876.778	5197
876.906	5098
877.034	5033
877.162	5033
877.29	5037
877.418	5033
877.546	5083
877.674	5041
877.802	5048
877.93	5048
878.058	4930
878.185	4854
878.313	4957
878.441	5006
878.568	4801
878.696	4904
878.824	5006
878.951	4980
879.079	5143
879.206	5330
879.333	5151
879.461	4995
879.588	5025
879.715	5121
879.842	5246
879.97	5052
880.097	4824
880.224	4733
880.351	4847
880.478	4820
880.605	4797
880.732	4809
880.859	5079
880.986	4877
881.112	4911
881.239	4786
881.366	4710
881.493	4626
881.619	4554
881.746	4672
881.872	4691
881.999	4588
882.125	4683
882.252	4771
882.378	4774
882.505	4987
882.631	4812
882.757	4698
882.883	4759
883.01	4736
883.136	4679
883.262	4599
883.388	4675
883.514	4805
883.64	4949
883.766	4801
883.892	4653
884.018	4755
884.143	4911
884.269	4976
884.395	4656
884.52	4698
884.646	4641
884.772	4599
884.897	4596
885.023	4714
885.148	4790
885.274	4854
885.399	4778
885.524	4660
885.65	4740
885.775	4736
885.9	4733
886.025	4866
886.15	4816
886.275	4755
886.4	4672
886.525	4755
886.65	4752
886.775	4717
886.9	4881
887.025	5014
887.149	4797
887.274	4660
887.399	4577
887.523	4653
887.648	4618
887.773	4607
887.897	4752
888.021	4809
888.146	4656
888.27	4831
888.395	4942
888.519	4831
888.643	4847
888.767	4831
888.891	4683
889.015	4588
889.139	4660
889.263	4634
889.387	4786
889.511	4881
889.635	4805
889.759	4653
889.883	4691
890.006	4748
890.13	4850
890.254	4607
890.377	4656
890.501	4554
890.624	4516
890.748	4634
890.871	4489
890.995	4443
891.118	4409
891.241	4512
891.364	4535
891.488	4630
891.611	4474
891.734	4558
891.857	4588
891.98	4546
892.103	4679
892.226	4580
892.349	4523
892.471	4451
892.594	4527
892.717	4584
892.839	4558
892.962	4599
893.085	4649
893.207	4603
893.33	4428
893.452	4497
893.575	4679
893.697	4607
893.819	4835
893.941	4839
894.064	4763
894.186	4634
894.308	4535
894.43	4740
894.552	4816
894.674	4710
894.796	4569
894.918	4596
895.04	4615
895.161	4721
895.283	4615
895.405	4561
895.526	4725
895.648	4679
895.769	4706
895.891	4710
896.012	4721
896.134	4740
896.255	4698
896.376	4622
896.498	4622
896.619	4694
896.74	4615
896.861	4656
896.982	4938
897.103	5098
897.224	4790
897.345	4736
897.466	4656
897.587	4736
897.708	4892
897.828	4824
897.949	4649
898.07	4569
898.19	4656
898.311	4759
898.431	4691
898.552	4759
898.672	4801
898.792	4809
898.913	4763
899.033	4603
899.153	4500
899.273	4424
899.393	4558
899.513	4527
899.633	4542
899.753	4577
899.873	4466
899.993	4565
900.113	4561
900.232	4569
900.352	4558
900.472	4489
900.591	4436
900.711	4478
900.83	4428
900.95	4596
901.069	4706
901.189	4535
901.308	4379
901.427	4325
901.546	4341
901.665	4485
901.784	4542
901.904	4390
902.023	4337
902.141	4177
902.26	4169
902.379	4371
902.498	4268
902.617	4204
902.735	4356
902.854	4322
902.973	4348
903.091	4230
903.21	4257
903.328	4306
903.446	4291
903.565	4257
903.683	4356
903.801	4272
903.919	4409
904.038	4443
904.156	4348
904.274	4478
904.392	4390
904.51	4459
904.627	4497
904.745	4558
904.863	4672
904.981	4402
905.098	4306
905.216	4360
905.334	4436
905.451	4424
905.569	4428
905.686	4538
905.803	4554
905.921	4402
906.038	4519
906.155	4523
906.272	4383
906.389	4440
906.506	4383
906.623	4333
906.74	4436
906.857	4363
906.974	4386
907.091	4611
907.208	4660
907.324	4599
907.441	4443
907.557	4352
907.674	4337
907.79	4322
907.907	4428
908.023	4474
908.139	4455
908.256	4481
908.372	4535
908.488	4447
908.604	4394
908.72	4291
908.836	4390
908.952	4390
909.068	4443
909.184	4599
909.3	4493
909.415	4618
909.531	4561
909.647	4363
909.762	4394
909.878	4314
909.993	4474
910.108	4436
910.224	4371
910.339	4440
910.454	4398
910.57	4303
910.685	4314
910.8	4664
910.915	4603
911.03	4478
911.145	4363
911.259	4314
911.374	4383
911.489	4303
911.604	4242
911.718	4139
911.833	4166
911.947	4055
912.062	4036
912.176	4230
912.291	4207
912.405	4253
912.519	4497
912.633	4523
912.748	4356
912.862	4295
912.976	4238
913.09	4082
913.204	4188
913.318	4253
913.431	4390
913.545	4360
913.659	4402
913.772	4344
913.886	4219
914	4246
914.113	4344
914.226	4421
914.34	4371
914.453	4230
914.566	4424
914.68	4337
914.793	4329
914.906	4166
915.019	4154
915.132	4093
915.245	4207
915.358	4177
915.47	4242
915.583	4246
915.696	4261
915.809	4390
915.921	4417
916.034	4280
916.146	4249
916.259	4196
916.371	4386
916.483	4325
916.595	4272
916.708	4272
916.82	4310
916.932	4371
917.044	4329
917.156	4337
917.268	4234
917.38	4287
917.491	4325
917.603	4325
917.715	4432
917.826	4466
917.938	4383
918.049	4242
918.161	4417
918.272	4577
918.384	4497
918.495	4432
918.606	4287
918.717	4265
918.828	4329
918.939	4367
919.05	4249
919.161	4303
919.272	4120
919.383	4230
919.494	4436
919.604	4630
919.715	4398
919.826	4352
919.936	4367
920.047	4481
920.157	4474
920.267	4717
920.378	4573
920.488	4493
920.598	4733
920.708	4843
920.818	4771
920.928	4748
921.038	4942
921.148	4850
921.258	4615
921.368	4561
921.477	4478
921.587	4424
921.697	4386
921.806	4565
921.916	4417
922.025	4227
922.134	4242
922.244	4211
922.353	4318
922.462	4158
922.571	4162
922.68	3991
922.789	3960
922.898	4032
923.007	4002
923.116	4074
923.224	4086
923.333	4090
923.442	3983
923.55	3968
923.659	4055
923.767	4086
923.876	4055
923.984	4109
924.092	3964
924.201	4063
924.309	4044
924.417	4131
924.525	4059
924.633	4093
924.741	5075
924.849	3926
924.956	4120
925.064	3949
925.172	3880
925.279	3937
925.387	4044
925.494	4078
925.602	4185
925.709	4200
925.816	4006
925.924	4086
926.031	4257
926.138	4158
926.245	4204
926.352	4131
926.459	4268
926.566	4291
926.673	4158
926.779	4166
926.886	4105
926.993	3975
927.099	3930
927.206	3949
927.312	3922
927.419	4059
927.525	4010
927.631	4093
927.737	3934
927.843	3930
927.95	3819
928.056	3953
928.162	3956
928.267	4040
928.373	4569
928.479	4112
928.585	3865
928.69	4010
928.796	4082
928.901	3941
929.007	3831
929.112	4006
929.218	3979
929.323	3888
929.428	3972
929.533	4109
929.638	3922
929.743	3922
929.848	4032
929.953	4021
930.058	3941
930.163	3797
930.267	3823
930.372	3972
930.477	3804
930.581	4093
930.685	3926
930.79	3800
930.894	3903
930.998	3869
931.103	4048
931.207	3709
931.311	3728
931.415	3637
931.519	3523
931.623	3549
