Data from test_V78500241_1136.txt Node
Date: Fri Mar 25 16:56:54 CST 2022
User: usil
Spectrometer: V785-0024
Trigger mode: 0
Integration Time (sec): 4.000000E-1
Scans to average: 1
Nonlinearity correction enabled: false
Boxcar width: 0
Storing dark spectrum: false
XAxis mode: Wavelengths
Number of Pixels in Spectrum: 1024
>>>>>Begin Spectral Data<<<<<
801.071	8100
801.214	8092
801.356	7887
801.499	7803
801.641	7727
801.783	7849
801.926	8050
802.068	8005
802.211	7906
802.353	8039
802.496	7830
802.638	7925
802.78	7894
802.923	7947
803.065	7913
803.208	7883
803.35	7978
803.492	8065
803.635	8187
803.777	8016
803.919	8126
804.061	8457
804.204	8195
804.346	8077
804.488	7986
804.63	8157
804.773	8096
804.915	8100
805.057	8267
805.199	8172
805.341	8240
805.483	8218
805.626	8199
805.768	8111
805.91	8206
806.052	8248
806.194	8107
806.336	8332
806.478	8084
806.62	8043
806.762	8145
806.904	8256
807.046	8495
807.188	8317
807.33	8252
807.472	8309
807.614	8134
807.756	8111
807.898	8005
808.04	7917
808.182	7921
808.324	7875
808.465	7887
808.607	8077
808.749	8164
808.891	8240
809.033	8244
809.174	8149
809.316	8069
809.458	8001
809.6	7967
809.741	8039
809.883	7982
810.025	8050
810.166	8046
810.308	8016
810.45	8043
810.591	7906
810.733	7734
810.875	7639
811.016	7525
811.158	7540
811.299	7563
811.441	7719
811.582	7719
811.724	7601
811.865	7544
812.007	7578
812.148	7628
812.29	7632
812.431	7750
812.573	7909
812.714	8005
812.855	8145
812.997	8168
813.138	8309
813.279	8206
813.421	8092
813.562	7997
813.703	7909
813.845	7746
813.986	7514
814.127	7228
814.268	7213
814.41	7194
814.551	7110
814.692	7209
814.833	7042
814.974	7053
815.115	7110
815.256	6943
815.397	6947
815.539	6973
815.68	6840
815.821	6787
815.962	6894
816.103	6886
816.244	6741
816.385	6673
816.526	6681
816.666	6589
816.807	6323
816.948	6445
817.089	6517
817.23	6452
817.371	6429
817.512	6380
817.653	6399
817.793	6395
817.934	6410
818.075	6452
818.216	6395
818.356	6475
818.497	6220
818.638	6110
818.778	6209
818.919	6197
819.06	6186
819.2	6338
819.341	6277
819.481	6407
819.622	6479
819.762	6760
819.903	6749
820.043	6631
820.184	6597
820.324	6593
820.465	6700
820.605	6692
820.746	6681
820.886	6547
821.026	6673
821.167	6642
821.307	6795
821.447	6798
821.588	6631
821.728	6574
821.868	6506
822.008	6311
822.149	6372
822.289	6426
822.429	6095
822.569	6007
822.709	6079
822.849	5912
822.99	5980
823.13	5863
823.27	5912
823.41	5752
823.55	5828
823.69	5729
823.83	5745
823.97	5703
824.11	5501
824.25	5501
824.389	5543
824.529	5562
824.669	5547
824.809	5592
824.949	5630
825.089	5619
825.228	5524
825.368	5410
825.508	5318
825.648	5345
825.787	5387
825.927	5353
826.067	5280
826.206	5318
826.346	5357
826.485	5410
826.625	5421
826.765	5532
826.904	5497
827.044	5231
827.183	5208
827.323	5128
827.462	5216
827.601	5189
827.741	5204
827.88	5239
828.02	5121
828.159	5208
828.298	5330
828.437	5391
828.577	5261
828.716	5497
828.855	5265
828.994	5181
829.134	5166
829.273	5170
829.412	5075
829.551	5132
829.69	5155
829.829	5269
829.968	5402
830.107	5246
830.246	5280
830.385	5178
830.524	5105
830.663	5094
830.802	5010
830.941	4896
831.08	4862
831.219	4987
831.357	5022
831.496	5121
831.635	4927
831.774	4828
831.913	4831
832.051	4733
832.19	4736
832.329	4850
832.467	4675
832.606	4653
832.744	4649
832.883	4729
833.022	4744
833.16	4782
833.299	4755
833.437	4805
833.576	4805
833.714	4881
833.852	4858
833.991	4885
834.129	4930
834.267	4946
834.406	4881
834.544	4980
834.682	4946
834.821	4953
834.959	5140
835.097	4968
835.235	5136
835.373	5067
835.511	5105
835.65	4991
835.788	4984
835.926	4896
836.064	4873
836.202	4930
836.34	5143
836.478	5235
836.615	5185
836.753	5254
836.891	5307
837.029	5235
837.167	5223
837.305	5170
837.443	5162
837.58	5064
837.718	5242
837.856	5162
837.993	5162
838.131	5239
838.269	5223
838.406	5162
838.544	5178
838.681	5010
838.819	5014
838.956	4881
839.094	4877
839.231	4984
839.369	5098
839.506	5414
839.643	5273
839.781	5075
839.918	5079
840.055	5086
840.193	5098
840.33	5098
840.467	5136
840.604	5181
840.742	5414
840.879	5094
841.016	5113
841.153	5098
841.29	5368
841.427	5341
841.564	5292
841.701	5364
841.838	5280
841.975	5235
842.112	5277
842.249	5151
842.385	5128
842.522	5368
842.659	5155
842.796	5113
842.933	5201
843.069	5136
843.206	5181
843.343	5311
843.479	5231
843.616	5269
843.752	5041
843.889	4984
844.025	5197
844.162	4995
844.298	5181
844.435	5102
844.571	5033
844.708	5185
844.844	5239
844.98	5318
845.117	5337
845.253	5140
845.389	5102
845.525	5147
845.661	5151
845.798	5060
845.934	5102
846.07	5003
846.206	5166
846.342	5261
846.478	5220
846.614	5033
846.75	4965
846.886	4984
847.022	5170
847.158	5056
847.294	5083
847.429	5045
847.565	5003
847.701	5345
847.837	4850
847.972	4809
848.108	4930
848.244	4934
848.379	4809
848.515	4733
848.65	4736
848.786	4763
848.921	4812
849.057	4835
849.192	4843
849.328	4835
849.463	4831
849.598	4843
849.734	4740
849.869	4698
850.004	4634
850.14	4626
850.275	4637
850.41	4481
850.545	4565
850.68	4599
850.815	4615
850.95	4649
851.085	4854
851.22	4748
851.355	4687
851.49	4618
851.625	4599
851.76	4630
851.895	4592
852.03	4550
852.165	4618
852.299	4729
852.434	4790
852.569	4714
852.703	4767
852.838	4835
852.973	4892
853.107	4892
853.242	4717
853.376	4637
853.511	4618
853.645	4584
853.78	4755
853.914	4714
854.048	4679
854.183	4618
854.317	4694
854.451	4831
854.585	4653
854.72	4637
854.854	4809
854.988	4569
855.122	4637
855.256	4504
855.39	4634
855.524	4752
855.658	4752
855.792	4706
855.926	4691
856.06	4736
856.194	4786
856.327	4694
856.461	4611
856.595	4611
856.729	4656
856.862	4710
856.996	4645
857.13	4683
857.263	4733
857.397	4797
857.53	4641
857.664	4656
857.797	4721
857.931	4782
858.064	4683
858.197	4725
858.331	4618
858.464	4588
858.597	4519
858.731	4592
858.864	4664
858.997	4577
859.13	4641
859.263	4660
859.396	4626
859.529	4577
859.662	4535
859.795	4550
859.928	4611
860.061	4736
860.194	4793
860.327	4577
860.46	4538
860.592	4694
860.725	4717
860.858	4729
860.99	4558
861.123	4497
861.256	4481
861.388	4656
861.521	5254
861.653	4466
861.786	4443
861.918	4451
862.05	4523
862.183	4550
862.315	4630
862.447	4637
862.58	4535
862.712	4390
862.844	4310
862.976	4459
863.108	4440
863.24	4854
863.372	4303
863.504	4417
863.636	4383
863.768	4497
863.9	4440
864.032	4375
864.164	4383
864.296	4443
864.428	4527
864.559	4538
864.691	4527
864.823	4508
864.954	4504
865.086	4538
865.217	4428
865.349	4455
865.48	4455
865.612	4474
865.743	4653
865.875	4459
866.006	4432
866.137	4455
866.269	4417
866.4	4432
866.531	4405
866.662	4390
866.793	4337
866.924	4394
867.055	4497
867.186	4455
867.317	4413
867.448	4363
867.579	4356
867.71	4390
867.841	4329
867.972	4432
868.103	4481
868.233	4428
868.364	4470
868.495	4489
868.625	4668
868.756	4736
868.886	4577
869.017	4626
869.147	4729
869.278	4755
869.408	4660
869.539	4630
869.669	4702
869.799	4630
869.929	4805
870.06	4694
870.19	4938
870.32	4923
870.45	4942
870.58	5033
870.71	5083
870.84	5079
870.97	4938
871.1	4854
871.23	5174
871.36	5136
871.489	5014
871.619	5048
871.749	5102
871.879	5124
872.008	5178
872.138	5048
872.267	4953
872.397	4816
872.526	4793
872.656	4733
872.785	4782
872.915	4923
873.044	4991
873.173	4896
873.303	4953
873.432	4972
873.561	4923
873.69	4843
873.819	4854
873.948	4930
874.077	4828
874.206	4729
874.335	4812
874.464	4949
874.593	4984
874.722	4915
874.851	5113
874.979	5071
875.108	5006
875.237	4919
875.365	4881
875.494	4892
875.623	4995
875.751	4797
875.88	4892
876.008	4991
876.136	5045
876.265	5147
876.393	5292
876.521	5250
876.65	5178
876.778	5170
876.906	5086
877.034	4987
877.162	5003
877.29	4980
877.418	5041
877.546	5033
877.674	5056
877.802	4968
877.93	5018
878.058	4908
878.185	4831
878.313	4942
878.441	4949
878.568	4748
878.696	4828
878.824	4919
878.951	5006
879.079	5075
879.206	5303
879.333	5117
879.461	4961
879.588	4995
879.715	5105
879.842	5258
879.97	5014
880.097	4748
880.224	4763
880.351	4816
880.478	4831
880.605	4816
880.732	4812
880.859	5083
880.986	4927
881.112	4904
881.239	4759
881.366	4679
881.493	4565
881.619	4554
881.746	4637
881.872	4607
881.999	4645
882.125	4691
882.252	4748
882.378	4828
882.505	4938
882.631	4786
882.757	4622
882.883	4679
883.01	4702
883.136	4683
883.262	4577
883.388	4622
883.514	4850
883.64	4873
883.766	4786
883.892	4641
884.018	4714
884.143	4900
884.269	4968
884.395	4668
884.52	4599
884.646	4641
884.772	4622
884.897	4592
885.023	4588
885.148	4721
885.274	4828
885.399	4805
885.524	4736
885.65	4679
885.775	4714
885.9	4691
886.025	4831
886.15	4797
886.275	4763
886.4	4687
886.525	4714
886.65	4702
886.775	4672
886.9	4911
887.025	5022
887.149	4752
887.274	4641
887.399	4588
887.523	4615
887.648	4538
887.773	4565
887.897	4752
888.021	4786
888.146	4675
888.27	4801
888.395	4919
888.519	4733
888.643	4771
888.767	4816
888.891	4649
889.015	4603
889.139	4641
889.263	4550
889.387	4721
889.511	4870
889.635	4782
889.759	4618
889.883	4645
890.006	4717
890.13	4790
890.254	4653
890.377	4691
890.501	4512
890.624	4478
890.748	4603
890.871	4508
890.995	4413
891.118	4329
891.241	4493
891.364	4569
891.488	4607
891.611	4481
891.734	4519
891.857	4603
891.98	4611
892.103	4691
892.226	4580
892.349	4550
892.471	4413
892.594	4531
892.717	4580
892.839	4527
892.962	4573
893.085	4649
893.207	4592
893.33	4428
893.452	4523
893.575	4653
893.697	4573
893.819	4801
893.941	4805
894.064	4778
894.186	4596
894.308	4523
894.43	4714
894.552	4847
894.674	4790
894.796	4554
894.918	4611
895.04	4535
895.161	4714
895.283	4672
895.405	4577
895.526	4641
895.648	4702
895.769	4660
895.891	4717
896.012	4717
896.134	4687
896.255	4664
896.376	4607
896.498	4588
896.619	4683
896.74	4634
896.861	4637
896.982	4915
897.103	5090
897.224	4885
897.345	4740
897.466	4733
897.587	4744
897.708	4900
897.828	4759
897.949	4656
898.07	4531
898.19	4630
898.311	4870
898.431	4656
898.552	4740
898.672	4774
898.792	4805
898.913	4675
899.033	4615
899.153	4493
899.273	4443
899.393	4500
899.513	4538
899.633	4531
899.753	4550
899.873	4508
899.993	4550
900.113	4504
900.232	4592
900.352	4538
900.472	4470
900.591	4367
900.711	4519
900.83	4409
900.95	4649
901.069	4710
901.189	4531
901.308	4363
901.427	4299
901.546	4390
901.665	4470
901.784	4535
901.904	4325
902.023	4306
902.141	4154
902.26	4131
902.379	4284
902.498	4242
902.617	4207
902.735	4398
902.854	4409
902.973	4344
903.091	4204
903.21	4261
903.328	4280
903.446	4291
903.565	4272
903.683	4299
903.801	4265
903.919	4386
904.038	4421
904.156	4360
904.274	4424
904.392	4417
904.51	4424
904.627	4455
904.745	4588
904.863	4626
904.981	4360
905.098	4265
905.216	4375
905.334	4337
905.451	4466
905.569	4478
905.686	4542
905.803	4523
905.921	4375
906.038	4542
906.155	4497
906.272	4405
906.389	4455
906.506	4344
906.623	4383
906.74	4360
906.857	4322
906.974	4341
907.091	4561
907.208	4679
907.324	4561
907.441	4478
907.557	4348
907.674	4322
907.79	4310
907.907	4363
908.023	4428
908.139	4500
908.256	4432
908.372	4478
908.488	4383
908.604	4371
908.72	4306
908.836	4322
908.952	4375
909.068	4455
909.184	4538
909.3	4485
909.415	4535
909.531	4584
909.647	4303
909.762	4360
909.878	4325
909.993	4417
910.108	4398
910.224	4417
910.339	4478
910.454	4409
910.57	4348
910.685	4303
910.8	4611
910.915	4630
911.03	4470
911.145	4272
911.259	4268
911.374	4337
911.489	4284
911.604	4295
911.718	4188
911.833	4200
911.947	4040
912.062	4032
912.176	4166
912.291	4223
912.405	4227
912.519	4478
912.633	4504
912.748	4314
912.862	4310
912.976	4192
913.09	4109
913.204	4150
913.318	4295
913.431	4344
913.545	4394
913.659	4421
913.772	4348
913.886	4249
914	4185
914.113	4352
914.226	4451
914.34	4440
914.453	4200
914.566	4421
914.68	4306
914.793	4291
914.906	4173
915.019	4135
915.132	4032
915.245	4196
915.358	4192
915.47	4230
915.583	4249
915.696	4337
915.809	4367
915.921	4390
916.034	4276
916.146	4272
916.259	4200
916.371	4394
916.483	4360
916.595	4287
916.708	4284
916.82	4333
916.932	4341
917.044	4272
917.156	4325
917.268	4207
917.38	4287
917.491	4219
917.603	4314
917.715	4398
917.826	4466
917.938	4303
918.049	4227
918.161	4386
918.272	4512
918.384	4531
918.495	4405
918.606	4310
918.717	4257
918.828	4379
918.939	4375
919.05	4253
919.161	4306
919.272	4109
919.383	4185
919.494	4447
919.604	4653
919.715	4383
919.826	4284
919.936	4367
920.047	4516
920.157	4466
920.267	4702
920.378	4550
920.488	4489
920.598	4683
920.708	4930
920.818	4740
920.928	4774
921.038	4965
921.148	4923
921.258	4592
921.368	4561
921.477	4489
921.587	4455
921.697	4379
921.806	4527
921.916	4398
922.025	4303
922.134	4287
922.244	4173
922.353	4276
922.462	4169
922.571	4147
922.68	3983
922.789	3968
922.898	3994
923.007	4006
923.116	4109
923.224	4040
923.333	4040
923.442	4036
923.55	4017
923.659	3998
923.767	4101
923.876	3983
923.984	4078
924.092	3972
924.201	4051
924.309	4071
924.417	4071
924.525	3975
924.633	4051
924.741	5060
924.849	3903
924.956	4150
925.064	3956
925.172	3865
925.279	3972
925.387	4013
925.494	4040
925.602	4219
925.709	4192
925.816	4021
925.924	4044
926.031	4211
926.138	4166
926.245	4223
926.352	4105
926.459	4257
926.566	4272
926.673	4116
926.779	4093
926.886	4036
926.993	3987
927.099	3934
927.206	3918
927.312	3949
927.419	4036
927.525	4017
927.631	4101
927.737	3964
927.843	3911
927.95	3838
928.056	3892
928.162	3934
928.267	4097
928.373	4702
928.479	4128
928.585	3850
928.69	4025
928.796	4048
928.901	3979
929.007	3869
929.112	3987
929.218	3983
929.323	3899
929.428	3869
929.533	4097
929.638	3899
929.743	3960
929.848	4032
929.953	3926
930.058	3888
930.163	3778
930.267	3781
930.372	4006
930.477	3789
930.581	4048
930.685	3979
930.79	3850
930.894	3869
930.998	3827
931.103	4040
931.207	3690
931.311	3720
931.415	3648
931.519	3523
931.623	3580
