Data from test_V78500241_2341.txt Node
Date: Fri Mar 25 17:05:16 CST 2022
User: usil
Spectrometer: V785-0024
Trigger mode: 0
Integration Time (sec): 4.000000E-1
Scans to average: 1
Nonlinearity correction enabled: false
Boxcar width: 0
Storing dark spectrum: false
XAxis mode: Wavelengths
Number of Pixels in Spectrum: 1024
>>>>>Begin Spectral Data<<<<<
801.071	8005
801.214	7951
801.356	7852
801.499	7830
801.641	7830
801.783	7704
801.926	7955
802.068	7875
802.211	7955
802.353	7997
802.496	7807
802.638	7856
802.78	7864
802.923	7936
803.065	7833
803.208	7864
803.35	7967
803.492	8039
803.635	8172
803.777	8088
803.919	8176
804.061	8393
804.204	8187
804.346	8054
804.488	8008
804.63	8096
804.773	8016
804.915	8088
805.057	8309
805.199	8157
805.341	8210
805.483	8256
805.626	8199
805.768	8142
805.91	8206
806.052	8187
806.194	8088
806.336	8282
806.478	8096
806.62	8084
806.762	8138
806.904	8279
807.046	8473
807.188	8343
807.33	8282
807.472	8320
807.614	8256
807.756	8123
807.898	8005
808.04	7871
808.182	7871
808.324	7833
808.465	7871
808.607	8088
808.749	8084
808.891	8210
809.033	8301
809.174	8183
809.316	8149
809.458	8092
809.6	8016
809.741	8126
809.883	8065
810.025	8073
810.166	8035
810.308	7993
810.45	7940
810.591	7849
810.733	7693
810.875	7613
811.016	7521
811.158	7407
811.299	7552
811.441	7677
811.582	7597
811.724	7563
811.865	7594
812.007	7636
812.148	7548
812.29	7643
812.431	7727
812.573	7902
812.714	7978
812.855	8134
812.997	8164
813.138	8244
813.279	8168
813.421	8077
813.562	7986
813.703	7841
813.845	7780
813.986	7384
814.127	7232
814.268	7213
814.41	7171
814.551	7206
814.692	7228
814.833	7118
814.974	7057
815.115	7133
815.256	7004
815.397	6935
815.539	6996
815.68	6825
815.821	6757
815.962	6848
816.103	6848
816.244	6741
816.385	6646
816.526	6589
816.666	6475
816.807	6315
816.948	6486
817.089	6521
817.23	6422
817.371	6346
817.512	6418
817.653	6414
817.793	6338
817.934	6486
818.075	6414
818.216	6471
818.356	6414
818.497	6254
818.638	6106
818.778	6148
818.919	6171
819.06	6133
819.2	6342
819.341	6334
819.481	6369
819.622	6601
819.762	6711
819.903	6707
820.043	6665
820.184	6547
820.324	6601
820.465	6730
820.605	6665
820.746	6658
820.886	6494
821.026	6684
821.167	6722
821.307	6787
821.447	6757
821.588	6726
821.728	6585
821.868	6502
822.008	6319
822.149	6361
822.289	6365
822.429	6178
822.569	6095
822.709	6125
822.849	5965
822.99	5939
823.13	5931
823.27	5935
823.41	5828
823.55	5805
823.69	5786
823.83	5794
823.97	5661
824.11	5581
824.25	5528
824.389	5543
824.529	5570
824.669	5558
824.809	5611
824.949	5642
825.089	5657
825.228	5577
825.368	5433
825.508	5322
825.648	5391
825.787	5425
825.927	5360
826.067	5261
826.206	5311
826.346	5436
826.485	5402
826.625	5379
826.765	5524
826.904	5474
827.044	5269
827.183	5208
827.323	5143
827.462	5193
827.601	5170
827.741	5159
827.88	5193
828.02	5090
828.159	5227
828.298	5265
828.437	5391
828.577	5353
828.716	5478
828.855	5296
828.994	5208
829.134	5181
829.273	5212
829.412	5067
829.551	5094
829.69	5162
829.829	5170
829.968	5357
830.107	5273
830.246	5273
830.385	5132
830.524	5143
830.663	5033
830.802	4953
830.941	4885
831.08	4850
831.219	4984
831.357	4991
831.496	5109
831.635	4908
831.774	4820
831.913	4839
832.051	4786
832.19	4740
832.329	4839
832.467	4740
832.606	4637
832.744	4679
832.883	4759
833.022	4733
833.16	4790
833.299	4786
833.437	4793
833.576	4839
833.714	4877
833.852	4896
833.991	4896
834.129	5014
834.267	4953
834.406	4904
834.544	4984
834.682	5041
834.821	4999
834.959	5170
835.097	4984
835.235	5117
835.373	5098
835.511	5121
835.65	5045
835.788	5018
835.926	4927
836.064	4900
836.202	4904
836.34	5098
836.478	5235
836.615	5166
836.753	5204
836.891	5239
837.029	5223
837.167	5242
837.305	5143
837.443	5151
837.58	5098
837.718	5261
837.856	5155
837.993	5113
838.131	5258
838.269	5178
838.406	5258
838.544	5189
838.681	5079
838.819	5003
838.956	4892
839.094	4889
839.231	4915
839.369	5109
839.506	5410
839.643	5273
839.781	5037
839.918	5041
840.055	5067
840.193	5140
840.33	5094
840.467	5136
840.604	5136
840.742	5421
840.879	5075
841.016	5048
841.153	5162
841.29	5383
841.427	5284
841.564	5364
841.701	5368
841.838	5292
841.975	5204
842.112	5227
842.249	5113
842.385	5083
842.522	5326
842.659	5223
842.796	5159
842.933	5124
843.069	5189
843.206	5136
843.343	5265
843.479	5273
843.616	5299
843.752	5003
843.889	5060
844.025	5201
844.162	4987
844.298	5242
844.435	5105
844.571	5105
844.708	5212
844.844	5318
844.98	5330
845.117	5269
845.253	5132
845.389	5071
845.525	5193
845.661	5128
845.798	4995
845.934	5124
846.07	5052
846.206	5227
846.342	5322
846.478	5185
846.614	5083
846.75	4995
846.886	4980
847.022	5201
847.158	5022
847.294	5037
847.429	5098
847.565	4999
847.701	5307
847.837	4797
847.972	4858
848.108	4942
848.244	4961
848.379	4812
848.515	4740
848.65	4706
848.786	4774
848.921	4733
849.057	4866
849.192	4873
849.328	4835
849.463	4812
849.598	4767
849.734	4763
849.869	4698
850.004	4622
850.14	4660
850.275	4584
850.41	4538
850.545	4569
850.68	4573
850.815	4634
850.95	4698
851.085	4831
851.22	4729
851.355	4691
851.49	4592
851.625	4607
851.76	4634
851.895	4538
852.03	4527
852.165	4668
852.299	4736
852.434	4729
852.569	4767
852.703	4725
852.838	4850
852.973	4953
853.107	4873
853.242	4736
853.376	4740
853.511	4542
853.645	4645
853.78	4843
853.914	4694
854.048	4653
854.183	4645
854.317	4694
854.451	4839
854.585	4664
854.72	4618
854.854	4752
854.988	4618
855.122	4660
855.256	4542
855.39	4649
855.524	4797
855.658	4755
855.792	4698
855.926	4698
856.06	4759
856.194	4820
856.327	4664
856.461	4634
856.595	4580
856.729	4691
856.862	4740
856.996	4672
857.13	4725
857.263	4778
857.397	4839
857.53	4653
857.664	4668
857.797	4725
857.931	4797
858.064	4694
858.197	4767
858.331	4656
858.464	4645
858.597	4523
858.731	4634
858.864	4660
858.997	4611
859.13	4641
859.263	4714
859.396	4714
859.529	4512
859.662	4596
859.795	4493
859.928	4569
860.061	4755
860.194	4797
860.327	4611
860.46	4580
860.592	4710
860.725	4702
860.858	4691
860.99	4554
861.123	4497
861.256	4538
861.388	4615
861.521	5357
861.653	4470
861.786	4440
861.918	4428
862.05	4508
862.183	4542
862.315	4584
862.447	4634
862.58	4531
862.712	4447
862.844	4363
862.976	4485
863.108	4466
863.24	4892
863.372	4306
863.504	4417
863.636	4436
863.768	4455
863.9	4413
864.032	4337
864.164	4417
864.296	4470
864.428	4584
864.559	4538
864.691	4538
864.823	4565
864.954	4508
865.086	4481
865.217	4485
865.349	4417
865.48	4462
865.612	4466
865.743	4573
865.875	4409
866.006	4386
866.137	4432
866.269	4402
866.4	4428
866.531	4443
866.662	4379
866.793	4417
866.924	4428
867.055	4489
867.186	4481
867.317	4436
867.448	4367
867.579	4409
867.71	4394
867.841	4363
867.972	4493
868.103	4466
868.233	4440
868.364	4466
868.495	4478
868.625	4672
868.756	4797
868.886	4542
869.017	4618
869.147	4748
869.278	4793
869.408	4679
869.539	4675
869.669	4786
869.799	4656
869.929	4763
870.06	4714
870.19	4968
870.32	4881
870.45	4980
870.58	5033
870.71	5105
870.84	5124
870.97	4934
871.1	4892
871.23	5117
871.36	5109
871.489	5014
871.619	5041
871.749	5060
871.879	5159
872.008	5143
872.138	5045
872.267	4957
872.397	4847
872.526	4763
872.656	4725
872.785	4771
872.915	4946
873.044	5014
873.173	4911
873.303	5014
873.432	4900
873.561	4972
873.69	4911
873.819	4835
873.948	4908
874.077	4790
874.206	4767
874.335	4805
874.464	4942
874.593	5075
874.722	4923
874.851	5102
874.979	5132
875.108	5022
875.237	4908
875.365	4862
875.494	4885
875.623	4995
875.751	4831
875.88	4850
876.008	4968
876.136	5029
876.265	5185
876.393	5341
876.521	5288
876.65	5242
876.778	5201
876.906	5060
877.034	5041
877.162	5083
877.29	5018
877.418	5048
877.546	5067
877.674	5033
877.802	5094
877.93	5048
878.058	4927
878.185	4934
878.313	4984
878.441	4900
878.568	4797
878.696	4904
878.824	4949
878.951	5014
879.079	5151
879.206	5261
879.333	5143
879.461	5003
879.588	4987
879.715	5113
879.842	5246
879.97	4991
880.097	4763
880.224	4793
880.351	4824
880.478	4824
880.605	4839
880.732	4793
880.859	5155
880.986	4862
881.112	4889
881.239	4797
881.366	4687
881.493	4565
881.619	4596
881.746	4607
881.872	4611
881.999	4675
882.125	4759
882.252	4809
882.378	4831
882.505	4968
882.631	4778
882.757	4668
882.883	4679
883.01	4664
883.136	4634
883.262	4672
883.388	4603
883.514	4809
883.64	4812
883.766	4748
883.892	4687
884.018	4710
884.143	4904
884.269	4987
884.395	4706
884.52	4694
884.646	4634
884.772	4554
884.897	4584
885.023	4645
885.148	4774
885.274	4850
885.399	4790
885.524	4698
885.65	4679
885.775	4790
885.9	4683
886.025	4889
886.15	4744
886.275	4687
886.4	4588
886.525	4714
886.65	4706
886.775	4698
886.9	4911
887.025	4976
887.149	4778
887.274	4714
887.399	4569
887.523	4584
887.648	4588
887.773	4584
887.897	4748
888.021	4793
888.146	4641
888.27	4847
888.395	4892
888.519	4786
888.643	4812
888.767	4824
888.891	4714
889.015	4592
889.139	4656
889.263	4649
889.387	4801
889.511	4858
889.635	4805
889.759	4618
889.883	4611
890.006	4714
890.13	4831
890.254	4637
890.377	4683
890.501	4569
890.624	4481
890.748	4599
890.871	4523
890.995	4462
891.118	4379
891.241	4500
891.364	4527
891.488	4596
891.611	4512
891.734	4550
891.857	4618
891.98	4546
892.103	4622
892.226	4596
892.349	4497
892.471	4409
892.594	4535
892.717	4561
892.839	4592
892.962	4592
893.085	4687
893.207	4558
893.33	4478
893.452	4531
893.575	4668
893.697	4622
893.819	4812
893.941	4850
894.064	4767
894.186	4577
894.308	4565
894.43	4694
894.552	4812
894.674	4729
894.796	4538
894.918	4573
895.04	4546
895.161	4694
895.283	4618
895.405	4588
895.526	4653
895.648	4649
895.769	4675
895.891	4683
896.012	4706
896.134	4729
896.255	4615
896.376	4596
896.498	4584
896.619	4634
896.74	4588
896.861	4603
896.982	4923
897.103	5064
897.224	4797
897.345	4767
897.466	4656
897.587	4691
897.708	4873
897.828	4771
897.949	4660
898.07	4580
898.19	4683
898.311	4889
898.431	4672
898.552	4675
898.672	4805
898.792	4786
898.913	4698
899.033	4622
899.153	4508
899.273	4466
899.393	4508
899.513	4542
899.633	4485
899.753	4516
899.873	4523
899.993	4607
900.113	4542
900.232	4584
900.352	4535
900.472	4474
900.591	4421
900.711	4470
900.83	4436
900.95	4603
901.069	4714
901.189	4508
901.308	4413
901.427	4322
901.546	4402
901.665	4538
901.784	4519
901.904	4405
902.023	4268
902.141	4169
902.26	4188
902.379	4265
902.498	4200
902.617	4238
902.735	4371
902.854	4432
902.973	4367
903.091	4169
903.21	4223
903.328	4329
903.446	4242
903.565	4257
903.683	4329
903.801	4268
903.919	4405
904.038	4451
904.156	4325
904.274	4443
904.392	4417
904.51	4428
904.627	4405
904.745	4565
904.863	4622
904.981	4417
905.098	4310
905.216	4398
905.334	4428
905.451	4398
905.569	4489
905.686	4565
905.803	4527
905.921	4405
906.038	4535
906.155	4455
906.272	4402
906.389	4478
906.506	4405
906.623	4379
906.74	4379
906.857	4280
906.974	4348
907.091	4584
907.208	4702
907.324	4588
907.441	4512
907.557	4375
907.674	4306
907.79	4299
907.907	4417
908.023	4470
908.139	4500
908.256	4451
908.372	4451
908.488	4440
908.604	4295
908.72	4295
908.836	4341
908.952	4398
909.068	4428
909.184	4558
909.3	4489
909.415	4630
909.531	4542
909.647	4383
909.762	4367
909.878	4352
909.993	4417
910.108	4386
910.224	4428
910.339	4459
910.454	4367
910.57	4356
910.685	4310
910.8	4664
910.915	4603
911.03	4493
911.145	4363
911.259	4329
911.374	4360
911.489	4295
911.604	4249
911.718	4196
911.833	4192
911.947	4101
912.062	4029
912.176	4234
912.291	4265
912.405	4234
912.519	4497
912.633	4512
912.748	4379
912.862	4322
912.976	4238
913.09	4090
913.204	4192
913.318	4295
913.431	4318
913.545	4352
913.659	4409
913.772	4375
913.886	4257
914	4234
914.113	4413
914.226	4383
914.34	4341
914.453	4253
914.566	4428
914.68	4280
914.793	4291
914.906	4135
915.019	4112
915.132	4048
915.245	4219
915.358	4280
915.47	4257
915.583	4257
915.696	4261
915.809	4413
915.921	4424
916.034	4242
916.146	4227
916.259	4200
916.371	4367
916.483	4398
916.595	4291
916.708	4303
916.82	4310
916.932	4325
917.044	4322
917.156	4310
917.268	4227
917.38	4303
917.491	4287
917.603	4348
917.715	4394
917.826	4436
917.938	4329
918.049	4230
918.161	4363
918.272	4554
918.384	4535
918.495	4474
918.606	4276
918.717	4238
918.828	4329
918.939	4348
919.05	4280
919.161	4360
919.272	4169
919.383	4268
919.494	4474
919.604	4630
919.715	4421
919.826	4363
919.936	4379
920.047	4542
920.157	4497
920.267	4691
920.378	4538
920.488	4538
920.598	4668
920.708	4934
920.818	4733
920.928	4801
921.038	4949
921.148	4942
921.258	4641
921.368	4531
921.477	4493
921.587	4447
921.697	4379
921.806	4538
921.916	4440
922.025	4303
922.134	4246
922.244	4211
922.353	4306
922.462	4185
922.571	4116
922.68	4006
922.789	3994
922.898	3998
923.007	3972
923.116	4120
923.224	4055
923.333	4055
923.442	3972
923.55	3975
923.659	4067
923.767	4120
923.876	3991
923.984	4139
924.092	4002
924.201	4074
924.309	4086
924.417	4109
924.525	4071
924.633	4139
924.741	5075
924.849	3937
924.956	4147
925.064	3937
925.172	3949
925.279	3968
925.387	4071
925.494	4055
925.602	4204
925.709	4204
925.816	4055
925.924	4120
926.031	4265
926.138	4143
926.245	4238
926.352	4131
926.459	4249
926.566	4314
926.673	4173
926.779	4074
926.886	4078
926.993	3949
927.099	3937
927.206	3915
927.312	3930
927.419	4021
927.525	4032
927.631	4078
927.737	3945
927.843	3934
927.95	3835
928.056	3922
928.162	3998
928.267	4048
928.373	4634
928.479	4135
928.585	3876
928.69	4010
928.796	4120
928.901	3968
929.007	3842
929.112	4002
929.218	3998
929.323	3949
929.428	3926
929.533	4112
929.638	3941
929.743	3972
929.848	4013
929.953	3991
930.058	3926
930.163	3781
930.267	3789
930.372	4017
930.477	3827
930.581	4101
930.685	3949
930.79	3831
930.894	3907
930.998	3850
931.103	4036
931.207	3755
931.311	3701
931.415	3656
931.519	3481
931.623	3580
