Data from test_V78500241_2325.txt Node
Date: Fri Mar 25 17:05:10 CST 2022
User: usil
Spectrometer: V785-0024
Trigger mode: 0
Integration Time (sec): 4.000000E-1
Scans to average: 1
Nonlinearity correction enabled: false
Boxcar width: 0
Storing dark spectrum: false
XAxis mode: Wavelengths
Number of Pixels in Spectrum: 1024
>>>>>Begin Spectral Data<<<<<
801.071	8027
801.214	8008
801.356	7890
801.499	7898
801.641	7841
801.783	7906
801.926	8008
802.068	7932
802.211	7959
802.353	8046
802.496	7860
802.638	7928
802.78	7841
802.923	7875
803.065	7890
803.208	7955
803.35	8027
803.492	8088
803.635	8149
803.777	8043
803.919	8138
804.061	8412
804.204	8214
804.346	8039
804.488	8035
804.63	8145
804.773	8001
804.915	8149
805.057	8309
805.199	8142
805.341	8149
805.483	8271
805.626	8259
805.768	8183
805.91	8210
806.052	8172
806.194	8195
806.336	8301
806.478	8187
806.62	8115
806.762	8191
806.904	8320
807.046	8419
807.188	8393
807.33	8370
807.472	8351
807.614	8206
807.756	8183
807.898	7982
808.04	7917
808.182	7902
808.324	7871
808.465	7928
808.607	8050
808.749	8092
808.891	8252
809.033	8366
809.174	8240
809.316	8024
809.458	8111
809.6	7989
809.741	8058
809.883	8043
810.025	8180
810.166	8096
810.308	7978
810.45	8054
810.591	7856
810.733	7818
810.875	7677
811.016	7476
811.158	7502
811.299	7670
811.441	7715
811.582	7727
811.724	7575
811.865	7499
812.007	7556
812.148	7556
812.29	7620
812.431	7734
812.573	7830
812.714	7898
812.855	8107
812.997	8229
813.138	8351
813.279	8225
813.421	8107
813.562	7955
813.703	7860
813.845	7708
813.986	7445
814.127	7285
814.268	7232
814.41	7228
814.551	7217
814.692	7206
814.833	7149
814.974	7122
815.115	7137
815.256	7050
815.397	6966
815.539	6977
815.68	6818
815.821	6798
815.962	6886
816.103	6818
816.244	6688
816.385	6589
816.526	6669
816.666	6566
816.807	6350
816.948	6506
817.089	6521
817.23	6414
817.371	6395
817.512	6414
817.653	6506
817.793	6376
817.934	6429
818.075	6471
818.216	6437
818.356	6429
818.497	6338
818.638	6232
818.778	6167
818.919	6163
819.06	6213
819.2	6346
819.341	6334
819.481	6414
819.622	6540
819.762	6749
819.903	6703
820.043	6620
820.184	6608
820.324	6612
820.465	6722
820.605	6692
820.746	6665
820.886	6574
821.026	6673
821.167	6711
821.307	6875
821.447	6783
821.588	6642
821.728	6566
821.868	6479
822.008	6323
822.149	6296
822.289	6361
822.429	6167
822.569	6121
822.709	6136
822.849	5942
822.99	5863
823.13	5923
823.27	5893
823.41	5817
823.55	5824
823.69	5805
823.83	5790
823.97	5737
824.11	5512
824.25	5535
824.389	5528
824.529	5604
824.669	5509
824.809	5630
824.949	5684
825.089	5562
825.228	5600
825.368	5406
825.508	5349
825.648	5444
825.787	5376
825.927	5353
826.067	5341
826.206	5341
826.346	5440
826.485	5387
826.625	5414
826.765	5585
826.904	5425
827.044	5265
827.183	5220
827.323	5128
827.462	5246
827.601	5204
827.741	5212
827.88	5220
828.02	5140
828.159	5250
828.298	5353
828.437	5341
828.577	5299
828.716	5524
828.855	5357
828.994	5143
829.134	5170
829.273	5189
829.412	5193
829.551	5136
829.69	5170
829.829	5235
829.968	5387
830.107	5208
830.246	5269
830.385	5204
830.524	5113
830.663	5064
830.802	4976
830.941	4919
831.08	4908
831.219	5025
831.357	4968
831.496	5189
831.635	4946
831.774	4828
831.913	4858
832.051	4755
832.19	4763
832.329	4900
832.467	4710
832.606	4660
832.744	4694
832.883	4740
833.022	4736
833.16	4774
833.299	4801
833.437	4812
833.576	4816
833.714	4820
833.852	4915
833.991	4866
834.129	4968
834.267	4934
834.406	4885
834.544	4999
834.682	5006
834.821	4987
834.959	5162
835.097	4972
835.235	5185
835.373	5075
835.511	5067
835.65	5014
835.788	5048
835.926	4923
836.064	4911
836.202	4908
836.34	5136
836.478	5269
836.615	5147
836.753	5231
836.891	5303
837.029	5254
837.167	5235
837.305	5185
837.443	5174
837.58	5064
837.718	5250
837.856	5197
837.993	5147
838.131	5239
838.269	5181
838.406	5265
838.544	5178
838.681	5064
838.819	5018
838.956	4904
839.094	4923
839.231	5003
839.369	5109
839.506	5425
839.643	5231
839.781	5064
839.918	5048
840.055	5147
840.193	5086
840.33	5117
840.467	5140
840.604	5124
840.742	5410
840.879	5083
841.016	5128
841.153	5166
841.29	5406
841.427	5341
841.564	5296
841.701	5387
841.838	5318
841.975	5246
842.112	5269
842.249	5128
842.385	5170
842.522	5341
842.659	5227
842.796	5162
842.933	5193
843.069	5166
843.206	5147
843.343	5273
843.479	5284
843.616	5246
843.752	5037
843.889	4976
844.025	5185
844.162	5075
844.298	5204
844.435	5079
844.571	5045
844.708	5220
844.844	5311
844.98	5341
845.117	5284
845.253	5151
845.389	5056
845.525	5174
845.661	5140
845.798	5056
845.934	5124
846.07	5022
846.206	5227
846.342	5296
846.478	5197
846.614	4995
846.75	4995
846.886	4923
847.022	5140
847.158	5029
847.294	5041
847.429	5113
847.565	5113
847.701	5341
847.837	4877
847.972	4786
848.108	4968
848.244	4949
848.379	4771
848.515	4763
848.65	4733
848.786	4755
848.921	4778
849.057	4911
849.192	4877
849.328	4850
849.463	4854
849.598	4767
849.734	4767
849.869	4679
850.004	4630
850.14	4691
850.275	4573
850.41	4538
850.545	4573
850.68	4615
850.815	4611
850.95	4645
851.085	4900
851.22	4744
851.355	4687
851.49	4637
851.625	4622
851.76	4698
851.895	4535
852.03	4546
852.165	4618
852.299	4782
852.434	4820
852.569	4748
852.703	4771
852.838	4828
852.973	4984
853.107	4915
853.242	4717
853.376	4649
853.511	4596
853.645	4649
853.78	4774
853.914	4679
854.048	4717
854.183	4660
854.317	4675
854.451	4839
854.585	4672
854.72	4622
854.854	4771
854.988	4599
855.122	4607
855.256	4504
855.39	4675
855.524	4809
855.658	4675
855.792	4710
855.926	4752
856.06	4717
856.194	4809
856.327	4683
856.461	4603
856.595	4664
856.729	4622
856.862	4809
856.996	4702
857.13	4759
857.263	4767
857.397	4816
857.53	4675
857.664	4706
857.797	4778
857.931	4812
858.064	4687
858.197	4748
858.331	4706
858.464	4622
858.597	4523
858.731	4630
858.864	4630
858.997	4622
859.13	4691
859.263	4649
859.396	4706
859.529	4546
859.662	4618
859.795	4519
859.928	4641
860.061	4717
860.194	4801
860.327	4596
860.46	4550
860.592	4649
860.725	4714
860.858	4702
860.99	4584
861.123	4512
861.256	4527
861.388	4577
861.521	5391
861.653	4466
861.786	4436
861.918	4440
862.05	4546
862.183	4565
862.315	4672
862.447	4596
862.58	4558
862.712	4432
862.844	4344
862.976	4447
863.108	4459
863.24	4843
863.372	4337
863.504	4417
863.636	4394
863.768	4451
863.9	4421
864.032	4356
864.164	4424
864.296	4474
864.428	4558
864.559	4493
864.691	4504
864.823	4542
864.954	4500
865.086	4508
865.217	4443
865.349	4386
865.48	4421
865.612	4497
865.743	4649
865.875	4436
866.006	4421
866.137	4459
866.269	4478
866.4	4405
866.531	4424
866.662	4421
866.793	4432
866.924	4436
867.055	4462
867.186	4447
867.317	4379
867.448	4398
867.579	4386
867.71	4436
867.841	4386
867.972	4466
868.103	4481
868.233	4436
868.364	4474
868.495	4436
868.625	4630
868.756	4721
868.886	4561
869.017	4569
869.147	4805
869.278	4801
869.408	4687
869.539	4649
869.669	4744
869.799	4611
869.929	4771
870.06	4767
870.19	4961
870.32	4911
870.45	4911
870.58	5006
870.71	5109
870.84	5128
870.97	4938
871.1	4850
871.23	5166
871.36	5132
871.489	5029
871.619	5113
871.749	5128
871.879	5117
872.008	5189
872.138	5064
872.267	4972
872.397	4854
872.526	4835
872.656	4729
872.785	4782
872.915	4991
873.044	5041
873.173	4961
873.303	5029
873.432	4930
873.561	4957
873.69	4847
873.819	4843
873.948	4957
874.077	4854
874.206	4744
874.335	4809
874.464	4900
874.593	5060
874.722	4984
874.851	5170
874.979	5067
875.108	5045
875.237	4900
875.365	4892
875.494	4911
875.623	4957
875.751	4835
875.88	4904
876.008	5006
876.136	4987
876.265	5216
876.393	5315
876.521	5216
876.65	5223
876.778	5193
876.906	5121
877.034	4995
877.162	5048
877.29	4995
877.418	5056
877.546	5052
877.674	5094
877.802	4976
877.93	5010
878.058	4927
878.185	4854
878.313	4980
878.441	4965
878.568	4752
878.696	4885
878.824	5003
878.951	4968
879.079	5151
879.206	5280
879.333	5071
879.461	5029
879.588	4995
879.715	5140
879.842	5193
879.97	5018
880.097	4835
880.224	4752
880.351	4801
880.478	4854
880.605	4774
880.732	4778
880.859	5121
880.986	4896
881.112	4877
881.239	4790
881.366	4679
881.493	4618
881.619	4615
881.746	4637
881.872	4653
881.999	4660
882.125	4748
882.252	4816
882.378	4793
882.505	4938
882.631	4774
882.757	4675
882.883	4733
883.01	4679
883.136	4641
883.262	4577
883.388	4641
883.514	4809
883.64	4850
883.766	4782
883.892	4618
884.018	4752
884.143	4908
884.269	5022
884.395	4641
884.52	4679
884.646	4664
884.772	4615
884.897	4580
885.023	4698
885.148	4797
885.274	4835
885.399	4786
885.524	4729
885.65	4733
885.775	4755
885.9	4706
886.025	4858
886.15	4771
886.275	4744
886.4	4664
886.525	4733
886.65	4729
886.775	4668
886.9	4934
887.025	5033
887.149	4755
887.274	4683
887.399	4599
887.523	4607
887.648	4538
887.773	4542
887.897	4748
888.021	4740
888.146	4672
888.27	4755
888.395	4900
888.519	4797
888.643	4774
888.767	4786
888.891	4641
889.015	4577
889.139	4675
889.263	4565
889.387	4767
889.511	4908
889.635	4805
889.759	4656
889.883	4672
890.006	4729
890.13	4824
890.254	4618
890.377	4592
890.501	4569
890.624	4588
890.748	4637
890.871	4493
890.995	4405
891.118	4405
891.241	4542
891.364	4493
891.488	4596
891.611	4470
891.734	4519
891.857	4622
891.98	4565
892.103	4645
892.226	4599
892.349	4516
892.471	4405
892.594	4550
892.717	4592
892.839	4561
892.962	4527
893.085	4645
893.207	4603
893.33	4462
893.452	4523
893.575	4664
893.697	4603
893.819	4797
893.941	4828
894.064	4767
894.186	4558
894.308	4531
894.43	4714
894.552	4759
894.674	4763
894.796	4584
894.918	4584
895.04	4538
895.161	4698
895.283	4660
895.405	4554
895.526	4611
895.648	4668
895.769	4706
895.891	4733
896.012	4729
896.134	4733
896.255	4645
896.376	4672
896.498	4607
896.619	4725
896.74	4596
896.861	4653
896.982	4930
897.103	5117
897.224	4862
897.345	4740
897.466	4679
897.587	4717
897.708	4812
897.828	4748
897.949	4675
898.07	4577
898.19	4618
898.311	4778
898.431	4668
898.552	4702
898.672	4805
898.792	4824
898.913	4774
899.033	4580
899.153	4497
899.273	4440
899.393	4462
899.513	4531
899.633	4459
899.753	4527
899.873	4489
899.993	4588
900.113	4558
900.232	4615
900.352	4531
900.472	4470
900.591	4440
900.711	4459
900.83	4424
900.95	4599
901.069	4706
901.189	4599
901.308	4348
901.427	4287
901.546	4363
901.665	4447
901.784	4561
901.904	4428
902.023	4310
902.141	4185
902.26	4139
902.379	4348
902.498	4234
902.617	4223
902.735	4356
902.854	4383
902.973	4360
903.091	4234
903.21	4230
903.328	4295
903.446	4219
903.565	4253
903.683	4363
903.801	4246
903.919	4402
904.038	4455
904.156	4325
904.274	4413
904.392	4436
904.51	4432
904.627	4447
904.745	4546
904.863	4656
904.981	4383
905.098	4306
905.216	4356
905.334	4428
905.451	4402
905.569	4379
905.686	4626
905.803	4577
905.921	4459
906.038	4569
906.155	4428
906.272	4379
906.389	4462
906.506	4344
906.623	4325
906.74	4367
906.857	4325
906.974	4390
907.091	4561
907.208	4672
907.324	4569
907.441	4523
907.557	4325
907.674	4341
907.79	4325
907.907	4398
908.023	4451
908.139	4512
908.256	4421
908.372	4508
908.488	4417
908.604	4352
908.72	4272
908.836	4386
908.952	4394
909.068	4428
909.184	4558
909.3	4432
909.415	4584
909.531	4550
909.647	4299
909.762	4375
909.878	4352
909.993	4390
910.108	4409
910.224	4405
910.339	4451
910.454	4413
910.57	4363
910.685	4314
910.8	4660
910.915	4584
911.03	4443
911.145	4341
911.259	4291
911.374	4371
911.489	4337
911.604	4261
911.718	4219
911.833	4211
911.947	4105
912.062	3994
912.176	4200
912.291	4230
912.405	4257
912.519	4474
912.633	4478
912.748	4386
912.862	4325
912.976	4185
913.09	4051
913.204	4177
913.318	4253
913.431	4405
913.545	4390
913.659	4405
913.772	4356
913.886	4234
914	4181
914.113	4367
914.226	4459
914.34	4428
914.453	4261
914.566	4447
914.68	4341
914.793	4360
914.906	4147
915.019	4143
915.132	4105
915.245	4177
915.358	4185
915.47	4219
915.583	4246
915.696	4284
915.809	4405
915.921	4409
916.034	4246
916.146	4261
916.259	4204
916.371	4344
916.483	4337
916.595	4246
916.708	4295
916.82	4322
916.932	4284
917.044	4344
917.156	4337
917.268	4253
917.38	4238
917.491	4257
917.603	4333
917.715	4390
917.826	4398
917.938	4379
918.049	4173
918.161	4394
918.272	4535
918.384	4538
918.495	4447
918.606	4314
918.717	4230
918.828	4367
918.939	4379
919.05	4295
919.161	4333
919.272	4101
919.383	4234
919.494	4402
919.604	4618
919.715	4386
919.826	4360
919.936	4398
920.047	4508
920.157	4481
920.267	4672
920.378	4519
920.488	4497
920.598	4702
920.708	4885
920.818	4748
920.928	4763
921.038	4949
921.148	4915
921.258	4637
921.368	4561
921.477	4500
921.587	4421
921.697	4405
921.806	4599
921.916	4417
922.025	4253
922.134	4287
922.244	4249
922.353	4333
922.462	4147
922.571	4147
922.68	4002
922.789	3979
922.898	4048
923.007	3983
923.116	4131
923.224	4032
923.333	4063
923.442	3994
923.55	3975
923.659	4025
923.767	4101
923.876	4017
923.984	4090
924.092	3975
924.201	4040
924.309	4063
924.417	4116
924.525	4078
924.633	4074
924.741	5029
924.849	3892
924.956	4166
925.064	3918
925.172	3873
925.279	3930
925.387	4036
925.494	4025
925.602	4230
925.709	4166
925.816	4013
925.924	4082
926.031	4238
926.138	4169
926.245	4204
926.352	4093
926.459	4211
926.566	4299
926.673	4169
926.779	4071
926.886	4071
926.993	4013
927.099	3937
927.206	3922
927.312	3941
927.419	4082
927.525	3975
927.631	4067
927.737	3960
927.843	3918
927.95	3835
928.056	3937
928.162	3991
928.267	4071
928.373	4645
928.479	4082
928.585	3892
928.69	4032
928.796	4090
928.901	3941
929.007	3804
929.112	4048
929.218	3949
929.323	3903
929.428	3956
929.533	4105
929.638	3907
929.743	3998
929.848	3994
929.953	4010
930.058	3926
930.163	3816
930.267	3854
930.372	3983
930.477	3842
930.581	4059
930.685	3937
930.79	3865
930.894	3838
930.998	3804
931.103	4040
931.207	3728
931.311	3679
931.415	3641
931.519	3485
931.623	3564
