Data from test_V78500241_2438.txt Node
Date: Fri Mar 25 17:05:57 CST 2022
User: usil
Spectrometer: V785-0024
Trigger mode: 0
Integration Time (sec): 4.000000E-1
Scans to average: 1
Nonlinearity correction enabled: false
Boxcar width: 0
Storing dark spectrum: false
XAxis mode: Wavelengths
Number of Pixels in Spectrum: 1024
>>>>>Begin Spectral Data<<<<<
801.071	8054
801.214	8008
801.356	7909
801.499	7902
801.641	7807
801.783	7818
801.926	7932
802.068	7951
802.211	7993
802.353	7967
802.496	7868
802.638	7894
802.78	7932
802.923	7951
803.065	7928
803.208	7913
803.35	7959
803.492	8161
803.635	8176
803.777	8027
803.919	8195
804.061	8427
804.204	8115
804.346	8069
804.488	7917
804.63	8065
804.773	8024
804.915	8096
805.057	8301
805.199	8191
805.341	8218
805.483	8290
805.626	8195
805.768	8111
805.91	8221
806.052	8294
806.194	8119
806.336	8282
806.478	8096
806.62	8088
806.762	8103
806.904	8298
807.046	8450
807.188	8355
807.33	8301
807.472	8336
807.614	8126
807.756	8115
807.898	7989
808.04	7902
808.182	7898
808.324	7898
808.465	7917
808.607	8062
808.749	8168
808.891	8256
809.033	8362
809.174	8225
809.316	8149
809.458	8161
809.6	8024
809.741	8016
809.883	8058
810.025	8103
810.166	8088
810.308	7974
810.45	8008
810.591	7940
810.733	7727
810.875	7677
811.016	7605
811.158	7537
811.299	7685
811.441	7719
811.582	7670
811.724	7662
811.865	7518
812.007	7613
812.148	7666
812.29	7636
812.431	7734
812.573	7909
812.714	8050
812.855	8096
812.997	8240
813.138	8317
813.279	8145
813.421	8126
813.562	7993
813.703	7970
813.845	7811
813.986	7472
814.127	7251
814.268	7266
814.41	7198
814.551	7236
814.692	7247
814.833	7091
814.974	7141
815.115	7122
815.256	7053
815.397	6935
815.539	6924
815.68	6776
815.821	6772
815.962	6894
816.103	6840
816.244	6692
816.385	6601
816.526	6677
816.666	6563
816.807	6315
816.948	6460
817.089	6456
817.23	6467
817.371	6433
817.512	6448
817.653	6384
817.793	6388
817.934	6445
818.075	6509
818.216	6483
818.356	6388
818.497	6262
818.638	6110
818.778	6213
818.919	6129
819.06	6194
819.2	6361
819.341	6357
819.481	6410
819.622	6593
819.762	6719
819.903	6703
820.043	6662
820.184	6665
820.324	6639
820.465	6650
820.605	6658
820.746	6662
820.886	6570
821.026	6684
821.167	6722
821.307	6818
821.447	6779
821.588	6700
821.728	6620
821.868	6517
822.008	6308
822.149	6452
822.289	6372
822.429	6186
822.569	6114
822.709	6144
822.849	5969
822.99	5950
823.13	5969
823.27	6030
823.41	5802
823.55	5840
823.69	5752
823.83	5779
823.97	5672
824.11	5585
824.25	5577
824.389	5573
824.529	5600
824.669	5573
824.809	5649
824.949	5688
825.089	5585
825.228	5554
825.368	5421
825.508	5372
825.648	5360
825.787	5398
825.927	5402
826.067	5311
826.206	5364
826.346	5406
826.485	5425
826.625	5402
826.765	5615
826.904	5509
827.044	5292
827.183	5189
827.323	5155
827.462	5261
827.601	5132
827.741	5231
827.88	5246
828.02	5098
828.159	5185
828.298	5307
828.437	5315
828.577	5288
828.716	5532
828.855	5326
828.994	5166
829.134	5086
829.273	5201
829.412	5155
829.551	5124
829.69	5155
829.829	5239
829.968	5417
830.107	5292
830.246	5318
830.385	5185
830.524	5113
830.663	5121
830.802	5003
830.941	4938
831.08	4900
831.219	4976
831.357	5003
831.496	5155
831.635	4934
831.774	4797
831.913	4847
832.051	4786
832.19	4755
832.329	4892
832.467	4698
832.606	4668
832.744	4702
832.883	4694
833.022	4710
833.16	4835
833.299	4831
833.437	4835
833.576	4835
833.714	4885
833.852	4911
833.991	4896
834.129	4984
834.267	4991
834.406	4911
834.544	5006
834.682	4968
834.821	5014
834.959	5174
835.097	4965
835.235	5109
835.373	5083
835.511	5140
835.65	5041
835.788	5041
835.926	4927
836.064	4881
836.202	4927
836.34	5170
836.478	5208
836.615	5132
836.753	5242
836.891	5284
837.029	5280
837.167	5254
837.305	5162
837.443	5143
837.58	5041
837.718	5250
837.856	5155
837.993	5189
838.131	5235
838.269	5273
838.406	5212
838.544	5185
838.681	5056
838.819	5014
838.956	4889
839.094	4911
839.231	4995
839.369	5132
839.506	5433
839.643	5261
839.781	5094
839.918	5045
840.055	5128
840.193	5143
840.33	5124
840.467	5159
840.604	5227
840.742	5417
840.879	5060
841.016	5048
841.153	5216
841.29	5318
841.427	5303
841.564	5353
841.701	5360
841.838	5307
841.975	5239
842.112	5269
842.249	5105
842.385	5124
842.522	5345
842.659	5185
842.796	5105
842.933	5140
843.069	5143
843.206	5189
843.343	5273
843.479	5231
843.616	5334
843.752	5109
843.889	5045
844.025	5181
844.162	4987
844.298	5155
844.435	5064
844.571	5022
844.708	5193
844.844	5326
844.98	5322
845.117	5284
845.253	5166
845.389	5128
845.525	5166
845.661	5174
845.798	5022
845.934	5155
846.07	5056
846.206	5220
846.342	5273
846.478	5181
846.614	4942
846.75	4915
846.886	4953
847.022	5159
847.158	5064
847.294	5075
847.429	5094
847.565	5094
847.701	5273
847.837	4889
847.972	4793
848.108	4995
848.244	4900
848.379	4793
848.515	4778
848.65	4725
848.786	4736
848.921	4767
849.057	4885
849.192	4930
849.328	4790
849.463	4839
849.598	4801
849.734	4831
849.869	4744
850.004	4645
850.14	4645
850.275	4599
850.41	4493
850.545	4618
850.68	4656
850.815	4649
850.95	4637
851.085	4824
851.22	4721
851.355	4668
851.49	4577
851.625	4649
851.76	4634
851.895	4573
852.03	4569
852.165	4653
852.299	4763
852.434	4797
852.569	4740
852.703	4763
852.838	4835
852.973	4957
853.107	4862
853.242	4774
853.376	4717
853.511	4561
853.645	4607
853.78	4839
853.914	4679
854.048	4649
854.183	4675
854.317	4687
854.451	4850
854.585	4683
854.72	4626
854.854	4744
854.988	4603
855.122	4615
855.256	4512
855.39	4687
855.524	4759
855.658	4771
855.792	4706
855.926	4748
856.06	4763
856.194	4771
856.327	4706
856.461	4637
856.595	4611
856.729	4611
856.862	4752
856.996	4725
857.13	4698
857.263	4736
857.397	4828
857.53	4668
857.664	4736
857.797	4744
857.931	4820
858.064	4694
858.197	4698
858.331	4634
858.464	4558
858.597	4523
858.731	4637
858.864	4626
858.997	4630
859.13	4653
859.263	4634
859.396	4683
859.529	4596
859.662	4577
859.795	4474
859.928	4679
860.061	4725
860.194	4721
860.327	4611
860.46	4580
860.592	4717
860.725	4721
860.858	4759
860.99	4561
861.123	4596
861.256	4512
861.388	4645
861.521	5326
861.653	4451
861.786	4443
861.918	4451
862.05	4569
862.183	4542
862.315	4622
862.447	4641
862.58	4527
862.712	4421
862.844	4341
862.976	4485
863.108	4436
863.24	4812
863.372	4344
863.504	4466
863.636	4405
863.768	4489
863.9	4428
864.032	4337
864.164	4367
864.296	4421
864.428	4516
864.559	4577
864.691	4504
864.823	4569
864.954	4470
865.086	4538
865.217	4462
865.349	4428
865.48	4432
865.612	4455
865.743	4622
865.875	4443
866.006	4413
866.137	4462
866.269	4421
866.4	4443
866.531	4424
866.662	4394
866.793	4424
866.924	4409
867.055	4481
867.186	4451
867.317	4447
867.448	4371
867.579	4386
867.71	4462
867.841	4375
867.972	4489
868.103	4462
868.233	4440
868.364	4447
868.495	4512
868.625	4694
868.756	4736
868.886	4546
869.017	4580
869.147	4752
869.278	4763
869.408	4691
869.539	4634
869.669	4702
869.799	4691
869.929	4778
870.06	4759
870.19	4934
870.32	4927
870.45	4965
870.58	5029
870.71	5094
870.84	5071
870.97	4961
871.1	4915
871.23	5105
871.36	5124
871.489	5014
871.619	5105
871.749	5075
871.879	5121
872.008	5162
872.138	5105
872.267	4949
872.397	4858
872.526	4824
872.656	4733
872.785	4805
872.915	4957
873.044	5006
873.173	4984
873.303	4930
873.432	4930
873.561	4934
873.69	4904
873.819	4877
873.948	4915
874.077	4828
874.206	4763
874.335	4847
874.464	4904
874.593	5086
874.722	4934
874.851	5102
874.979	5045
875.108	5025
875.237	4908
875.365	4858
875.494	4889
875.623	5041
875.751	4812
875.88	4862
876.008	4968
876.136	5071
876.265	5231
876.393	5318
876.521	5242
876.65	5181
876.778	5166
876.906	5102
877.034	5037
877.162	5056
877.29	4934
877.418	5094
877.546	5064
877.674	5045
877.802	5060
877.93	5083
878.058	4972
878.185	4911
878.313	4927
878.441	4972
878.568	4824
878.696	4915
878.824	5037
878.951	5033
879.079	5086
879.206	5337
879.333	5075
879.461	4991
879.588	5025
879.715	5151
879.842	5250
879.97	4957
880.097	4805
880.224	4740
880.351	4805
880.478	4820
880.605	4843
880.732	4740
880.859	5086
880.986	4862
881.112	4965
881.239	4774
881.366	4698
881.493	4596
881.619	4668
881.746	4618
881.872	4660
881.999	4672
882.125	4698
882.252	4793
882.378	4824
882.505	4968
882.631	4782
882.757	4664
882.883	4725
883.01	4759
883.136	4706
883.262	4611
883.388	4622
883.514	4824
883.64	4862
883.766	4774
883.892	4668
884.018	4683
884.143	4911
884.269	5022
884.395	4626
884.52	4615
884.646	4656
884.772	4573
884.897	4607
885.023	4698
885.148	4774
885.274	4866
885.399	4782
885.524	4687
885.65	4702
885.775	4740
885.9	4698
886.025	4866
886.15	4824
886.275	4721
886.4	4687
886.525	4679
886.65	4721
886.775	4656
886.9	4949
887.025	5041
887.149	4782
887.274	4649
887.399	4580
887.523	4561
887.648	4573
887.773	4641
887.897	4774
888.021	4736
888.146	4687
888.27	4805
888.395	4908
888.519	4839
888.643	4801
888.767	4843
888.891	4622
889.015	4584
889.139	4679
889.263	4615
889.387	4771
889.511	4866
889.635	4809
889.759	4672
889.883	4634
890.006	4698
890.13	4866
890.254	4630
890.377	4717
890.501	4558
890.624	4489
890.748	4645
890.871	4508
890.995	4440
891.118	4314
891.241	4569
891.364	4535
891.488	4653
891.611	4569
891.734	4519
891.857	4611
891.98	4588
892.103	4641
892.226	4573
892.349	4527
892.471	4432
892.594	4558
892.717	4618
892.839	4603
892.962	4622
893.085	4668
893.207	4603
893.33	4440
893.452	4523
893.575	4714
893.697	4607
893.819	4812
893.941	4820
894.064	4790
894.186	4580
894.308	4569
894.43	4744
894.552	4828
894.674	4687
894.796	4558
894.918	4599
895.04	4596
895.161	4683
895.283	4683
895.405	4577
895.526	4630
895.648	4736
895.769	4668
895.891	4706
896.012	4733
896.134	4755
896.255	4694
896.376	4641
896.498	4622
896.619	4649
896.74	4550
896.861	4653
896.982	4854
897.103	5102
897.224	4831
897.345	4812
897.466	4664
897.587	4729
897.708	4866
897.828	4729
897.949	4698
898.07	4596
898.19	4596
898.311	4824
898.431	4668
898.552	4687
898.672	4828
898.792	4771
898.913	4736
899.033	4577
899.153	4497
899.273	4478
899.393	4485
899.513	4577
899.633	4561
899.753	4493
899.873	4493
899.993	4596
900.113	4519
900.232	4618
900.352	4569
900.472	4466
900.591	4367
900.711	4478
900.83	4493
900.95	4592
901.069	4660
901.189	4500
901.308	4360
901.427	4322
901.546	4325
901.665	4451
901.784	4527
901.904	4386
902.023	4337
902.141	4173
902.26	4162
902.379	4306
902.498	4257
902.617	4246
902.735	4375
902.854	4409
902.973	4344
903.091	4200
903.21	4242
903.328	4295
903.446	4253
903.565	4276
903.683	4379
903.801	4299
903.919	4409
904.038	4379
904.156	4329
904.274	4474
904.392	4386
904.51	4417
904.627	4421
904.745	4558
904.863	4596
904.981	4409
905.098	4284
905.216	4360
905.334	4455
905.451	4466
905.569	4455
905.686	4508
905.803	4542
905.921	4424
906.038	4569
906.155	4466
906.272	4413
906.389	4466
906.506	4402
906.623	4318
906.74	4390
906.857	4280
906.974	4333
907.091	4531
907.208	4649
907.324	4573
907.441	4485
907.557	4303
907.674	4341
907.79	4284
907.907	4440
908.023	4516
908.139	4474
908.256	4466
908.372	4485
908.488	4409
908.604	4363
908.72	4341
908.836	4383
908.952	4394
909.068	4432
909.184	4558
909.3	4455
909.415	4615
909.531	4527
909.647	4352
909.762	4375
909.878	4360
909.993	4417
910.108	4367
910.224	4421
910.339	4485
910.454	4363
910.57	4360
910.685	4371
910.8	4660
910.915	4660
911.03	4508
911.145	4341
911.259	4383
911.374	4329
911.489	4303
911.604	4284
911.718	4188
911.833	4215
911.947	4074
912.062	4044
912.176	4200
912.291	4242
912.405	4284
912.519	4497
912.633	4470
912.748	4352
912.862	4318
912.976	4223
913.09	4116
913.204	4192
913.318	4249
913.431	4390
913.545	4402
913.659	4443
913.772	4356
913.886	4227
914	4227
914.113	4390
914.226	4485
914.34	4360
914.453	4249
914.566	4394
914.68	4314
914.793	4352
914.906	4177
915.019	4116
915.132	4071
915.245	4192
915.358	4238
915.47	4238
915.583	4246
915.696	4310
915.809	4383
915.921	4447
916.034	4291
916.146	4257
916.259	4261
916.371	4344
916.483	4363
916.595	4253
916.708	4348
916.82	4344
916.932	4287
917.044	4363
917.156	4356
917.268	4230
917.38	4299
917.491	4219
917.603	4390
917.715	4413
917.826	4424
917.938	4379
918.049	4249
918.161	4390
918.272	4561
918.384	4538
918.495	4535
918.606	4314
918.717	4230
918.828	4299
918.939	4360
919.05	4249
919.161	4333
919.272	4109
919.383	4200
919.494	4459
919.604	4618
919.715	4424
919.826	4417
919.936	4440
920.047	4550
920.157	4451
920.267	4729
920.378	4531
920.488	4523
920.598	4702
920.708	4862
920.818	4721
920.928	4759
921.038	4915
921.148	4915
921.258	4580
921.368	4573
921.477	4577
921.587	4485
921.697	4363
921.806	4550
921.916	4398
922.025	4306
922.134	4299
922.244	4223
922.353	4322
922.462	4173
922.571	4116
922.68	4017
922.789	4006
922.898	4010
923.007	3987
923.116	4105
923.224	4097
923.333	4093
923.442	3975
923.55	3972
923.659	4059
923.767	4097
923.876	3968
923.984	4147
924.092	4040
924.201	4112
924.309	4086
924.417	4116
924.525	4063
924.633	4116
924.741	5045
924.849	3926
924.956	4090
925.064	3975
925.172	3915
925.279	3994
925.387	4074
925.494	4082
925.602	4196
925.709	4173
925.816	4082
925.924	4139
926.031	4166
926.138	4177
926.245	4188
926.352	4086
926.459	4284
926.566	4299
926.673	4200
926.779	4097
926.886	4059
926.993	4002
927.099	3949
927.206	3907
927.312	3934
927.419	4040
927.525	3987
927.631	4128
927.737	3937
927.843	3968
927.95	3838
928.056	3941
928.162	3987
928.267	4029
928.373	4672
928.479	4112
928.585	3842
928.69	4010
928.796	4086
928.901	3991
929.007	3857
929.112	3968
929.218	3987
929.323	3930
929.428	3953
929.533	4131
929.638	3884
929.743	3975
929.848	4044
929.953	3972
930.058	3873
930.163	3751
930.267	3850
930.372	3956
930.477	3778
930.581	4078
930.685	3983
930.79	3804
930.894	3888
930.998	3854
931.103	4032
931.207	3682
931.311	3732
931.415	3660
931.519	3515
931.623	3507
