Data from test_V78500241_333.txt Node
Date: Fri Mar 25 16:51:19 CST 2022
User: usil
Spectrometer: V785-0024
Trigger mode: 0
Integration Time (sec): 4.000000E-1
Scans to average: 1
Nonlinearity correction enabled: false
Boxcar width: 0
Storing dark spectrum: false
XAxis mode: Wavelengths
Number of Pixels in Spectrum: 1024
>>>>>Begin Spectral Data<<<<<
801.071	8069
801.214	8016
801.356	7940
801.499	7913
801.641	7868
801.783	7864
801.926	8024
802.068	7959
802.211	8001
802.353	8020
802.496	7890
802.638	7936
802.78	7951
802.923	7963
803.065	7906
803.208	7887
803.35	7963
803.492	8065
803.635	8115
803.777	8031
803.919	8058
804.061	8446
804.204	8149
804.346	8062
804.488	7963
804.63	8115
804.773	7993
804.915	8084
805.057	8256
805.199	8145
805.341	8279
805.483	8275
805.626	8130
805.768	8111
805.91	8153
806.052	8191
806.194	8123
806.336	8317
806.478	8164
806.62	8168
806.762	8187
806.904	8301
807.046	8434
807.188	8320
807.33	8286
807.472	8328
807.614	8164
807.756	8164
807.898	8027
808.04	7871
808.182	7879
808.324	7947
808.465	7963
808.607	8050
808.749	8149
808.891	8195
809.033	8328
809.174	8202
809.316	8046
809.458	8043
809.6	7993
809.741	8020
809.883	7989
810.025	8130
810.166	8126
810.308	8016
810.45	8008
810.591	7906
810.733	7788
810.875	7700
811.016	7510
811.158	7487
811.299	7613
811.441	7811
811.582	7765
811.724	7639
811.865	7540
812.007	7651
812.148	7597
812.29	7624
812.431	7723
812.573	7875
812.714	8001
812.855	8084
812.997	8221
813.138	8233
813.279	8191
813.421	8081
813.562	7989
813.703	7841
813.845	7811
813.986	7430
814.127	7282
814.268	7232
814.41	7209
814.551	7156
814.692	7209
814.833	7110
814.974	7149
815.115	7095
815.256	6935
815.397	6909
815.539	6958
815.68	6867
815.821	6810
815.962	6924
816.103	6848
816.244	6715
816.385	6650
816.526	6627
816.666	6597
816.807	6331
816.948	6502
817.089	6517
817.23	6429
817.371	6388
817.512	6388
817.653	6467
817.793	6357
817.934	6445
818.075	6479
818.216	6506
818.356	6471
818.497	6258
818.638	6213
818.778	6167
818.919	6117
819.06	6163
819.2	6365
819.341	6334
819.481	6361
819.622	6475
819.762	6787
819.903	6703
820.043	6601
820.184	6578
820.324	6570
820.465	6677
820.605	6620
820.746	6604
820.886	6540
821.026	6749
821.167	6757
821.307	6833
821.447	6745
821.588	6673
821.728	6570
821.868	6528
822.008	6254
822.149	6388
822.289	6376
822.429	6152
822.569	6129
822.709	6087
822.849	5950
822.99	5897
823.13	5939
823.27	5927
823.41	5821
823.55	5813
823.69	5779
823.83	5729
823.97	5657
824.11	5509
824.25	5482
824.389	5577
824.529	5608
824.669	5543
824.809	5596
824.949	5642
825.089	5611
825.228	5570
825.368	5368
825.508	5383
825.648	5376
825.787	5383
825.927	5379
826.067	5326
826.206	5254
826.346	5368
826.485	5444
826.625	5436
826.765	5509
826.904	5493
827.044	5296
827.183	5208
827.323	5140
827.462	5231
827.601	5128
827.741	5185
827.88	5197
828.02	5033
828.159	5250
828.298	5318
828.437	5376
828.577	5273
828.716	5448
828.855	5353
828.994	5159
829.134	5166
829.273	5193
829.412	5159
829.551	5174
829.69	5162
829.829	5231
829.968	5360
830.107	5284
830.246	5345
830.385	5220
830.524	5201
830.663	5075
830.802	5010
830.941	4915
831.08	4908
831.219	4995
831.357	4984
831.496	5086
831.635	4896
831.774	4866
831.913	4881
832.051	4759
832.19	4774
832.329	4866
832.467	4710
832.606	4656
832.744	4691
832.883	4729
833.022	4725
833.16	4820
833.299	4812
833.437	4790
833.576	4839
833.714	4824
833.852	4896
833.991	4858
834.129	4984
834.267	4965
834.406	4858
834.544	4957
834.682	4968
834.821	4995
834.959	5174
835.097	4968
835.235	5166
835.373	5113
835.511	5170
835.65	5029
835.788	5045
835.926	4919
836.064	4927
836.202	4953
836.34	5166
836.478	5227
836.615	5159
836.753	5227
836.891	5277
837.029	5258
837.167	5189
837.305	5166
837.443	5181
837.58	5105
837.718	5216
837.856	5185
837.993	5117
838.131	5208
838.269	5246
838.406	5220
838.544	5181
838.681	5079
838.819	5014
838.956	4927
839.094	4927
839.231	4972
839.369	5105
839.506	5467
839.643	5239
839.781	5079
839.918	5060
840.055	5098
840.193	5124
840.33	5132
840.467	5117
840.604	5174
840.742	5433
840.879	5090
841.016	5105
841.153	5094
841.29	5372
841.427	5322
841.564	5341
841.701	5357
841.838	5277
841.975	5246
842.112	5284
842.249	5117
842.385	5117
842.522	5296
842.659	5151
842.796	5151
842.933	5242
843.069	5212
843.206	5121
843.343	5307
843.479	5246
843.616	5311
843.752	4995
843.889	4957
844.025	5223
844.162	4995
844.298	5204
844.435	5098
844.571	5079
844.708	5159
844.844	5318
844.98	5322
845.117	5318
845.253	5113
845.389	5083
845.525	5155
845.661	5204
845.798	5098
845.934	5132
846.07	5056
846.206	5181
846.342	5235
846.478	5185
846.614	4991
846.75	4972
846.886	4930
847.022	5121
847.158	5025
847.294	5033
847.429	5124
847.565	5037
847.701	5299
847.837	4843
847.972	4801
848.108	4999
848.244	4961
848.379	4805
848.515	4771
848.65	4710
848.786	4744
848.921	4763
849.057	4892
849.192	4885
849.328	4816
849.463	4831
849.598	4831
849.734	4744
849.869	4698
850.004	4607
850.14	4668
850.275	4599
850.41	4523
850.545	4592
850.68	4611
850.815	4630
850.95	4660
851.085	4873
851.22	4736
851.355	4672
851.49	4615
851.625	4672
851.76	4656
851.895	4599
852.03	4538
852.165	4603
852.299	4748
852.434	4786
852.569	4793
852.703	4755
852.838	4881
852.973	4904
853.107	4904
853.242	4767
853.376	4660
853.511	4573
853.645	4626
853.78	4809
853.914	4641
854.048	4694
854.183	4668
854.317	4687
854.451	4801
854.585	4691
854.72	4653
854.854	4683
854.988	4573
855.122	4683
855.256	4493
855.39	4668
855.524	4740
855.658	4744
855.792	4725
855.926	4725
856.06	4767
856.194	4812
856.327	4694
856.461	4618
856.595	4546
856.729	4649
856.862	4763
856.996	4729
857.13	4714
857.263	4736
857.397	4816
857.53	4691
857.664	4755
857.797	4782
857.931	4812
858.064	4691
858.197	4725
858.331	4660
858.464	4588
858.597	4550
858.731	4634
858.864	4618
858.997	4550
859.13	4656
859.263	4656
859.396	4706
859.529	4592
859.662	4569
859.795	4538
859.928	4691
860.061	4763
860.194	4717
860.327	4596
860.46	4565
860.592	4706
860.725	4752
860.858	4725
860.99	4554
861.123	4523
861.256	4527
861.388	4580
861.521	5330
861.653	4478
861.786	4436
861.918	4451
862.05	4546
862.183	4577
862.315	4603
862.447	4599
862.58	4523
862.712	4402
862.844	4287
862.976	4459
863.108	4432
863.24	4831
863.372	4379
863.504	4462
863.636	4424
863.768	4493
863.9	4447
864.032	4363
864.164	4383
864.296	4459
864.428	4561
864.559	4569
864.691	4531
864.823	4538
864.954	4523
865.086	4516
865.217	4470
865.349	4432
865.48	4462
865.612	4474
865.743	4649
865.875	4474
866.006	4440
866.137	4485
866.269	4462
866.4	4421
866.531	4432
866.662	4386
866.793	4432
866.924	4432
867.055	4535
867.186	4443
867.317	4485
867.448	4344
867.579	4432
867.71	4424
867.841	4413
867.972	4493
868.103	4485
868.233	4413
868.364	4481
868.495	4500
868.625	4660
868.756	4786
868.886	4577
869.017	4611
869.147	4748
869.278	4805
869.408	4660
869.539	4645
869.669	4729
869.799	4641
869.929	4790
870.06	4714
870.19	4923
870.32	4896
870.45	4949
870.58	5037
870.71	5121
870.84	5086
870.97	4946
871.1	4915
871.23	5197
871.36	5075
871.489	5025
871.619	5041
871.749	5155
871.879	5105
872.008	5189
872.138	5117
872.267	4980
872.397	4824
872.526	4812
872.656	4725
872.785	4786
872.915	4991
873.044	5003
873.173	4930
873.303	4995
873.432	4976
873.561	4946
873.69	4843
873.819	4862
873.948	4889
874.077	4850
874.206	4816
874.335	4816
874.464	4934
874.593	5029
874.722	4934
874.851	5102
874.979	5083
875.108	5037
875.237	4896
875.365	4858
875.494	4900
875.623	4957
875.751	4870
875.88	4862
876.008	4980
876.136	5045
876.265	5178
876.393	5341
876.521	5280
876.65	5201
876.778	5132
876.906	5086
877.034	5022
877.162	5029
877.29	5010
877.418	5094
877.546	5048
877.674	5056
877.802	5071
877.93	5060
878.058	4927
878.185	4908
878.313	4934
878.441	4980
878.568	4809
878.696	4889
878.824	4984
878.951	4980
879.079	5132
879.206	5250
879.333	5098
879.461	4995
879.588	4995
879.715	5105
879.842	5261
879.97	5018
880.097	4778
880.224	4744
880.351	4805
880.478	4824
880.605	4809
880.732	4767
880.859	5121
880.986	4934
881.112	4881
881.239	4812
881.366	4672
881.493	4618
881.619	4596
881.746	4679
881.872	4672
881.999	4675
882.125	4691
882.252	4774
882.378	4839
882.505	4957
882.631	4793
882.757	4717
882.883	4736
883.01	4714
883.136	4634
883.262	4634
883.388	4599
883.514	4828
883.64	4892
883.766	4801
883.892	4740
884.018	4679
884.143	4839
884.269	5022
884.395	4733
884.52	4649
884.646	4641
884.772	4584
884.897	4546
885.023	4618
885.148	4793
885.274	4866
885.399	4786
885.524	4717
885.65	4729
885.775	4793
885.9	4645
886.025	4889
886.15	4782
886.275	4706
886.4	4683
886.525	4759
886.65	4698
886.775	4717
886.9	4923
887.025	5041
887.149	4824
887.274	4641
887.399	4584
887.523	4656
887.648	4596
887.773	4584
887.897	4748
888.021	4782
888.146	4653
888.27	4793
888.395	4858
888.519	4854
888.643	4850
888.767	4847
888.891	4675
889.015	4592
889.139	4668
889.263	4561
889.387	4759
889.511	4858
889.635	4759
889.759	4668
889.883	4618
890.006	4778
890.13	4854
890.254	4573
890.377	4706
890.501	4546
890.624	4523
890.748	4679
890.871	4481
890.995	4405
891.118	4443
891.241	4531
891.364	4527
891.488	4630
891.611	4531
891.734	4546
891.857	4615
891.98	4580
892.103	4672
892.226	4558
892.349	4493
892.471	4417
892.594	4500
892.717	4626
892.839	4554
892.962	4558
893.085	4675
893.207	4653
893.33	4440
893.452	4519
893.575	4664
893.697	4584
893.819	4793
893.941	4839
894.064	4725
894.186	4577
894.308	4538
894.43	4698
894.552	4809
894.674	4763
894.796	4558
894.918	4573
895.04	4569
895.161	4702
895.283	4687
895.405	4592
895.526	4694
895.648	4672
895.769	4683
895.891	4717
896.012	4778
896.134	4786
896.255	4679
896.376	4668
896.498	4634
896.619	4721
896.74	4592
896.861	4660
896.982	4965
897.103	5037
897.224	4831
897.345	4683
897.466	4664
897.587	4755
897.708	4854
897.828	4774
897.949	4679
898.07	4577
898.19	4656
898.311	4809
898.431	4672
898.552	4729
898.672	4801
898.792	4797
898.913	4767
899.033	4668
899.153	4550
899.273	4447
899.393	4489
899.513	4489
899.633	4554
899.753	4554
899.873	4546
899.993	4584
900.113	4535
900.232	4577
900.352	4569
900.472	4485
900.591	4443
900.711	4481
900.83	4462
900.95	4592
901.069	4691
901.189	4569
901.308	4337
901.427	4310
901.546	4360
901.665	4466
901.784	4500
901.904	4379
902.023	4333
902.141	4242
902.26	4204
902.379	4295
902.498	4234
902.617	4200
902.735	4405
902.854	4394
902.973	4371
903.091	4280
903.21	4204
903.328	4291
903.446	4230
903.565	4207
903.683	4383
903.801	4284
903.919	4455
904.038	4466
904.156	4284
904.274	4455
904.392	4440
904.51	4489
904.627	4497
904.745	4535
904.863	4660
904.981	4413
905.098	4344
905.216	4352
905.334	4413
905.451	4462
905.569	4424
905.686	4580
905.803	4599
905.921	4379
906.038	4527
906.155	4512
906.272	4424
906.389	4493
906.506	4344
906.623	4390
906.74	4405
906.857	4341
906.974	4390
907.091	4512
907.208	4687
907.324	4611
907.441	4500
907.557	4348
907.674	4306
907.79	4322
907.907	4367
908.023	4455
908.139	4455
908.256	4428
908.372	4516
908.488	4466
908.604	4386
908.72	4322
908.836	4394
908.952	4402
909.068	4421
909.184	4630
909.3	4493
909.415	4580
909.531	4542
909.647	4371
909.762	4402
909.878	4322
909.993	4424
910.108	4383
910.224	4405
910.339	4443
910.454	4394
910.57	4375
910.685	4318
910.8	4679
910.915	4622
911.03	4519
911.145	4314
911.259	4363
911.374	4367
911.489	4284
911.604	4344
911.718	4207
911.833	4204
911.947	4097
912.062	4063
912.176	4211
912.291	4215
912.405	4230
912.519	4447
912.633	4478
912.748	4363
912.862	4356
912.976	4223
913.09	4105
913.204	4215
913.318	4268
913.431	4371
913.545	4360
913.659	4440
913.772	4348
913.886	4253
914	4234
914.113	4386
914.226	4443
914.34	4375
914.453	4257
914.566	4466
914.68	4306
914.793	4337
914.906	4215
915.019	4120
915.132	4101
915.245	4162
915.358	4211
915.47	4295
915.583	4352
915.696	4318
915.809	4413
915.921	4440
916.034	4272
916.146	4287
916.259	4238
916.371	4367
916.483	4402
916.595	4284
916.708	4356
916.82	4363
916.932	4329
917.044	4329
917.156	4360
917.268	4272
917.38	4291
917.491	4287
917.603	4379
917.715	4440
917.826	4447
917.938	4341
918.049	4230
918.161	4421
918.272	4599
918.384	4573
918.495	4440
918.606	4306
918.717	4227
918.828	4375
918.939	4398
919.05	4272
919.161	4306
919.272	4109
919.383	4257
919.494	4440
919.604	4626
919.715	4447
919.826	4318
919.936	4413
920.047	4546
920.157	4508
920.267	4694
920.378	4580
920.488	4497
920.598	4687
920.708	4949
920.818	4774
920.928	4729
921.038	4953
921.148	4915
921.258	4615
921.368	4535
921.477	4516
921.587	4451
921.697	4405
921.806	4558
921.916	4462
922.025	4265
922.134	4272
922.244	4219
922.353	4325
922.462	4200
922.571	4158
922.68	4006
922.789	3968
922.898	4082
923.007	3983
923.116	4120
923.224	4051
923.333	4120
923.442	4002
923.55	3998
923.659	4044
923.767	4105
923.876	4044
923.984	4082
924.092	3968
924.201	4101
924.309	4105
924.417	4124
924.525	4059
924.633	4128
924.741	4873
924.849	3941
924.956	4139
925.064	3968
925.172	3896
925.279	4006
925.387	4032
925.494	4025
925.602	4188
925.709	4154
925.816	4010
925.924	4112
926.031	4238
926.138	4188
926.245	4223
926.352	4143
926.459	4257
926.566	4280
926.673	4188
926.779	4082
926.886	4086
926.993	3987
927.099	3949
927.206	3941
927.312	3918
927.419	4071
927.525	4090
927.631	4044
927.737	3975
927.843	3949
927.95	3842
928.056	3941
928.162	3983
928.267	4044
928.373	4603
928.479	4071
928.585	3934
928.69	4029
928.796	4090
928.901	4017
929.007	3888
929.112	4025
929.218	3918
929.323	3960
929.428	3911
929.533	4109
929.638	3918
929.743	3972
929.848	4036
929.953	4010
930.058	3930
930.163	3797
930.267	3846
930.372	3983
930.477	3793
930.581	4124
930.685	3926
930.79	3831
930.894	3884
930.998	3854
931.103	4002
931.207	3770
931.311	3675
931.415	3686
931.519	3542
931.623	3576
