Data from test_V78500241_2503.txt Node
Date: Fri Mar 25 17:06:24 CST 2022
User: usil
Spectrometer: V785-0024
Trigger mode: 0
Integration Time (sec): 4.000000E-1
Scans to average: 1
Nonlinearity correction enabled: false
Boxcar width: 0
Storing dark spectrum: false
XAxis mode: Wavelengths
Number of Pixels in Spectrum: 1024
>>>>>Begin Spectral Data<<<<<
801.071	7982
801.214	7997
801.356	7860
801.499	7830
801.641	7803
801.783	7852
801.926	7906
802.068	7982
802.211	7974
802.353	7959
802.496	7875
802.638	7928
802.78	7913
802.923	7917
803.065	7807
803.208	7894
803.35	7997
803.492	8103
803.635	8138
803.777	8031
803.919	8134
804.061	8465
804.204	8164
804.346	8077
804.488	7974
804.63	8054
804.773	8005
804.915	8183
805.057	8263
805.199	8130
805.341	8134
805.483	8290
805.626	8206
805.768	8202
805.91	8195
806.052	8206
806.194	8161
806.336	8332
806.478	8115
806.62	8142
806.762	8161
806.904	8275
807.046	8442
807.188	8336
807.33	8267
807.472	8279
807.614	8111
807.756	8161
807.898	7970
808.04	7890
808.182	7879
808.324	7902
808.465	7883
808.607	8088
808.749	8123
808.891	8176
809.033	8313
809.174	8199
809.316	8016
809.458	8111
809.6	7940
809.741	8005
809.883	8050
810.025	8126
810.166	8111
810.308	7978
810.45	7986
810.591	7894
810.733	7795
810.875	7693
811.016	7483
811.158	7529
811.299	7559
811.441	7750
811.582	7746
811.724	7537
811.865	7445
812.007	7548
812.148	7571
812.29	7601
812.431	7765
812.573	7814
812.714	7993
812.855	8161
812.997	8183
813.138	8320
813.279	8153
813.421	8065
813.562	7921
813.703	7826
813.845	7814
813.986	7445
814.127	7255
814.268	7225
814.41	7194
814.551	7126
814.692	7198
814.833	7099
814.974	7126
815.115	7091
815.256	6943
815.397	6875
815.539	6901
815.68	6829
815.821	6711
815.962	6821
816.103	6833
816.244	6730
816.385	6692
816.526	6612
816.666	6517
816.807	6308
816.948	6483
817.089	6452
817.23	6395
817.371	6384
817.512	6357
817.653	6346
817.793	6361
817.934	6410
818.075	6441
818.216	6437
818.356	6395
818.497	6266
818.638	6117
818.778	6148
818.919	6175
819.06	6133
819.2	6380
819.341	6334
819.481	6384
819.622	6506
819.762	6730
819.903	6692
820.043	6604
820.184	6566
820.324	6601
820.465	6703
820.605	6642
820.746	6673
820.886	6559
821.026	6700
821.167	6700
821.307	6802
821.447	6787
821.588	6703
821.728	6627
821.868	6532
822.008	6418
822.149	6494
822.289	6403
822.429	6159
822.569	6117
822.709	6167
822.849	6003
822.99	5927
823.13	5946
823.27	5980
823.41	5745
823.55	5817
823.69	5844
823.83	5870
823.97	5691
824.11	5600
824.25	5520
824.389	5585
824.529	5634
824.669	5509
824.809	5707
824.949	5703
825.089	5642
825.228	5554
825.368	5433
825.508	5414
825.648	5368
825.787	5463
825.927	5410
826.067	5334
826.206	5269
826.346	5383
826.485	5444
826.625	5448
826.765	5554
826.904	5497
827.044	5307
827.183	5227
827.323	5147
827.462	5258
827.601	5258
827.741	5269
827.88	5292
828.02	5147
828.159	5277
828.298	5334
828.437	5387
828.577	5341
828.716	5459
828.855	5330
828.994	5223
829.134	5159
829.273	5250
829.412	5197
829.551	5201
829.69	5212
829.829	5299
829.968	5448
830.107	5330
830.246	5345
830.385	5204
830.524	5162
830.663	5083
830.802	4968
830.941	4923
831.08	4938
831.219	4995
831.357	4968
831.496	5204
831.635	4980
831.774	4896
831.913	4858
832.051	4790
832.19	4797
832.329	4904
832.467	4736
832.606	4698
832.744	4752
832.883	4812
833.022	4786
833.16	4782
833.299	4843
833.437	4885
833.576	4885
833.714	4877
833.852	4949
833.991	4870
834.129	5003
834.267	4968
834.406	4980
834.544	5025
834.682	5045
834.821	5029
834.959	5220
835.097	5079
835.235	5231
835.373	5083
835.511	5124
835.65	5086
835.788	5102
835.926	4915
836.064	4919
836.202	4927
836.34	5193
836.478	5242
836.615	5159
836.753	5242
836.891	5341
837.029	5296
837.167	5288
837.305	5178
837.443	5140
837.58	5098
837.718	5280
837.856	5204
837.993	5181
838.131	5292
838.269	5227
838.406	5189
838.544	5235
838.681	5071
838.819	5037
838.956	4946
839.094	4957
839.231	4961
839.369	5159
839.506	5474
839.643	5330
839.781	5162
839.918	5079
840.055	5151
840.193	5147
840.33	5136
840.467	5181
840.604	5227
840.742	5474
840.879	5090
841.016	5174
841.153	5181
841.29	5395
841.427	5391
841.564	5334
841.701	5391
841.838	5273
841.975	5246
842.112	5284
842.249	5193
842.385	5117
842.522	5364
842.659	5181
842.796	5189
842.933	5201
843.069	5128
843.206	5159
843.343	5368
843.479	5265
843.616	5303
843.752	5037
843.889	5029
844.025	5277
844.162	5079
844.298	5212
844.435	5132
844.571	5105
844.708	5235
844.844	5357
844.98	5299
845.117	5360
845.253	5181
845.389	5117
845.525	5208
845.661	5201
845.798	5052
845.934	5166
846.07	5140
846.206	5227
846.342	5322
846.478	5201
846.614	5086
846.75	4949
846.886	4949
847.022	5140
847.158	4999
847.294	5086
847.429	5143
847.565	5128
847.701	5379
847.837	4911
847.972	4839
848.108	4965
848.244	4968
848.379	4858
848.515	4778
848.65	4774
848.786	4759
848.921	4858
849.057	4911
849.192	4976
849.328	4854
849.463	4850
849.598	4812
849.734	4790
849.869	4740
850.004	4668
850.14	4717
850.275	4668
850.41	4558
850.545	4634
850.68	4641
850.815	4618
850.95	4637
851.085	4892
851.22	4755
851.355	4759
851.49	4683
851.625	4668
851.76	4694
851.895	4611
852.03	4554
852.165	4687
852.299	4740
852.434	4786
852.569	4778
852.703	4820
852.838	4843
852.973	4900
853.107	4942
853.242	4771
853.376	4725
853.511	4561
853.645	4653
853.78	4824
853.914	4736
854.048	4702
854.183	4710
854.317	4668
854.451	4847
854.585	4679
854.72	4660
854.854	4805
854.988	4622
855.122	4660
855.256	4478
855.39	4679
855.524	4801
855.658	4702
855.792	4702
855.926	4752
856.06	4793
856.194	4809
856.327	4721
856.461	4641
856.595	4618
856.729	4679
856.862	4778
856.996	4748
857.13	4748
857.263	4793
857.397	4790
857.53	4683
857.664	4748
857.797	4755
857.931	4816
858.064	4675
858.197	4786
858.331	4634
858.464	4618
858.597	4584
858.731	4653
858.864	4656
858.997	4580
859.13	4687
859.263	4694
859.396	4736
859.529	4615
859.662	4603
859.795	4569
859.928	4592
860.061	4774
860.194	4786
860.327	4656
860.46	4577
860.592	4740
860.725	4790
860.858	4778
860.99	4599
861.123	4546
861.256	4565
861.388	4615
861.521	5227
861.653	4516
861.786	4474
861.918	4478
862.05	4561
862.183	4569
862.315	4622
862.447	4683
862.58	4554
862.712	4379
862.844	4344
862.976	4500
863.108	4489
863.24	4854
863.372	4367
863.504	4462
863.636	4390
863.768	4470
863.9	4459
864.032	4424
864.164	4424
864.296	4451
864.428	4580
864.559	4592
864.691	4554
864.823	4584
864.954	4493
865.086	4535
865.217	4470
865.349	4455
865.48	4531
865.612	4535
865.743	4634
865.875	4470
866.006	4493
866.137	4466
866.269	4455
866.4	4474
866.531	4459
866.662	4443
866.793	4417
866.924	4478
867.055	4523
867.186	4516
867.317	4462
867.448	4390
867.579	4386
867.71	4379
867.841	4379
867.972	4474
868.103	4474
868.233	4455
868.364	4481
868.495	4538
868.625	4748
868.756	4740
868.886	4637
869.017	4626
869.147	4717
869.278	4786
869.408	4687
869.539	4656
869.669	4725
869.799	4660
869.929	4801
870.06	4763
870.19	4930
870.32	4980
870.45	4980
870.58	5041
870.71	5086
870.84	5079
870.97	4999
871.1	4968
871.23	5181
871.36	5162
871.489	5048
871.619	5086
871.749	5094
871.879	5147
872.008	5159
872.138	5102
872.267	4965
872.397	4911
872.526	4847
872.656	4736
872.785	4782
872.915	4991
873.044	5018
873.173	4976
873.303	5037
873.432	4927
873.561	4995
873.69	4923
873.819	4828
873.948	4930
874.077	4847
874.206	4797
874.335	4809
874.464	4919
874.593	5060
874.722	4972
874.851	5143
874.979	5075
875.108	5018
875.237	4930
875.365	4870
875.494	4915
875.623	4995
875.751	4885
875.88	4915
876.008	4984
876.136	5079
876.265	5208
876.393	5360
876.521	5261
876.65	5227
876.778	5159
876.906	5086
877.034	5056
877.162	5067
877.29	4987
877.418	5086
877.546	5098
877.674	5045
877.802	4999
877.93	5056
878.058	4968
878.185	4881
878.313	4972
878.441	4999
878.568	4866
878.696	4877
878.824	4976
878.951	4999
879.079	5181
879.206	5315
879.333	5124
879.461	4949
879.588	5006
879.715	5109
879.842	5231
879.97	5037
880.097	4805
880.224	4782
880.351	4782
880.478	4862
880.605	4831
880.732	4740
880.859	5094
880.986	4908
881.112	4938
881.239	4797
881.366	4714
881.493	4645
881.619	4634
881.746	4656
881.872	4656
881.999	4691
882.125	4706
882.252	4786
882.378	4870
882.505	5006
882.631	4812
882.757	4714
882.883	4725
883.01	4702
883.136	4660
883.262	4626
883.388	4664
883.514	4835
883.64	4889
883.766	4835
883.892	4672
884.018	4744
884.143	4900
884.269	5041
884.395	4698
884.52	4649
884.646	4668
884.772	4550
884.897	4535
885.023	4691
885.148	4786
885.274	4797
885.399	4812
885.524	4744
885.65	4729
885.775	4752
885.9	4774
886.025	4866
886.15	4809
886.275	4759
886.4	4668
886.525	4801
886.65	4706
886.775	4679
886.9	4946
887.025	5067
887.149	4850
887.274	4687
887.399	4634
887.523	4622
887.648	4618
887.773	4569
887.897	4778
888.021	4805
888.146	4664
888.27	4824
888.395	4934
888.519	4843
888.643	4870
888.767	4862
888.891	4725
889.015	4660
889.139	4660
889.263	4622
889.387	4778
889.511	4904
889.635	4790
889.759	4622
889.883	4687
890.006	4744
890.13	4824
890.254	4618
890.377	4710
890.501	4569
890.624	4535
890.748	4660
890.871	4535
890.995	4459
891.118	4379
891.241	4527
891.364	4592
891.488	4660
891.611	4508
891.734	4554
891.857	4561
891.98	4573
892.103	4733
892.226	4630
892.349	4550
892.471	4440
892.594	4519
892.717	4611
892.839	4569
892.962	4607
893.085	4679
893.207	4660
893.33	4436
893.452	4493
893.575	4710
893.697	4538
893.819	4786
893.941	4866
894.064	4774
894.186	4615
894.308	4596
894.43	4710
894.552	4828
894.674	4721
894.796	4546
894.918	4592
895.04	4531
895.161	4721
895.283	4641
895.405	4569
895.526	4664
895.648	4717
895.769	4691
895.891	4702
896.012	4759
896.134	4729
896.255	4622
896.376	4626
896.498	4622
896.619	4710
896.74	4596
896.861	4653
896.982	4927
897.103	5083
897.224	4885
897.345	4748
897.466	4683
897.587	4725
897.708	4809
897.828	4748
897.949	4687
898.07	4550
898.19	4660
898.311	4755
898.431	4664
898.552	4793
898.672	4831
898.792	4835
898.913	4721
899.033	4596
899.153	4478
899.273	4497
899.393	4519
899.513	4527
899.633	4538
899.753	4550
899.873	4512
899.993	4611
900.113	4535
900.232	4569
900.352	4573
900.472	4481
900.591	4367
900.711	4500
900.83	4436
900.95	4622
901.069	4694
901.189	4550
901.308	4417
901.427	4280
901.546	4371
901.665	4497
901.784	4527
901.904	4398
902.023	4352
902.141	4230
902.26	4185
902.379	4291
902.498	4280
902.617	4223
902.735	4394
902.854	4337
902.973	4329
903.091	4227
903.21	4257
903.328	4299
903.446	4310
903.565	4306
903.683	4352
903.801	4276
903.919	4424
904.038	4443
904.156	4287
904.274	4421
904.392	4447
904.51	4424
904.627	4500
904.745	4573
904.863	4618
904.981	4413
905.098	4341
905.216	4352
905.334	4428
905.451	4432
905.569	4413
905.686	4478
905.803	4577
905.921	4379
906.038	4599
906.155	4459
906.272	4409
906.389	4470
906.506	4344
906.623	4348
906.74	4367
906.857	4295
906.974	4367
907.091	4596
907.208	4660
907.324	4603
907.441	4500
907.557	4344
907.674	4284
907.79	4352
907.907	4383
908.023	4474
908.139	4485
908.256	4436
908.372	4470
908.488	4459
908.604	4360
908.72	4310
908.836	4417
908.952	4367
909.068	4421
909.184	4618
909.3	4459
909.415	4577
909.531	4580
909.647	4356
909.762	4348
909.878	4303
909.993	4443
910.108	4383
910.224	4383
910.339	4440
910.454	4371
910.57	4409
910.685	4341
910.8	4622
910.915	4615
911.03	4516
911.145	4318
911.259	4295
911.374	4386
911.489	4246
911.604	4238
911.718	4154
911.833	4185
911.947	4101
912.062	4036
912.176	4200
912.291	4242
912.405	4227
912.519	4398
912.633	4504
912.748	4356
912.862	4287
912.976	4227
913.09	4093
913.204	4204
913.318	4261
913.431	4383
913.545	4344
913.659	4424
913.772	4356
913.886	4272
914	4181
914.113	4402
914.226	4485
914.34	4417
914.453	4284
914.566	4405
914.68	4306
914.793	4337
914.906	4158
915.019	4131
915.132	4071
915.245	4207
915.358	4173
915.47	4215
915.583	4280
915.696	4322
915.809	4398
915.921	4405
916.034	4265
916.146	4230
916.259	4219
916.371	4371
916.483	4352
916.595	4314
916.708	4306
916.82	4337
916.932	4325
917.044	4314
917.156	4291
917.268	4234
917.38	4246
917.491	4295
917.603	4310
917.715	4474
917.826	4443
917.938	4367
918.049	4253
918.161	4402
918.272	4546
918.384	4550
918.495	4466
918.606	4314
918.717	4246
918.828	4333
918.939	4363
919.05	4272
919.161	4287
919.272	4128
919.383	4246
919.494	4417
919.604	4603
919.715	4424
919.826	4363
919.936	4405
920.047	4508
920.157	4485
920.267	4698
920.378	4550
920.488	4500
920.598	4675
920.708	4850
920.818	4793
920.928	4748
921.038	4889
921.148	4866
921.258	4603
921.368	4580
921.477	4508
921.587	4455
921.697	4402
921.806	4531
921.916	4447
922.025	4238
922.134	4322
922.244	4181
922.353	4367
922.462	4169
922.571	4143
922.68	3991
922.789	4006
922.898	4029
923.007	3972
923.116	4093
923.224	4040
923.333	4097
923.442	3979
923.55	3945
923.659	4032
923.767	4097
923.876	3998
923.984	4150
924.092	3994
924.201	4063
924.309	4086
924.417	4086
924.525	4040
924.633	4055
924.741	4896
924.849	3873
924.956	4105
925.064	3941
925.172	3899
925.279	3956
925.387	4044
925.494	4048
925.602	4147
925.709	4215
925.816	4071
925.924	4143
926.031	4207
926.138	4207
926.245	4257
926.352	4116
926.459	4249
926.566	4314
926.673	4128
926.779	4105
926.886	4074
926.993	3991
927.099	3953
927.206	3941
927.312	3968
927.419	3983
927.525	4040
927.631	4036
927.737	3972
927.843	3960
927.95	3835
928.056	3960
928.162	4021
928.267	4082
928.373	4569
928.479	4128
928.585	3888
928.69	4086
928.796	4109
928.901	3987
929.007	3835
929.112	3983
929.218	4021
929.323	3911
929.428	3960
929.533	4086
929.638	3922
929.743	3960
929.848	3994
929.953	4010
930.058	3911
930.163	3770
930.267	3819
930.372	3979
930.477	3819
930.581	4093
930.685	3934
930.79	3857
930.894	3907
930.998	3854
931.103	4040
931.207	3713
931.311	3698
931.415	3644
931.519	3511
931.623	3545
