Data from test_V78500241_2702.txt Node
Date: Fri Mar 25 17:07:47 CST 2022
User: usil
Spectrometer: V785-0024
Trigger mode: 0
Integration Time (sec): 4.000000E-1
Scans to average: 1
Nonlinearity correction enabled: false
Boxcar width: 0
Storing dark spectrum: false
XAxis mode: Wavelengths
Number of Pixels in Spectrum: 1024
>>>>>Begin Spectral Data<<<<<
801.071	8008
801.214	8054
801.356	7936
801.499	7845
801.641	7784
801.783	7826
801.926	7989
802.068	8008
802.211	8005
802.353	8005
802.496	7890
802.638	7879
802.78	7898
802.923	7936
803.065	7879
803.208	7871
803.35	8012
803.492	8069
803.635	8214
803.777	7967
803.919	8195
804.061	8393
804.204	8126
804.346	8100
804.488	7951
804.63	8126
804.773	8020
804.915	8058
805.057	8279
805.199	8214
805.341	8271
805.483	8256
805.626	8191
805.768	8153
805.91	8221
806.052	8187
806.194	8123
806.336	8347
806.478	8123
806.62	8092
806.762	8088
806.904	8240
807.046	8393
807.188	8469
807.33	8320
807.472	8370
807.614	8221
807.756	8145
807.898	8016
808.04	7887
808.182	7860
808.324	7864
808.465	7940
808.607	8054
808.749	8191
808.891	8164
809.033	8328
809.174	8214
809.316	8088
809.458	8100
809.6	7917
809.741	8020
809.883	8027
810.025	8199
810.166	8119
810.308	8024
810.45	7997
810.591	7890
810.733	7734
810.875	7636
811.016	7521
811.158	7525
811.299	7662
811.441	7803
811.582	7712
811.724	7575
811.865	7571
812.007	7605
812.148	7563
812.29	7628
812.431	7757
812.573	7944
812.714	7993
812.855	8126
812.997	8263
813.138	8320
813.279	8149
813.421	8168
813.562	7944
813.703	7928
813.845	7715
813.986	7514
814.127	7274
814.268	7251
814.41	7160
814.551	7164
814.692	7202
814.833	7103
814.974	7099
815.115	7122
815.256	6985
815.397	6947
815.539	6943
815.68	6897
815.821	6795
815.962	6825
816.103	6878
816.244	6730
816.385	6662
816.526	6662
816.666	6582
816.807	6281
816.948	6433
817.089	6525
817.23	6433
817.371	6407
817.512	6369
817.653	6395
817.793	6369
817.934	6388
818.075	6407
818.216	6448
818.356	6391
818.497	6247
818.638	6110
818.778	6167
818.919	6186
819.06	6186
819.2	6365
819.341	6323
819.481	6327
819.622	6525
819.762	6715
819.903	6665
820.043	6604
820.184	6585
820.324	6616
820.465	6745
820.605	6650
820.746	6597
820.886	6517
821.026	6658
821.167	6669
821.307	6825
821.447	6783
821.588	6696
821.728	6650
821.868	6540
822.008	6296
822.149	6410
822.289	6338
822.429	6110
822.569	6106
822.709	6175
822.849	5969
822.99	5931
823.13	5931
823.27	5923
823.41	5832
823.55	5767
823.69	5760
823.83	5824
823.97	5611
824.11	5501
824.25	5490
824.389	5543
824.529	5589
824.669	5467
824.809	5661
824.949	5646
825.089	5649
825.228	5570
825.368	5395
825.508	5299
825.648	5337
825.787	5398
825.927	5326
826.067	5318
826.206	5284
826.346	5429
826.485	5414
826.625	5414
826.765	5554
826.904	5448
827.044	5284
827.183	5174
827.323	5109
827.462	5292
827.601	5174
827.741	5178
827.88	5185
828.02	5094
828.159	5231
828.298	5307
828.437	5360
828.577	5265
828.716	5448
828.855	5303
828.994	5174
829.134	5117
829.273	5181
829.412	5128
829.551	5143
829.69	5201
829.829	5265
829.968	5357
830.107	5223
830.246	5261
830.385	5151
830.524	5094
830.663	5037
830.802	4972
830.941	4877
831.08	4896
831.219	4938
831.357	4980
831.496	5136
831.635	4953
831.774	4873
831.913	4824
832.051	4641
832.19	4759
832.329	4797
832.467	4694
832.606	4653
832.744	4710
832.883	4717
833.022	4702
833.16	4835
833.299	4843
833.437	4835
833.576	4847
833.714	4877
833.852	4892
833.991	4873
834.129	4949
834.267	4942
834.406	4911
834.544	4930
834.682	4949
834.821	4991
834.959	5193
835.097	5006
835.235	5151
835.373	5060
835.511	5075
835.65	5022
835.788	5014
835.926	4915
836.064	4873
836.202	4946
836.34	5128
836.478	5204
836.615	5121
836.753	5193
836.891	5277
837.029	5208
837.167	5239
837.305	5121
837.443	5201
837.58	5086
837.718	5208
837.856	5235
837.993	5147
838.131	5174
838.269	5227
838.406	5201
838.544	5178
838.681	5022
838.819	5033
838.956	4919
839.094	4915
839.231	4972
839.369	5067
839.506	5372
839.643	5265
839.781	5033
839.918	4968
840.055	5121
840.193	5094
840.33	5067
840.467	5124
840.604	5212
840.742	5474
840.879	5075
841.016	5086
841.153	5151
841.29	5334
841.427	5307
841.564	5345
841.701	5337
841.838	5284
841.975	5208
842.112	5269
842.249	5083
842.385	5113
842.522	5345
842.659	5155
842.796	5159
842.933	5189
843.069	5121
843.206	5121
843.343	5334
843.479	5231
843.616	5242
843.752	4999
843.889	4961
844.025	5189
844.162	5037
844.298	5208
844.435	5094
844.571	5037
844.708	5204
844.844	5315
844.98	5334
845.117	5258
845.253	5098
845.389	5094
845.525	5159
845.661	5113
845.798	5037
845.934	5113
846.07	4995
846.206	5204
846.342	5292
846.478	5235
846.614	4976
846.75	4930
846.886	4915
847.022	5136
847.158	5018
847.294	5083
847.429	5083
847.565	5056
847.701	5299
847.837	4854
847.972	4793
848.108	4987
848.244	4953
848.379	4729
848.515	4706
848.65	4656
848.786	4721
848.921	4759
849.057	4854
849.192	4896
849.328	4786
849.463	4835
849.598	4809
849.734	4744
849.869	4683
850.004	4596
850.14	4653
850.275	4615
850.41	4550
850.545	4577
850.68	4603
850.815	4603
850.95	4653
851.085	4774
851.22	4717
851.355	4649
851.49	4618
851.625	4634
851.76	4615
851.895	4599
852.03	4478
852.165	4626
852.299	4733
852.434	4767
852.569	4767
852.703	4755
852.838	4835
852.973	4930
853.107	4934
853.242	4710
853.376	4637
853.511	4565
853.645	4626
853.78	4831
853.914	4736
854.048	4668
854.183	4645
854.317	4683
854.451	4828
854.585	4637
854.72	4637
854.854	4721
854.988	4615
855.122	4630
855.256	4493
855.39	4664
855.524	4771
855.658	4679
855.792	4660
855.926	4702
856.06	4801
856.194	4839
856.327	4641
856.461	4626
856.595	4603
856.729	4630
856.862	4782
856.996	4664
857.13	4706
857.263	4786
857.397	4797
857.53	4634
857.664	4729
857.797	4778
857.931	4736
858.064	4664
858.197	4736
858.331	4672
858.464	4615
858.597	4485
858.731	4592
858.864	4637
858.997	4580
859.13	4672
859.263	4664
859.396	4679
859.529	4584
859.662	4546
859.795	4558
859.928	4622
860.061	4755
860.194	4771
860.327	4626
860.46	4550
860.592	4687
860.725	4694
860.858	4717
860.99	4561
861.123	4474
861.256	4538
861.388	4599
861.521	5345
861.653	4474
861.786	4432
861.918	4489
862.05	4497
862.183	4565
862.315	4603
862.447	4618
862.58	4558
862.712	4386
862.844	4318
862.976	4462
863.108	4523
863.24	4748
863.372	4303
863.504	4436
863.636	4348
863.768	4512
863.9	4459
864.032	4367
864.164	4443
864.296	4516
864.428	4523
864.559	4554
864.691	4538
864.823	4527
864.954	4485
865.086	4493
865.217	4447
865.349	4409
865.48	4436
865.612	4542
865.743	4649
865.875	4447
866.006	4432
866.137	4481
866.269	4421
866.4	4428
866.531	4398
866.662	4421
866.793	4398
866.924	4424
867.055	4497
867.186	4470
867.317	4409
867.448	4360
867.579	4402
867.71	4341
867.841	4329
867.972	4447
868.103	4421
868.233	4474
868.364	4447
868.495	4470
868.625	4645
868.756	4858
868.886	4569
869.017	4683
869.147	4763
869.278	4778
869.408	4672
869.539	4641
869.669	4710
869.799	4664
869.929	4771
870.06	4717
870.19	4930
870.32	4873
870.45	4934
870.58	5022
870.71	5128
870.84	5136
870.97	5006
871.1	4900
871.23	5124
871.36	5155
871.489	5014
871.619	5113
871.749	5136
871.879	5109
872.008	5166
872.138	5010
872.267	4991
872.397	4828
872.526	4786
872.656	4767
872.785	4854
872.915	4961
873.044	5025
873.173	4881
873.303	5018
873.432	4942
873.561	5018
873.69	4854
873.819	4862
873.948	4889
874.077	4828
874.206	4691
874.335	4843
874.464	4930
874.593	5079
874.722	4919
874.851	5136
874.979	5090
875.108	5003
875.237	4957
875.365	4923
875.494	4877
875.623	4999
875.751	4843
875.88	4889
876.008	4934
876.136	5124
876.265	5220
876.393	5303
876.521	5261
876.65	5231
876.778	5147
876.906	5052
877.034	4999
877.162	5052
877.29	4984
877.418	5022
877.546	5071
877.674	5083
877.802	5041
877.93	4976
878.058	4934
878.185	4873
878.313	4991
878.441	4968
878.568	4778
878.696	4839
878.824	4938
878.951	4991
879.079	5159
879.206	5280
879.333	5094
879.461	4953
879.588	4987
879.715	5094
879.842	5208
879.97	5003
880.097	4733
880.224	4729
880.351	4831
880.478	4862
880.605	4809
880.732	4729
880.859	5109
880.986	4889
881.112	4923
881.239	4805
881.366	4675
881.493	4599
881.619	4519
881.746	4634
881.872	4672
881.999	4637
882.125	4664
882.252	4755
882.378	4858
882.505	4995
882.631	4771
882.757	4679
882.883	4706
883.01	4736
883.136	4645
883.262	4607
883.388	4683
883.514	4771
883.64	4805
883.766	4809
883.892	4622
884.018	4721
884.143	4877
884.269	5048
884.395	4641
884.52	4618
884.646	4626
884.772	4550
884.897	4565
885.023	4672
885.148	4744
885.274	4850
885.399	4828
885.524	4698
885.65	4710
885.775	4778
885.9	4717
886.025	4858
886.15	4797
886.275	4733
886.4	4641
886.525	4714
886.65	4698
886.775	4721
886.9	4942
887.025	5045
887.149	4816
887.274	4637
887.399	4599
887.523	4615
887.648	4569
887.773	4596
887.897	4797
888.021	4786
888.146	4656
888.27	4809
888.395	4908
888.519	4839
888.643	4748
888.767	4847
888.891	4618
889.015	4630
889.139	4618
889.263	4580
889.387	4714
889.511	4873
889.635	4729
889.759	4637
889.883	4664
890.006	4717
890.13	4816
890.254	4596
890.377	4710
890.501	4535
890.624	4523
890.748	4603
890.871	4531
890.995	4432
891.118	4383
891.241	4489
891.364	4493
891.488	4664
891.611	4470
891.734	4535
891.857	4626
891.98	4542
892.103	4660
892.226	4592
892.349	4455
892.471	4447
892.594	4538
892.717	4554
892.839	4580
892.962	4573
893.085	4702
893.207	4641
893.33	4493
893.452	4569
893.575	4668
893.697	4592
893.819	4843
893.941	4816
894.064	4782
894.186	4580
894.308	4588
894.43	4675
894.552	4767
894.674	4736
894.796	4561
894.918	4622
895.04	4558
895.161	4702
895.283	4694
895.405	4569
895.526	4592
895.648	4725
895.769	4698
895.891	4786
896.012	4717
896.134	4736
896.255	4679
896.376	4626
896.498	4588
896.619	4679
896.74	4588
896.861	4645
896.982	4923
897.103	5071
897.224	4812
897.345	4736
897.466	4672
897.587	4710
897.708	4850
897.828	4744
897.949	4710
898.07	4538
898.19	4634
898.311	4801
898.431	4664
898.552	4736
898.672	4843
898.792	4782
898.913	4736
899.033	4622
899.153	4481
899.273	4447
899.393	4478
899.513	4493
899.633	4504
899.753	4508
899.873	4519
899.993	4611
900.113	4516
900.232	4615
900.352	4558
900.472	4478
900.591	4421
900.711	4493
900.83	4478
900.95	4603
901.069	4683
901.189	4546
901.308	4333
901.427	4341
901.546	4379
901.665	4474
901.784	4481
901.904	4379
902.023	4348
902.141	4211
902.26	4154
902.379	4352
902.498	4253
902.617	4196
902.735	4318
902.854	4352
902.973	4386
903.091	4211
903.21	4219
903.328	4314
903.446	4284
903.565	4242
903.683	4371
903.801	4253
903.919	4386
904.038	4371
904.156	4299
904.274	4386
904.392	4383
904.51	4379
904.627	4447
904.745	4542
904.863	4630
904.981	4367
905.098	4310
905.216	4363
905.334	4402
905.451	4451
905.569	4455
905.686	4500
905.803	4596
905.921	4409
906.038	4516
906.155	4493
906.272	4367
906.389	4481
906.506	4303
906.623	4379
906.74	4402
906.857	4325
906.974	4367
907.091	4500
907.208	4694
907.324	4584
907.441	4481
907.557	4394
907.674	4356
907.79	4299
907.907	4341
908.023	4451
908.139	4451
908.256	4474
908.372	4451
908.488	4436
908.604	4360
908.72	4314
908.836	4344
908.952	4314
909.068	4428
909.184	4516
909.3	4428
909.415	4630
909.531	4523
909.647	4341
909.762	4390
909.878	4341
909.993	4451
910.108	4390
910.224	4447
910.339	4523
910.454	4379
910.57	4322
910.685	4329
910.8	4637
910.915	4603
911.03	4478
911.145	4284
911.259	4322
911.374	4360
911.489	4322
911.604	4276
911.718	4192
911.833	4253
911.947	4105
912.062	4044
912.176	4215
912.291	4272
912.405	4287
912.519	4519
912.633	4500
912.748	4371
912.862	4337
912.976	4230
913.09	4097
913.204	4207
913.318	4287
913.431	4413
913.545	4394
913.659	4481
913.772	4379
913.886	4291
914	4276
914.113	4413
914.226	4409
914.34	4466
914.453	4227
914.566	4500
914.68	4291
914.793	4356
914.906	4234
915.019	4147
915.132	4105
915.245	4242
915.358	4280
915.47	4249
915.583	4303
915.696	4386
915.809	4443
915.921	4390
916.034	4314
916.146	4325
916.259	4306
916.371	4451
916.483	4386
916.595	4314
916.708	4363
916.82	4352
916.932	4386
917.044	4360
917.156	4428
917.268	4219
917.38	4325
917.491	4325
917.603	4402
917.715	4447
917.826	4485
917.938	4367
918.049	4230
918.161	4462
918.272	4588
918.384	4580
918.495	4474
918.606	4337
918.717	4253
918.828	4409
918.939	4424
919.05	4310
919.161	4356
919.272	4173
919.383	4242
919.494	4474
919.604	4668
919.715	4451
919.826	4375
919.936	4459
920.047	4599
920.157	4497
920.267	4767
920.378	4573
920.488	4519
920.598	4767
920.708	4934
920.818	4801
920.928	4786
921.038	4980
921.148	4968
921.258	4675
921.368	4542
921.477	4500
921.587	4500
921.697	4428
921.806	4565
921.916	4424
922.025	4291
922.134	4303
922.244	4306
922.353	4356
922.462	4207
922.571	4169
922.68	4021
922.789	3998
922.898	4086
923.007	4055
923.116	4116
923.224	4109
923.333	4135
923.442	4055
923.55	4013
923.659	4067
923.767	4128
923.876	4029
923.984	4131
924.092	4055
924.201	4139
924.309	4124
924.417	4166
924.525	4128
924.633	4135
924.741	5102
924.849	3987
924.956	4185
925.064	3945
925.172	3949
925.279	3960
925.387	4067
925.494	4082
925.602	4249
925.709	4238
925.816	4093
925.924	4192
926.031	4207
926.138	4173
926.245	4230
926.352	4150
926.459	4257
926.566	4303
926.673	4227
926.779	4093
926.886	4116
926.993	3991
927.099	3983
927.206	3964
927.312	4002
927.419	4128
927.525	4055
927.631	4074
927.737	4013
927.843	3994
927.95	3903
928.056	3945
928.162	4010
928.267	4055
928.373	4687
928.479	4135
928.585	3880
928.69	4040
928.796	4105
928.901	3983
929.007	3896
929.112	4093
929.218	4006
929.323	4006
929.428	3918
929.533	4131
929.638	3941
929.743	3994
929.848	4067
929.953	4013
930.058	3975
930.163	3861
930.267	3869
930.372	3998
930.477	3857
930.581	4135
930.685	3998
930.79	3869
930.894	3941
930.998	3907
931.103	4082
931.207	3713
931.311	3747
931.415	3755
931.519	3538
931.623	3576
