Data from test_V78500241_2043.txt Node
Date: Fri Mar 25 17:03:12 CST 2022
User: usil
Spectrometer: V785-0024
Trigger mode: 0
Integration Time (sec): 4.000000E-1
Scans to average: 1
Nonlinearity correction enabled: false
Boxcar width: 0
Storing dark spectrum: false
XAxis mode: Wavelengths
Number of Pixels in Spectrum: 1024
>>>>>Begin Spectral Data<<<<<
801.071	8001
801.214	7928
801.356	7852
801.499	7898
801.641	7784
801.783	7837
801.926	8035
802.068	7944
802.211	7974
802.353	8001
802.496	7883
802.638	7875
802.78	7887
802.923	7928
803.065	7830
803.208	7845
803.35	7955
803.492	8050
803.635	8172
803.777	8062
803.919	8145
804.061	8377
804.204	8221
804.346	8081
804.488	7917
804.63	8065
804.773	7982
804.915	8088
805.057	8263
805.199	8176
805.341	8149
805.483	8248
805.626	8149
805.768	8195
805.91	8233
806.052	8187
806.194	8107
806.336	8370
806.478	8107
806.62	8020
806.762	8138
806.904	8347
807.046	8457
807.188	8339
807.33	8313
807.472	8336
807.614	8218
807.756	8164
807.898	8027
808.04	7856
808.182	7921
808.324	7913
808.465	7913
808.607	8054
808.749	8157
808.891	8218
809.033	8233
809.174	8164
809.316	8084
809.458	8107
809.6	8050
809.741	8043
809.883	8031
810.025	8058
810.166	8065
810.308	8046
810.45	7955
810.591	7875
810.733	7719
810.875	7704
811.016	7480
811.158	7495
811.299	7601
811.441	7715
811.582	7674
811.724	7605
811.865	7472
812.007	7582
812.148	7556
812.29	7590
812.431	7719
812.573	7795
812.714	7982
812.855	8149
812.997	8172
813.138	8279
813.279	8115
813.421	8043
813.562	7947
813.703	7811
813.845	7727
813.986	7373
814.127	7255
814.268	7187
814.41	7209
814.551	7187
814.692	7228
814.833	7133
814.974	7050
815.115	7072
815.256	6947
815.397	6928
815.539	6890
815.68	6730
815.821	6806
815.962	6806
816.103	6779
816.244	6677
816.385	6616
816.526	6540
816.666	6498
816.807	6266
816.948	6414
817.089	6426
817.23	6414
817.371	6331
817.512	6384
817.653	6369
817.793	6315
817.934	6403
818.075	6456
818.216	6422
818.356	6433
818.497	6205
818.638	6114
818.778	6178
818.919	6121
819.06	6102
819.2	6342
819.341	6296
819.481	6380
819.622	6547
819.762	6760
819.903	6673
820.043	6578
820.184	6620
820.324	6525
820.465	6700
820.605	6677
820.746	6627
820.886	6547
821.026	6688
821.167	6734
821.307	6764
821.447	6749
821.588	6669
821.728	6563
821.868	6479
822.008	6254
822.149	6365
822.289	6331
822.429	6175
822.569	6098
822.709	6148
822.849	5908
822.99	5882
823.13	5954
823.27	5961
823.41	5844
823.55	5824
823.69	5752
823.83	5786
823.97	5707
824.11	5539
824.25	5505
824.389	5596
824.529	5619
824.669	5547
824.809	5649
824.949	5668
825.089	5623
825.228	5551
825.368	5436
825.508	5387
825.648	5360
825.787	5353
825.927	5391
826.067	5292
826.206	5326
826.346	5383
826.485	5467
826.625	5463
826.765	5619
826.904	5452
827.044	5303
827.183	5212
827.323	5155
827.462	5277
827.601	5181
827.741	5242
827.88	5280
828.02	5181
828.159	5231
828.298	5315
828.437	5482
828.577	5318
828.716	5509
828.855	5334
828.994	5178
829.134	5185
829.273	5193
829.412	5201
829.551	5132
829.69	5151
829.829	5273
829.968	5372
830.107	5258
830.246	5273
830.385	5185
830.524	5189
830.663	5102
830.802	4995
830.941	4862
831.08	4972
831.219	5018
831.357	4991
831.496	5181
831.635	4919
831.774	4915
831.913	4870
832.051	4809
832.19	4771
832.329	4839
832.467	4744
832.606	4653
832.744	4831
832.883	4790
833.022	4748
833.16	4786
833.299	4873
833.437	4889
833.576	4873
833.714	4919
833.852	4923
833.991	4904
834.129	4972
834.267	5003
834.406	4938
834.544	4995
834.682	5056
834.821	5037
834.959	5166
835.097	5018
835.235	5140
835.373	5136
835.511	5117
835.65	5105
835.788	5094
835.926	4946
836.064	4915
836.202	4938
836.34	5235
836.478	5235
836.615	5136
836.753	5254
836.891	5288
837.029	5269
837.167	5185
837.305	5193
837.443	5212
837.58	5178
837.718	5261
837.856	5239
837.993	5212
838.131	5299
838.269	5239
838.406	5223
838.544	5212
838.681	5060
838.819	4999
838.956	4870
839.094	4900
839.231	4995
839.369	5113
839.506	5474
839.643	5303
839.781	5090
839.918	5045
840.055	5121
840.193	5155
840.33	5128
840.467	5181
840.604	5170
840.742	5482
840.879	5124
841.016	5075
841.153	5178
841.29	5387
841.427	5391
841.564	5330
841.701	5322
841.838	5326
841.975	5220
842.112	5277
842.249	5140
842.385	5155
842.522	5353
842.659	5162
842.796	5159
842.933	5254
843.069	5197
843.206	5136
843.343	5326
843.479	5220
843.616	5296
843.752	5071
843.889	5025
844.025	5216
844.162	5037
844.298	5227
844.435	5086
844.571	5060
844.708	5189
844.844	5303
844.98	5391
845.117	5292
845.253	5212
845.389	5090
845.525	5151
845.661	5201
845.798	5052
845.934	5121
846.07	5071
846.206	5181
846.342	5284
846.478	5231
846.614	5003
846.75	4976
846.886	4934
847.022	5166
847.158	5041
847.294	5098
847.429	5102
847.565	5083
847.701	5315
847.837	4904
847.972	4828
848.108	5010
848.244	4961
848.379	4786
848.515	4714
848.65	4729
848.786	4797
848.921	4759
849.057	4870
849.192	4904
849.328	4805
849.463	4839
849.598	4805
849.734	4778
849.869	4759
850.004	4683
850.14	4691
850.275	4653
850.41	4565
850.545	4603
850.68	4622
850.815	4656
850.95	4626
851.085	4858
851.22	4752
851.355	4710
851.49	4672
851.625	4622
851.76	4668
851.895	4569
852.03	4554
852.165	4656
852.299	4797
852.434	4820
852.569	4793
852.703	4816
852.838	4850
852.973	5006
853.107	4911
853.242	4755
853.376	4702
853.511	4573
853.645	4694
853.78	4839
853.914	4679
854.048	4740
854.183	4668
854.317	4748
854.451	4896
854.585	4706
854.72	4664
854.854	4786
854.988	4592
855.122	4649
855.256	4519
855.39	4672
855.524	4812
855.658	4752
855.792	4710
855.926	4809
856.06	4816
856.194	4831
856.327	4733
856.461	4653
856.595	4683
856.729	4664
856.862	4790
856.996	4694
857.13	4729
857.263	4778
857.397	4835
857.53	4706
857.664	4767
857.797	4809
857.931	4816
858.064	4755
858.197	4801
858.331	4672
858.464	4596
858.597	4542
858.731	4615
858.864	4641
858.997	4634
859.13	4687
859.263	4702
859.396	4721
859.529	4622
859.662	4634
859.795	4569
859.928	4641
860.061	4755
860.194	4790
860.327	4653
860.46	4603
860.592	4721
860.725	4740
860.858	4748
860.99	4603
861.123	4565
861.256	4546
861.388	4622
861.521	5315
861.653	4462
861.786	4527
861.918	4481
862.05	4527
862.183	4592
862.315	4645
862.447	4679
862.58	4554
862.712	4436
862.844	4352
862.976	4538
863.108	4474
863.24	4858
863.372	4409
863.504	4451
863.636	4436
863.768	4478
863.9	4489
864.032	4363
864.164	4451
864.296	4470
864.428	4573
864.559	4508
864.691	4558
864.823	4519
864.954	4516
865.086	4523
865.217	4504
865.349	4432
865.48	4508
865.612	4470
865.743	4653
865.875	4459
866.006	4436
866.137	4462
866.269	4489
866.4	4459
866.531	4383
866.662	4443
866.793	4436
866.924	4421
867.055	4478
867.186	4455
867.317	4470
867.448	4390
867.579	4413
867.71	4413
867.841	4386
867.972	4459
868.103	4485
868.233	4470
868.364	4489
868.495	4527
868.625	4660
868.756	4771
868.886	4558
869.017	4664
869.147	4763
869.278	4805
869.408	4634
869.539	4683
869.669	4729
869.799	4611
869.929	4774
870.06	4778
870.19	5003
870.32	4938
870.45	4953
870.58	5041
870.71	5140
870.84	5098
870.97	4957
871.1	4972
871.23	5151
871.36	5132
871.489	5105
871.619	5124
871.749	5143
871.879	5136
872.008	5124
872.138	5071
872.267	5006
872.397	4908
872.526	4881
872.656	4771
872.785	4790
872.915	4938
873.044	5045
873.173	5006
873.303	4991
873.432	4946
873.561	4987
873.69	4885
873.819	4908
873.948	4881
874.077	4839
874.206	4755
874.335	4843
874.464	4949
874.593	5113
874.722	4984
874.851	5132
874.979	5048
875.108	5037
875.237	4946
875.365	4881
875.494	4946
875.623	5014
875.751	4870
875.88	4934
876.008	5045
876.136	5060
876.265	5174
876.393	5364
876.521	5254
876.65	5258
876.778	5201
876.906	5121
877.034	5071
877.162	5090
877.29	5010
877.418	5071
877.546	5003
877.674	5079
877.802	5098
877.93	5010
878.058	4987
878.185	4923
878.313	4938
878.441	4949
878.568	4820
878.696	4889
878.824	4987
878.951	4942
879.079	5079
879.206	5326
879.333	5098
879.461	5048
879.588	5014
879.715	5102
879.842	5250
879.97	5037
880.097	4790
880.224	4778
880.351	4828
880.478	4889
880.605	4828
880.732	4812
880.859	5102
880.986	4908
881.112	4934
881.239	4805
881.366	4672
881.493	4672
881.619	4596
881.746	4672
881.872	4653
881.999	4683
882.125	4702
882.252	4793
882.378	4854
882.505	4976
882.631	4839
882.757	4683
882.883	4744
883.01	4725
883.136	4717
883.262	4630
883.388	4607
883.514	4790
883.64	4870
883.766	4873
883.892	4656
884.018	4744
884.143	4870
884.269	5041
884.395	4675
884.52	4611
884.646	4679
884.772	4596
884.897	4573
885.023	4714
885.148	4854
885.274	4835
885.399	4790
885.524	4675
885.65	4706
885.775	4805
885.9	4767
886.025	4877
886.15	4828
886.275	4755
886.4	4630
886.525	4736
886.65	4706
886.775	4714
886.9	4911
887.025	5083
887.149	4862
887.274	4672
887.399	4573
887.523	4645
887.648	4577
887.773	4565
887.897	4778
888.021	4835
888.146	4679
888.27	4805
888.395	4904
888.519	4812
888.643	4824
888.767	4793
888.891	4683
889.015	4580
889.139	4679
889.263	4599
889.387	4763
889.511	4850
889.635	4790
889.759	4656
889.883	4603
890.006	4736
890.13	4824
890.254	4611
890.377	4675
890.501	4519
890.624	4565
890.748	4637
890.871	4554
890.995	4466
891.118	4432
891.241	4542
891.364	4580
891.488	4664
891.611	4531
891.734	4508
891.857	4653
891.98	4565
892.103	4687
892.226	4580
892.349	4527
892.471	4436
892.594	4615
892.717	4615
892.839	4558
892.962	4641
893.085	4694
893.207	4599
893.33	4466
893.452	4500
893.575	4668
893.697	4558
893.819	4797
893.941	4866
894.064	4809
894.186	4588
894.308	4577
894.43	4717
894.552	4866
894.674	4778
894.796	4512
894.918	4573
895.04	4573
895.161	4672
895.283	4653
895.405	4569
895.526	4584
895.648	4755
895.769	4755
895.891	4698
896.012	4782
896.134	4748
896.255	4675
896.376	4596
896.498	4618
896.619	4691
896.74	4599
896.861	4634
896.982	4934
897.103	5105
897.224	4809
897.345	4706
897.466	4691
897.587	4679
897.708	4843
897.828	4774
897.949	4710
898.07	4554
898.19	4618
898.311	4843
898.431	4645
898.552	4740
898.672	4828
898.792	4805
898.913	4752
899.033	4626
899.153	4535
899.273	4402
899.393	4516
899.513	4508
899.633	4580
899.753	4554
899.873	4497
899.993	4561
900.113	4500
900.232	4573
900.352	4531
900.472	4474
900.591	4394
900.711	4519
900.83	4417
900.95	4641
901.069	4725
901.189	4538
901.308	4417
901.427	4329
901.546	4375
901.665	4466
901.784	4535
901.904	4409
902.023	4337
902.141	4166
902.26	4192
902.379	4284
902.498	4230
902.617	4234
902.735	4409
902.854	4428
902.973	4375
903.091	4173
903.21	4230
903.328	4295
903.446	4246
903.565	4272
903.683	4310
903.801	4299
903.919	4402
904.038	4443
904.156	4322
904.274	4474
904.392	4409
904.51	4451
904.627	4531
904.745	4596
904.863	4672
904.981	4379
905.098	4352
905.216	4417
905.334	4421
905.451	4413
905.569	4375
905.686	4558
905.803	4592
905.921	4421
906.038	4535
906.155	4508
906.272	4394
906.389	4432
906.506	4379
906.623	4383
906.74	4356
906.857	4337
906.974	4375
907.091	4542
907.208	4660
907.324	4584
907.441	4535
907.557	4306
907.674	4363
907.79	4303
907.907	4360
908.023	4459
908.139	4485
908.256	4428
908.372	4440
908.488	4489
908.604	4409
908.72	4318
908.836	4386
908.952	4371
909.068	4424
909.184	4542
909.3	4462
909.415	4580
909.531	4538
909.647	4390
909.762	4390
909.878	4310
909.993	4421
910.108	4428
910.224	4447
910.339	4440
910.454	4440
910.57	4386
910.685	4333
910.8	4615
910.915	4584
911.03	4489
911.145	4360
911.259	4337
911.374	4390
911.489	4299
911.604	4318
911.718	4128
911.833	4188
911.947	4093
912.062	4078
912.176	4204
912.291	4230
912.405	4268
912.519	4493
912.633	4569
912.748	4390
912.862	4333
912.976	4234
913.09	4105
913.204	4223
913.318	4265
913.431	4390
913.545	4375
913.659	4451
913.772	4344
913.886	4219
914	4234
914.113	4348
914.226	4409
914.34	4352
914.453	4276
914.566	4428
914.68	4322
914.793	4280
914.906	4131
915.019	4143
915.132	4074
915.245	4177
915.358	4173
915.47	4234
915.583	4295
915.696	4333
915.809	4417
915.921	4386
916.034	4230
916.146	4242
916.259	4261
916.371	4379
916.483	4375
916.595	4253
916.708	4310
916.82	4341
916.932	4337
917.044	4352
917.156	4333
917.268	4249
917.38	4280
917.491	4276
917.603	4322
917.715	4462
917.826	4451
917.938	4360
918.049	4253
918.161	4405
918.272	4535
918.384	4512
918.495	4542
918.606	4257
918.717	4215
918.828	4344
918.939	4360
919.05	4242
919.161	4272
919.272	4120
919.383	4227
919.494	4451
919.604	4599
919.715	4436
919.826	4390
919.936	4390
920.047	4516
920.157	4546
920.267	4721
920.378	4523
920.488	4504
920.598	4725
920.708	4892
920.818	4774
920.928	4809
921.038	4927
921.148	4908
921.258	4584
921.368	4538
921.477	4493
921.587	4466
921.697	4348
921.806	4554
921.916	4424
922.025	4284
922.134	4287
922.244	4284
922.353	4363
922.462	4185
922.571	4109
922.68	3998
922.789	4006
922.898	4025
923.007	4029
923.116	4086
923.224	4071
923.333	4021
923.442	3968
923.55	3994
923.659	4086
923.767	4097
923.876	4048
923.984	4090
924.092	4010
924.201	4067
924.309	4101
924.417	4112
924.525	4128
924.633	4086
924.741	5083
924.849	3899
924.956	4131
925.064	3975
925.172	3899
925.279	3979
925.387	4082
925.494	4051
925.602	4246
925.709	4192
925.816	4036
925.924	4086
926.031	4238
926.138	4135
926.245	4173
926.352	4116
926.459	4204
926.566	4310
926.673	4143
926.779	4097
926.886	4093
926.993	3994
927.099	3960
927.206	3934
927.312	3915
927.419	4051
927.525	4040
927.631	4048
927.737	3960
927.843	3941
927.95	3876
928.056	3945
928.162	4036
928.267	4090
928.373	4580
928.479	4131
928.585	3873
928.69	4036
928.796	4082
928.901	3972
929.007	3892
929.112	3987
929.218	3987
929.323	3960
929.428	3960
929.533	4105
929.638	3949
929.743	4025
929.848	4040
929.953	4029
930.058	3949
930.163	3808
930.267	3819
930.372	3960
930.477	3816
930.581	4131
930.685	3987
930.79	3831
930.894	3850
930.998	3835
931.103	4025
931.207	3709
931.311	3698
931.415	3667
931.519	3496
931.623	3595
