Data from test_V78500241_1016.txt Node
Date: Fri Mar 25 16:56:04 CST 2022
User: usil
Spectrometer: V785-0024
Trigger mode: 0
Integration Time (sec): 4.000000E-1
Scans to average: 1
Nonlinearity correction enabled: false
Boxcar width: 0
Storing dark spectrum: false
XAxis mode: Wavelengths
Number of Pixels in Spectrum: 1024
>>>>>Begin Spectral Data<<<<<
801.071	8062
801.214	8073
801.356	7902
801.499	7830
801.641	7822
801.783	7822
801.926	7993
802.068	7868
802.211	7986
802.353	7978
802.496	7803
802.638	7856
802.78	7902
802.923	7970
803.065	7944
803.208	7909
803.35	8031
803.492	8107
803.635	8176
803.777	8020
803.919	8157
804.061	8454
804.204	8187
804.346	8073
804.488	8046
804.63	8119
804.773	8031
804.915	8142
805.057	8275
805.199	8202
805.341	8191
805.483	8252
805.626	8248
805.768	8081
805.91	8187
806.052	8256
806.194	8153
806.336	8263
806.478	8088
806.62	8039
806.762	8107
806.904	8256
807.046	8522
807.188	8324
807.33	8320
807.472	8290
807.614	8130
807.756	8069
807.898	8058
808.04	7894
808.182	7925
808.324	7913
808.465	7947
808.607	8012
808.749	8111
808.891	8233
809.033	8328
809.174	8229
809.316	8138
809.458	8008
809.6	7989
809.741	7978
809.883	8043
810.025	8115
810.166	8100
810.308	8008
810.45	8035
810.591	7849
810.733	7746
810.875	7655
811.016	7540
811.158	7518
811.299	7544
811.441	7677
811.582	7715
811.724	7639
811.865	7510
812.007	7563
812.148	7586
812.29	7613
812.431	7734
812.573	7871
812.714	7951
812.855	8123
812.997	8153
813.138	8351
813.279	8187
813.421	8130
813.562	7974
813.703	7822
813.845	7742
813.986	7434
814.127	7289
814.268	7206
814.41	7187
814.551	7080
814.692	7149
814.833	7080
814.974	7080
815.115	7065
815.256	6958
815.397	6954
815.539	6947
815.68	6734
815.821	6772
815.962	6806
816.103	6802
816.244	6768
816.385	6681
816.526	6623
816.666	6479
816.807	6319
816.948	6418
817.089	6506
817.23	6464
817.371	6399
817.512	6399
817.653	6376
817.793	6388
817.934	6395
818.075	6410
818.216	6407
818.356	6429
818.497	6220
818.638	6098
818.778	6136
818.919	6148
819.06	6205
819.2	6281
819.341	6338
819.481	6399
819.622	6536
819.762	6703
819.903	6665
820.043	6593
820.184	6574
820.324	6585
820.465	6696
820.605	6639
820.746	6585
820.886	6483
821.026	6673
821.167	6662
821.307	6760
821.447	6783
821.588	6692
821.728	6498
821.868	6544
822.008	6308
822.149	6361
822.289	6372
822.429	6125
822.569	6049
822.709	6117
822.849	5889
822.99	5927
823.13	5988
823.27	5912
823.41	5760
823.55	5783
823.69	5733
823.83	5866
823.97	5718
824.11	5478
824.25	5520
824.389	5581
824.529	5581
824.669	5554
824.809	5642
824.949	5608
825.089	5562
825.228	5539
825.368	5383
825.508	5353
825.648	5334
825.787	5372
825.927	5425
826.067	5269
826.206	5239
826.346	5349
826.485	5349
826.625	5387
826.765	5604
826.904	5471
827.044	5220
827.183	5174
827.323	5094
827.462	5254
827.601	5201
827.741	5128
827.88	5231
828.02	5109
828.159	5258
828.298	5288
828.437	5357
828.577	5288
828.716	5524
828.855	5345
828.994	5147
829.134	5132
829.273	5242
829.412	5166
829.551	5128
829.69	5193
829.829	5216
829.968	5364
830.107	5288
830.246	5235
830.385	5143
830.524	5166
830.663	5071
830.802	4984
830.941	4900
831.08	4835
831.219	4995
831.357	4953
831.496	5174
831.635	4923
831.774	4828
831.913	4866
832.051	4729
832.19	4729
832.329	4809
832.467	4683
832.606	4607
832.744	4736
832.883	4748
833.022	4725
833.16	4820
833.299	4858
833.437	4805
833.576	4831
833.714	4866
833.852	4870
833.991	4873
834.129	4961
834.267	4968
834.406	4930
834.544	4987
834.682	4938
834.821	4949
834.959	5105
835.097	4991
835.235	5113
835.373	5109
835.511	5113
835.65	5048
835.788	5029
835.926	4904
836.064	4839
836.202	4866
836.34	5178
836.478	5231
836.615	5090
836.753	5235
836.891	5296
837.029	5204
837.167	5181
837.305	5174
837.443	5178
837.58	5041
837.718	5223
837.856	5155
837.993	5140
838.131	5216
838.269	5201
838.406	5189
838.544	5162
838.681	5098
838.819	5029
838.956	4904
839.094	4877
839.231	4995
839.369	5140
839.506	5395
839.643	5250
839.781	5056
839.918	4976
840.055	5105
840.193	5086
840.33	5159
840.467	5159
840.604	5212
840.742	5444
840.879	5075
841.016	5079
841.153	5113
841.29	5360
841.427	5360
841.564	5322
841.701	5383
841.838	5265
841.975	5277
842.112	5235
842.249	5185
842.385	5071
842.522	5288
842.659	5197
842.796	5162
842.933	5174
843.069	5178
843.206	5166
843.343	5303
843.479	5223
843.616	5258
843.752	5010
843.889	5022
844.025	5193
844.162	5010
844.298	5128
844.435	5025
844.571	5083
844.708	5174
844.844	5330
844.98	5311
845.117	5277
845.253	5136
845.389	5098
845.525	5124
845.661	5128
845.798	5052
845.934	5189
846.07	5018
846.206	5155
846.342	5311
846.478	5147
846.614	5003
846.75	4991
846.886	4908
847.022	5090
847.158	4991
847.294	5071
847.429	5075
847.565	5083
847.701	5296
847.837	4801
847.972	4831
848.108	4972
848.244	4900
848.379	4790
848.515	4736
848.65	4698
848.786	4721
848.921	4759
849.057	4870
849.192	4946
849.328	4801
849.463	4801
849.598	4812
849.734	4771
849.869	4645
850.004	4664
850.14	4679
850.275	4535
850.41	4489
850.545	4588
850.68	4615
850.815	4691
850.95	4565
851.085	4847
851.22	4763
851.355	4653
851.49	4630
851.625	4596
851.76	4637
851.895	4538
852.03	4504
852.165	4691
852.299	4691
852.434	4782
852.569	4733
852.703	4763
852.838	4828
852.973	4938
853.107	4915
853.242	4717
853.376	4641
853.511	4546
853.645	4653
853.78	4774
853.914	4660
854.048	4645
854.183	4626
854.317	4714
854.451	4820
854.585	4687
854.72	4615
854.854	4725
854.988	4615
855.122	4618
855.256	4508
855.39	4649
855.524	4717
855.658	4774
855.792	4687
855.926	4740
856.06	4725
856.194	4767
856.327	4679
856.461	4618
856.595	4660
856.729	4611
856.862	4717
856.996	4668
857.13	4736
857.263	4759
857.397	4820
857.53	4641
857.664	4714
857.797	4782
857.931	4767
858.064	4649
858.197	4694
858.331	4622
858.464	4603
858.597	4485
858.731	4607
858.864	4615
858.997	4573
859.13	4622
859.263	4649
859.396	4698
859.529	4550
859.662	4596
859.795	4596
859.928	4611
860.061	4759
860.194	4717
860.327	4603
860.46	4538
860.592	4683
860.725	4714
860.858	4714
860.99	4584
861.123	4531
861.256	4478
861.388	4630
861.521	5261
861.653	4470
861.786	4424
861.918	4474
862.05	4516
862.183	4538
862.315	4603
862.447	4622
862.58	4523
862.712	4402
862.844	4333
862.976	4455
863.108	4470
863.24	4877
863.372	4299
863.504	4409
863.636	4432
863.768	4440
863.9	4413
864.032	4341
864.164	4390
864.296	4478
864.428	4561
864.559	4504
864.691	4538
864.823	4504
864.954	4500
865.086	4519
865.217	4455
865.349	4409
865.48	4455
865.612	4504
865.743	4615
865.875	4421
866.006	4402
866.137	4462
866.269	4409
866.4	4413
866.531	4428
866.662	4375
866.793	4398
866.924	4417
867.055	4455
867.186	4417
867.317	4428
867.448	4356
867.579	4409
867.71	4421
867.841	4398
867.972	4421
868.103	4451
868.233	4402
868.364	4367
868.495	4512
868.625	4618
868.756	4733
868.886	4588
869.017	4607
869.147	4767
869.278	4782
869.408	4656
869.539	4645
869.669	4679
869.799	4618
869.929	4714
870.06	4714
870.19	4938
870.32	4885
870.45	4892
870.58	4984
870.71	5083
870.84	5090
870.97	4949
871.1	4873
871.23	5109
871.36	5086
871.489	5022
871.619	5037
871.749	5075
871.879	5128
872.008	5121
872.138	5022
872.267	4968
872.397	4839
872.526	4790
872.656	4714
872.785	4755
872.915	4934
873.044	5025
873.173	4923
873.303	5003
873.432	4957
873.561	4938
873.69	4885
873.819	4858
873.948	4908
874.077	4778
874.206	4752
874.335	4820
874.464	4892
874.593	4999
874.722	4976
874.851	5086
874.979	5064
875.108	4984
875.237	4953
875.365	4908
875.494	4873
875.623	4927
875.751	4854
875.88	4858
876.008	4965
876.136	4976
876.265	5227
876.393	5326
876.521	5239
876.65	5223
876.778	5124
876.906	5090
877.034	4976
877.162	5029
877.29	4946
877.418	5006
877.546	5025
877.674	4999
877.802	5025
877.93	5003
878.058	4953
878.185	4862
878.313	4976
878.441	4946
878.568	4767
878.696	4885
878.824	4965
878.951	4957
879.079	5113
879.206	5246
879.333	5075
879.461	4976
879.588	5025
879.715	5117
879.842	5220
879.97	5003
880.097	4786
880.224	4740
880.351	4809
880.478	4805
880.605	4797
880.732	4828
880.859	5086
880.986	4824
881.112	4892
881.239	4755
881.366	4649
881.493	4550
881.619	4607
881.746	4615
881.872	4641
881.999	4645
882.125	4660
882.252	4790
882.378	4778
882.505	4896
882.631	4782
882.757	4641
882.883	4702
883.01	4740
883.136	4656
883.262	4618
883.388	4596
883.514	4790
883.64	4881
883.766	4767
883.892	4596
884.018	4683
884.143	4824
884.269	5003
884.395	4714
884.52	4653
884.646	4717
884.772	4565
884.897	4535
885.023	4683
885.148	4801
885.274	4835
885.399	4793
885.524	4736
885.65	4668
885.775	4752
885.9	4675
886.025	4809
886.15	4801
886.275	4717
886.4	4675
886.525	4733
886.65	4702
886.775	4634
886.9	4934
887.025	5029
887.149	4812
887.274	4691
887.399	4580
887.523	4607
887.648	4565
887.773	4569
887.897	4733
888.021	4752
888.146	4687
888.27	4801
888.395	4919
888.519	4801
888.643	4793
888.767	4816
888.891	4679
889.015	4641
889.139	4637
889.263	4596
889.387	4710
889.511	4877
889.635	4786
889.759	4653
889.883	4607
890.006	4702
890.13	4748
890.254	4592
890.377	4649
890.501	4542
890.624	4546
890.748	4653
890.871	4508
890.995	4402
891.118	4367
891.241	4485
891.364	4519
891.488	4634
891.611	4546
891.734	4504
891.857	4573
891.98	4527
892.103	4599
892.226	4542
892.349	4584
892.471	4424
892.594	4573
892.717	4607
892.839	4516
892.962	4607
893.085	4649
893.207	4607
893.33	4470
893.452	4497
893.575	4694
893.697	4592
893.819	4771
893.941	4805
894.064	4706
894.186	4565
894.308	4542
894.43	4725
894.552	4866
894.674	4748
894.796	4519
894.918	4592
895.04	4512
895.161	4714
895.283	4645
895.405	4542
895.526	4630
895.648	4641
895.769	4679
895.891	4656
896.012	4748
896.134	4733
896.255	4668
896.376	4637
896.498	4622
896.619	4679
896.74	4580
896.861	4668
896.982	4877
897.103	5048
897.224	4866
897.345	4759
897.466	4656
897.587	4736
897.708	4896
897.828	4778
897.949	4653
898.07	4592
898.19	4672
898.311	4793
898.431	4660
898.552	4759
898.672	4805
898.792	4786
898.913	4717
899.033	4656
899.153	4554
899.273	4447
899.393	4485
899.513	4538
899.633	4504
899.753	4519
899.873	4508
899.993	4569
900.113	4542
900.232	4607
900.352	4535
900.472	4497
900.591	4432
900.711	4470
900.83	4428
900.95	4592
901.069	4717
901.189	4558
901.308	4371
901.427	4303
901.546	4413
901.665	4493
901.784	4527
901.904	4409
902.023	4284
902.141	4177
902.26	4215
902.379	4318
902.498	4238
902.617	4196
902.735	4375
902.854	4379
902.973	4356
903.091	4215
903.21	4242
903.328	4295
903.446	4329
903.565	4268
903.683	4352
903.801	4306
903.919	4363
904.038	4436
904.156	4314
904.274	4459
904.392	4379
904.51	4417
904.627	4436
904.745	4569
904.863	4596
904.981	4375
905.098	4276
905.216	4356
905.334	4436
905.451	4413
905.569	4409
905.686	4592
905.803	4580
905.921	4443
906.038	4561
906.155	4436
906.272	4383
906.389	4432
906.506	4356
906.623	4386
906.74	4352
906.857	4322
906.974	4344
907.091	4558
907.208	4706
907.324	4573
907.441	4462
907.557	4318
907.674	4348
907.79	4360
907.907	4367
908.023	4481
908.139	4436
908.256	4409
908.372	4497
908.488	4424
908.604	4341
908.72	4306
908.836	4413
908.952	4367
909.068	4390
909.184	4538
909.3	4497
909.415	4580
909.531	4535
909.647	4329
909.762	4341
909.878	4337
909.993	4409
910.108	4428
910.224	4386
910.339	4462
910.454	4405
910.57	4371
910.685	4295
910.8	4649
910.915	4577
911.03	4424
911.145	4299
911.259	4318
911.374	4352
911.489	4299
911.604	4257
911.718	4128
911.833	4196
911.947	4078
912.062	4006
912.176	4181
912.291	4207
912.405	4234
912.519	4451
912.633	4497
912.748	4383
912.862	4280
912.976	4192
913.09	4116
913.204	4154
913.318	4211
913.431	4375
913.545	4318
913.659	4371
913.772	4341
913.886	4253
914	4215
914.113	4310
914.226	4405
914.34	4344
914.453	4257
914.566	4398
914.68	4280
914.793	4333
914.906	4143
915.019	4131
915.132	4044
915.245	4162
915.358	4223
915.47	4211
915.583	4272
915.696	4261
915.809	4405
915.921	4405
916.034	4272
916.146	4265
916.259	4219
916.371	4424
916.483	4363
916.595	4234
916.708	4337
916.82	4322
916.932	4337
917.044	4348
917.156	4325
917.268	4230
917.38	4303
917.491	4265
917.603	4295
917.715	4424
917.826	4440
917.938	4295
918.049	4227
918.161	4398
918.272	4500
918.384	4512
918.495	4447
918.606	4284
918.717	4280
918.828	4344
918.939	4386
919.05	4249
919.161	4276
919.272	4090
919.383	4215
919.494	4432
919.604	4569
919.715	4409
919.826	4337
919.936	4383
920.047	4512
920.157	4443
920.267	4721
920.378	4531
920.488	4497
920.598	4721
920.708	4870
920.818	4740
920.928	4725
921.038	4858
921.148	4904
921.258	4603
921.368	4588
921.477	4519
921.587	4497
921.697	4363
921.806	4531
921.916	4436
922.025	4242
922.134	4291
922.244	4207
922.353	4318
922.462	4143
922.571	4086
922.68	4010
922.789	3968
922.898	4040
923.007	3998
923.116	4147
923.224	4093
923.333	4071
923.442	3991
923.55	3949
923.659	3987
923.767	4097
923.876	4006
923.984	4086
924.092	4002
924.201	4063
924.309	4063
924.417	4078
924.525	4063
924.633	4124
924.741	5098
924.849	3907
924.956	4128
925.064	3964
925.172	3884
925.279	3983
925.387	4036
925.494	4002
925.602	4162
925.709	4166
925.816	4063
925.924	4097
926.031	4188
926.138	4169
926.245	4204
926.352	4063
926.459	4207
926.566	4299
926.673	4181
926.779	4067
926.886	4082
926.993	4002
927.099	3983
927.206	3884
927.312	3945
927.419	4017
927.525	4101
927.631	4074
927.737	3953
927.843	3937
927.95	3876
928.056	3915
928.162	4013
928.267	4048
928.373	4698
928.479	4082
928.585	3892
928.69	3994
928.796	4090
928.901	3975
929.007	3869
929.112	4006
929.218	3964
929.323	3964
929.428	3953
929.533	4078
929.638	3899
929.743	3960
929.848	4032
929.953	3994
930.058	3918
930.163	3785
930.267	3785
930.372	3979
930.477	3804
930.581	4055
930.685	3899
930.79	3850
930.894	3854
930.998	3876
931.103	4036
931.207	3694
931.311	3698
931.415	3682
931.519	3507
931.623	3515
