Data from test_V78500241_1815.txt Node
Date: Fri Mar 25 17:01:37 CST 2022
User: usil
Spectrometer: V785-0024
Trigger mode: 0
Integration Time (sec): 4.000000E-1
Scans to average: 1
Nonlinearity correction enabled: false
Boxcar width: 0
Storing dark spectrum: false
XAxis mode: Wavelengths
Number of Pixels in Spectrum: 1024
>>>>>Begin Spectral Data<<<<<
801.071	8054
801.214	7917
801.356	7868
801.499	7780
801.641	7845
801.783	7803
801.926	7906
802.068	7890
802.211	8031
802.353	8043
802.496	7841
802.638	7860
802.78	7928
802.923	7967
803.065	7894
803.208	7852
803.35	7982
803.492	8043
803.635	8157
803.777	7978
803.919	8164
804.061	8476
804.204	8214
804.346	8039
804.488	7978
804.63	8088
804.773	8024
804.915	8043
805.057	8229
805.199	8145
805.341	8199
805.483	8286
805.626	8202
805.768	8100
805.91	8187
806.052	8195
806.194	8168
806.336	8336
806.478	8008
806.62	8058
806.762	8176
806.904	8267
807.046	8511
807.188	8404
807.33	8343
807.472	8271
807.614	8195
807.756	8119
807.898	7986
808.04	7879
808.182	7902
808.324	7928
808.465	7894
808.607	8035
808.749	8084
808.891	8225
809.033	8328
809.174	8259
809.316	8043
809.458	8103
809.6	7993
809.741	8043
809.883	8016
810.025	8039
810.166	7993
810.308	7970
810.45	8008
810.591	7849
810.733	7772
810.875	7658
811.016	7506
811.158	7457
811.299	7628
811.441	7677
811.582	7651
811.724	7605
811.865	7487
812.007	7616
812.148	7559
812.29	7681
812.431	7772
812.573	7887
812.714	7906
812.855	8103
812.997	8218
813.138	8271
813.279	8191
813.421	8111
813.562	7925
813.703	7776
813.845	7666
813.986	7411
814.127	7308
814.268	7152
814.41	7179
814.551	7251
814.692	7221
814.833	7156
814.974	7129
815.115	7137
815.256	6920
815.397	6890
815.539	6966
815.68	6814
815.821	6700
815.962	6848
816.103	6791
816.244	6700
816.385	6593
816.526	6627
816.666	6437
816.807	6273
816.948	6445
817.089	6448
817.23	6410
817.371	6399
817.512	6350
817.653	6429
817.793	6319
817.934	6407
818.075	6410
818.216	6414
818.356	6376
818.497	6243
818.638	6201
818.778	6102
818.919	6114
819.06	6182
819.2	6334
819.341	6323
819.481	6346
819.622	6582
819.762	6711
819.903	6760
820.043	6589
820.184	6551
820.324	6585
820.465	6707
820.605	6597
820.746	6662
820.886	6475
821.026	6650
821.167	6696
821.307	6810
821.447	6760
821.588	6711
821.728	6559
821.868	6441
822.008	6323
822.149	6365
822.289	6388
822.429	6133
822.569	6064
822.709	6076
822.849	5935
822.99	5874
823.13	5874
823.27	5863
823.41	5710
823.55	5760
823.69	5748
823.83	5718
823.97	5627
824.11	5547
824.25	5524
824.389	5547
824.529	5589
824.669	5543
824.809	5642
824.949	5676
825.089	5646
825.228	5611
825.368	5387
825.508	5326
825.648	5398
825.787	5334
825.927	5376
826.067	5292
826.206	5280
826.346	5330
826.485	5395
826.625	5372
826.765	5520
826.904	5455
827.044	5235
827.183	5216
827.323	5121
827.462	5227
827.601	5174
827.741	5174
827.88	5216
828.02	5109
828.159	5250
828.298	5265
828.437	5341
828.577	5216
828.716	5524
828.855	5307
828.994	5143
829.134	5143
829.273	5227
829.412	5124
829.551	5102
829.69	5105
829.829	5288
829.968	5357
830.107	5250
830.246	5311
830.385	5193
830.524	5136
830.663	5052
830.802	5014
830.941	4870
831.08	4866
831.219	4953
831.357	4942
831.496	5155
831.635	4862
831.774	4778
831.913	4828
832.051	4740
832.19	4717
832.329	4847
832.467	4660
832.606	4641
832.744	4687
832.883	4687
833.022	4714
833.16	4759
833.299	4820
833.437	4873
833.576	4771
833.714	4831
833.852	4835
833.991	4904
834.129	4946
834.267	4934
834.406	4896
834.544	4976
834.682	5014
834.821	4987
834.959	5178
835.097	4961
835.235	5121
835.373	5064
835.511	5071
835.65	4976
835.788	5022
835.926	4870
836.064	4877
836.202	4892
836.34	5155
836.478	5227
836.615	5094
836.753	5231
836.891	5239
837.029	5250
837.167	5166
837.305	5147
837.443	5086
837.58	5052
837.718	5258
837.856	5204
837.993	5181
838.131	5204
838.269	5242
838.406	5201
838.544	5132
838.681	5022
838.819	5018
838.956	4877
839.094	4927
839.231	5006
839.369	5109
839.506	5402
839.643	5288
839.781	5079
839.918	4976
840.055	5060
840.193	5067
840.33	5075
840.467	5155
840.604	5166
840.742	5425
840.879	5056
841.016	5075
841.153	5117
841.29	5368
841.427	5349
841.564	5307
841.701	5265
841.838	5296
841.975	5185
842.112	5254
842.249	5162
842.385	5105
842.522	5303
842.659	5136
842.796	5105
842.933	5162
843.069	5216
843.206	5090
843.343	5250
843.479	5239
843.616	5223
843.752	5010
843.889	4980
844.025	5174
844.162	5014
844.298	5220
844.435	5090
844.571	5102
844.708	5189
844.844	5254
844.98	5303
845.117	5296
845.253	5094
845.389	5083
845.525	5174
845.661	5143
845.798	5018
845.934	5094
846.07	5052
846.206	5181
846.342	5265
846.478	5151
846.614	4999
846.75	4942
846.886	4953
847.022	5124
847.158	5029
847.294	5037
847.429	5102
847.565	5041
847.701	5307
847.837	4790
847.972	4805
848.108	4946
848.244	4904
848.379	4793
848.515	4759
848.65	4691
848.786	4767
848.921	4782
849.057	4873
849.192	4870
849.328	4805
849.463	4824
849.598	4771
849.734	4778
849.869	4672
850.004	4569
850.14	4672
850.275	4622
850.41	4573
850.545	4565
850.68	4558
850.815	4596
850.95	4569
851.085	4809
851.22	4752
851.355	4710
851.49	4630
851.625	4630
851.76	4592
851.895	4569
852.03	4512
852.165	4637
852.299	4694
852.434	4824
852.569	4744
852.703	4774
852.838	4858
852.973	4911
853.107	4946
853.242	4748
853.376	4656
853.511	4569
853.645	4565
853.78	4812
853.914	4714
854.048	4710
854.183	4626
854.317	4702
854.451	4870
854.585	4660
854.72	4645
854.854	4710
854.988	4596
855.122	4649
855.256	4489
855.39	4656
855.524	4748
855.658	4786
855.792	4694
855.926	4748
856.06	4767
856.194	4816
856.327	4675
856.461	4622
856.595	4596
856.729	4641
856.862	4771
856.996	4668
857.13	4744
857.263	4809
857.397	4778
857.53	4660
857.664	4714
857.797	4755
857.931	4797
858.064	4664
858.197	4763
858.331	4641
858.464	4584
858.597	4531
858.731	4592
858.864	4641
858.997	4611
859.13	4634
859.263	4664
859.396	4694
859.529	4523
859.662	4542
859.795	4500
859.928	4622
860.061	4740
860.194	4755
860.327	4611
860.46	4527
860.592	4664
860.725	4683
860.858	4736
860.99	4577
861.123	4493
861.256	4516
861.388	4653
861.521	5360
861.653	4527
861.786	4436
861.918	4440
862.05	4508
862.183	4554
862.315	4584
862.447	4634
862.58	4519
862.712	4383
862.844	4318
862.976	4451
863.108	4424
863.24	4889
863.372	4341
863.504	4367
863.636	4409
863.768	4489
863.9	4417
864.032	4314
864.164	4398
864.296	4512
864.428	4500
864.559	4538
864.691	4523
864.823	4478
864.954	4535
865.086	4478
865.217	4451
865.349	4386
865.48	4500
865.612	4432
865.743	4599
865.875	4462
866.006	4447
866.137	4470
866.269	4470
866.4	4436
866.531	4409
866.662	4394
866.793	4417
866.924	4398
867.055	4470
867.186	4459
867.317	4417
867.448	4375
867.579	4379
867.71	4402
867.841	4333
867.972	4462
868.103	4432
868.233	4436
868.364	4459
868.495	4489
868.625	4637
868.756	4740
868.886	4538
869.017	4630
869.147	4687
869.278	4763
869.408	4611
869.539	4622
869.669	4706
869.799	4626
869.929	4729
870.06	4752
870.19	4911
870.32	4942
870.45	4930
870.58	5029
870.71	5045
870.84	5090
870.97	4927
871.1	4930
871.23	5121
871.36	5113
871.489	5022
871.619	5075
871.749	5102
871.879	5132
872.008	5143
872.138	5094
872.267	4968
872.397	4866
872.526	4793
872.656	4767
872.785	4797
872.915	4911
873.044	5064
873.173	4984
873.303	4972
873.432	4938
873.561	4942
873.69	4927
873.819	4824
873.948	4911
874.077	4885
874.206	4759
874.335	4850
874.464	4953
874.593	5022
874.722	4961
874.851	5086
874.979	5086
875.108	5041
875.237	4980
875.365	4953
875.494	4915
875.623	4938
875.751	4809
875.88	4934
876.008	5052
876.136	5018
876.265	5189
876.393	5341
876.521	5246
876.65	5197
876.778	5159
876.906	5067
877.034	5003
877.162	5083
877.29	4999
877.418	5075
877.546	5067
877.674	5060
877.802	5045
877.93	5022
878.058	4934
878.185	4904
878.313	4927
878.441	4991
878.568	4778
878.696	4831
878.824	4938
878.951	4953
879.079	5143
879.206	5277
879.333	5064
879.461	4984
879.588	4953
879.715	5136
879.842	5208
879.97	5010
880.097	4763
880.224	4774
880.351	4778
880.478	4755
880.605	4797
880.732	4767
880.859	5105
880.986	4889
881.112	4930
881.239	4790
881.366	4637
881.493	4645
881.619	4599
881.746	4645
881.872	4664
881.999	4660
882.125	4706
882.252	4748
882.378	4812
882.505	4949
882.631	4824
882.757	4618
882.883	4748
883.01	4759
883.136	4668
883.262	4626
883.388	4573
883.514	4809
883.64	4858
883.766	4774
883.892	4656
884.018	4710
884.143	4892
884.269	4972
884.395	4698
884.52	4641
884.646	4656
884.772	4577
884.897	4535
885.023	4656
885.148	4725
885.274	4877
885.399	4839
885.524	4675
885.65	4683
885.775	4755
885.9	4717
886.025	4847
886.15	4790
886.275	4683
886.4	4630
886.525	4698
886.65	4694
886.775	4679
886.9	4862
887.025	5045
887.149	4771
887.274	4664
887.399	4565
887.523	4554
887.648	4577
887.773	4618
887.897	4790
888.021	4740
888.146	4702
888.27	4831
888.395	4938
888.519	4801
888.643	4843
888.767	4828
888.891	4611
889.015	4558
889.139	4637
889.263	4611
889.387	4759
889.511	4889
889.635	4820
889.759	4626
889.883	4637
890.006	4702
890.13	4820
890.254	4622
890.377	4675
890.501	4527
890.624	4519
890.748	4584
890.871	4497
890.995	4436
891.118	4386
891.241	4577
891.364	4542
891.488	4618
891.611	4481
891.734	4550
891.857	4569
891.98	4538
892.103	4664
892.226	4580
892.349	4523
892.471	4417
892.594	4519
892.717	4599
892.839	4538
892.962	4577
893.085	4656
893.207	4615
893.33	4432
893.452	4497
893.575	4630
893.697	4561
893.819	4755
893.941	4858
894.064	4771
894.186	4538
894.308	4618
894.43	4675
894.552	4820
894.674	4774
894.796	4542
894.918	4573
895.04	4577
895.161	4683
895.283	4683
895.405	4558
895.526	4584
895.648	4717
895.769	4668
895.891	4717
896.012	4710
896.134	4664
896.255	4672
896.376	4634
896.498	4577
896.619	4694
896.74	4618
896.861	4641
896.982	4938
897.103	5045
897.224	4828
897.345	4740
897.466	4611
897.587	4717
897.708	4839
897.828	4809
897.949	4653
898.07	4603
898.19	4653
898.311	4839
898.431	4641
898.552	4767
898.672	4812
898.792	4763
898.913	4755
899.033	4672
899.153	4519
899.273	4379
899.393	4462
899.513	4447
899.633	4535
899.753	4523
899.873	4478
899.993	4554
900.113	4519
900.232	4550
900.352	4542
900.472	4489
900.591	4383
900.711	4519
900.83	4436
900.95	4607
901.069	4702
901.189	4508
901.308	4386
901.427	4310
901.546	4356
901.665	4451
901.784	4504
901.904	4394
902.023	4337
902.141	4154
902.26	4150
902.379	4306
902.498	4261
902.617	4188
902.735	4341
902.854	4386
902.973	4322
903.091	4200
903.21	4265
903.328	4341
903.446	4287
903.565	4242
903.683	4337
903.801	4303
903.919	4402
904.038	4432
904.156	4310
904.274	4383
904.392	4394
904.51	4443
904.627	4466
904.745	4523
904.863	4584
904.981	4436
905.098	4356
905.216	4344
905.334	4409
905.451	4424
905.569	4436
905.686	4485
905.803	4580
905.921	4360
906.038	4592
906.155	4443
906.272	4352
906.389	4455
906.506	4344
906.623	4375
906.74	4398
906.857	4341
906.974	4363
907.091	4535
907.208	4668
907.324	4611
907.441	4500
907.557	4329
907.674	4284
907.79	4344
907.907	4325
908.023	4512
908.139	4470
908.256	4375
908.372	4451
908.488	4466
908.604	4405
908.72	4287
908.836	4352
908.952	4360
909.068	4405
909.184	4554
909.3	4508
909.415	4580
909.531	4493
909.647	4337
909.762	4379
909.878	4333
909.993	4485
910.108	4424
910.224	4394
910.339	4481
910.454	4402
910.57	4360
910.685	4322
910.8	4694
910.915	4580
911.03	4527
911.145	4310
911.259	4348
911.374	4413
911.489	4291
911.604	4314
911.718	4196
911.833	4200
911.947	4097
912.062	4021
912.176	4166
912.291	4200
912.405	4276
912.519	4470
912.633	4500
912.748	4428
912.862	4261
912.976	4143
913.09	4112
913.204	4181
913.318	4234
913.431	4375
913.545	4432
913.659	4443
913.772	4348
913.886	4223
914	4227
914.113	4344
914.226	4443
914.34	4386
914.453	4261
914.566	4440
914.68	4295
914.793	4371
914.906	4131
915.019	4124
915.132	4051
915.245	4192
915.358	4166
915.47	4249
915.583	4265
915.696	4306
915.809	4363
915.921	4394
916.034	4291
916.146	4246
916.259	4196
916.371	4371
916.483	4363
916.595	4261
916.708	4322
916.82	4325
916.932	4341
917.044	4341
917.156	4341
917.268	4200
917.38	4268
917.491	4246
917.603	4310
917.715	4421
917.826	4402
917.938	4379
918.049	4223
918.161	4375
918.272	4523
918.384	4519
918.495	4436
918.606	4253
918.717	4242
918.828	4371
918.939	4348
919.05	4257
919.161	4333
919.272	4135
919.383	4249
919.494	4386
919.604	4660
919.715	4440
919.826	4379
919.936	4367
920.047	4500
920.157	4497
920.267	4763
920.378	4478
920.488	4519
920.598	4694
920.708	4858
920.818	4763
920.928	4801
921.038	4980
921.148	4858
921.258	4634
921.368	4603
921.477	4474
921.587	4443
921.697	4333
921.806	4489
921.916	4394
922.025	4219
922.134	4295
922.244	4257
922.353	4310
922.462	4150
922.571	4116
922.68	3975
922.789	3915
922.898	3972
923.007	3953
923.116	4124
923.224	4086
923.333	4086
923.442	3979
923.55	3975
923.659	4017
923.767	4093
923.876	3941
923.984	4120
924.092	3975
924.201	4067
924.309	4067
924.417	4112
924.525	4059
924.633	4112
924.741	5048
924.849	3918
924.956	4143
925.064	3968
925.172	3956
925.279	3945
925.387	4021
925.494	4093
925.602	4230
925.709	4131
925.816	4025
925.924	4109
926.031	4249
926.138	4173
926.245	4257
926.352	4097
926.459	4284
926.566	4341
926.673	4124
926.779	4090
926.886	4051
926.993	3998
927.099	3934
927.206	3956
927.312	3964
927.419	4040
927.525	3979
927.631	4097
927.737	3975
927.843	3964
927.95	3823
928.056	3922
928.162	4006
928.267	4040
928.373	4626
928.479	4131
928.585	3854
928.69	4040
928.796	4086
928.901	3956
929.007	3865
929.112	4029
929.218	3964
929.323	3972
929.428	3945
929.533	4105
929.638	3896
929.743	3991
929.848	4040
929.953	4006
930.058	3956
930.163	3770
930.267	3865
930.372	3953
930.477	3823
930.581	4101
930.685	3918
930.79	3876
930.894	3869
930.998	3838
931.103	4002
931.207	3736
931.311	3701
931.415	3671
931.519	3496
931.623	3526
