Data from test_V78500241_1647.txt Node
Date: Fri Mar 25 17:00:27 CST 2022
User: usil
Spectrometer: V785-0024
Trigger mode: 0
Integration Time (sec): 4.000000E-1
Scans to average: 1
Nonlinearity correction enabled: false
Boxcar width: 0
Storing dark spectrum: false
XAxis mode: Wavelengths
Number of Pixels in Spectrum: 1024
>>>>>Begin Spectral Data<<<<<
801.071	7970
801.214	7959
801.356	7803
801.499	7852
801.641	7807
801.783	7807
801.926	7852
802.068	7921
802.211	7993
802.353	8012
802.496	7860
802.638	7864
802.78	7921
802.923	7951
803.065	7833
803.208	7890
803.35	7974
803.492	8069
803.635	8149
803.777	8012
803.919	8096
804.061	8434
804.204	8103
804.346	8031
804.488	7925
804.63	8081
804.773	8016
804.915	8153
805.057	8267
805.199	8096
805.341	8191
805.483	8305
805.626	8202
805.768	8138
805.91	8206
806.052	8206
806.194	8100
806.336	8328
806.478	8069
806.62	8096
806.762	8142
806.904	8317
807.046	8503
807.188	8381
807.33	8332
807.472	8320
807.614	8180
807.756	8168
807.898	7978
808.04	7883
808.182	7974
808.324	7932
808.465	7959
808.607	8084
808.749	8157
808.891	8229
809.033	8328
809.174	8267
809.316	8103
809.458	8081
809.6	8024
809.741	8069
809.883	8035
810.025	8126
810.166	8157
810.308	8096
810.45	7970
810.591	7894
810.733	7757
810.875	7719
811.016	7613
811.158	7518
811.299	7616
811.441	7708
811.582	7647
811.724	7567
811.865	7594
812.007	7613
812.148	7578
812.29	7643
812.431	7803
812.573	7940
812.714	8005
812.855	8157
812.997	8225
813.138	8396
813.279	8221
813.421	8142
813.562	7993
813.703	7852
813.845	7772
813.986	7483
814.127	7282
814.268	7251
814.41	7198
814.551	7149
814.692	7171
814.833	7122
814.974	7133
815.115	7110
815.256	6981
815.397	6951
815.539	7000
815.68	6859
815.821	6818
815.962	6852
816.103	6863
816.244	6745
816.385	6654
816.526	6654
816.666	6532
816.807	6281
816.948	6452
817.089	6433
817.23	6448
817.371	6422
817.512	6403
817.653	6384
817.793	6422
817.934	6456
818.075	6494
818.216	6433
818.356	6399
818.497	6243
818.638	6155
818.778	6136
818.919	6186
819.06	6186
819.2	6395
819.341	6376
819.481	6391
819.622	6563
819.762	6749
819.903	6738
820.043	6616
820.184	6578
820.324	6536
820.465	6665
820.605	6741
820.746	6696
820.886	6551
821.026	6669
821.167	6757
821.307	6798
821.447	6818
821.588	6688
821.728	6616
821.868	6486
822.008	6327
822.149	6388
822.289	6357
822.429	6182
822.569	6102
822.709	6125
822.849	5931
822.99	5904
823.13	5999
823.27	5958
823.41	5809
823.55	5824
823.69	5745
823.83	5805
823.97	5699
824.11	5570
824.25	5524
824.389	5589
824.529	5592
824.669	5558
824.809	5688
824.949	5718
825.089	5562
825.228	5554
825.368	5402
825.508	5379
825.648	5372
825.787	5406
825.927	5395
826.067	5311
826.206	5318
826.346	5410
826.485	5387
826.625	5425
826.765	5509
826.904	5429
827.044	5254
827.183	5216
827.323	5128
827.462	5288
827.601	5162
827.741	5246
827.88	5216
828.02	5170
828.159	5261
828.298	5326
828.437	5444
828.577	5337
828.716	5478
828.855	5353
828.994	5178
829.134	5155
829.273	5147
829.412	5121
829.551	5174
829.69	5235
829.829	5269
829.968	5383
830.107	5292
830.246	5273
830.385	5181
830.524	5143
830.663	5121
830.802	5014
830.941	4919
831.08	4892
831.219	4995
831.357	5018
831.496	5201
831.635	4923
831.774	4858
831.913	4843
832.051	4717
832.19	4763
832.329	4858
832.467	4702
832.606	4683
832.744	4774
832.883	4771
833.022	4691
833.16	4755
833.299	4839
833.437	4847
833.576	4881
833.714	4915
833.852	4885
833.991	4927
834.129	4984
834.267	4965
834.406	4919
834.544	4968
834.682	4980
834.821	4938
834.959	5185
835.097	4984
835.235	5121
835.373	5124
835.511	5140
835.65	5025
835.788	5079
835.926	4930
836.064	4896
836.202	5018
836.34	5201
836.478	5258
836.615	5140
836.753	5227
836.891	5292
837.029	5288
837.167	5162
837.305	5166
837.443	5140
837.58	5083
837.718	5208
837.856	5212
837.993	5220
838.131	5273
838.269	5208
838.406	5181
838.544	5132
838.681	5086
838.819	5006
838.956	4934
839.094	4892
839.231	5006
839.369	5121
839.506	5421
839.643	5254
839.781	5075
839.918	5029
840.055	5079
840.193	5113
840.33	5170
840.467	5181
840.604	5220
840.742	5448
840.879	5098
841.016	5086
841.153	5204
841.29	5421
841.427	5353
841.564	5311
841.701	5417
841.838	5303
841.975	5231
842.112	5273
842.249	5159
842.385	5113
842.522	5368
842.659	5220
842.796	5220
842.933	5178
843.069	5155
843.206	5216
843.343	5269
843.479	5265
843.616	5303
843.752	5079
843.889	4980
844.025	5265
844.162	4999
844.298	5212
844.435	5136
844.571	5060
844.708	5231
844.844	5368
844.98	5326
845.117	5326
845.253	5155
845.389	5098
845.525	5178
845.661	5162
845.798	5067
845.934	5151
846.07	5056
846.206	5208
846.342	5269
846.478	5208
846.614	5003
846.75	4961
846.886	4900
847.022	5231
847.158	5048
847.294	5083
847.429	5052
847.565	5117
847.701	5296
847.837	4831
847.972	4820
848.108	4999
848.244	4984
848.379	4778
848.515	4733
848.65	4748
848.786	4706
848.921	4778
849.057	4892
849.192	4938
849.328	4801
849.463	4873
849.598	4790
849.734	4782
849.869	4706
850.004	4615
850.14	4698
850.275	4596
850.41	4527
850.545	4592
850.68	4599
850.815	4710
850.95	4645
851.085	4828
851.22	4721
851.355	4725
851.49	4634
851.625	4634
851.76	4645
851.895	4580
852.03	4535
852.165	4664
852.299	4687
852.434	4759
852.569	4778
852.703	4778
852.838	4850
852.973	4957
853.107	4927
853.242	4710
853.376	4721
853.511	4599
853.645	4637
853.78	4790
853.914	4702
854.048	4714
854.183	4641
854.317	4771
854.451	4862
854.585	4694
854.72	4645
854.854	4748
854.988	4656
855.122	4694
855.256	4497
855.39	4679
855.524	4774
855.658	4752
855.792	4714
855.926	4763
856.06	4740
856.194	4793
856.327	4698
856.461	4588
856.595	4592
856.729	4584
856.862	4752
856.996	4698
857.13	4740
857.263	4752
857.397	4786
857.53	4664
857.664	4694
857.797	4805
857.931	4763
858.064	4679
858.197	4771
858.331	4679
858.464	4630
858.597	4481
858.731	4569
858.864	4653
858.997	4622
859.13	4630
859.263	4679
859.396	4725
859.529	4588
859.662	4611
859.795	4538
859.928	4626
860.061	4771
860.194	4793
860.327	4615
860.46	4558
860.592	4733
860.725	4698
860.858	4717
860.99	4554
861.123	4516
861.256	4500
861.388	4653
861.521	5204
861.653	4519
861.786	4428
861.918	4485
862.05	4531
862.183	4554
862.315	4611
862.447	4679
862.58	4569
862.712	4375
862.844	4299
862.976	4447
863.108	4443
863.24	4801
863.372	4375
863.504	4421
863.636	4383
863.768	4481
863.9	4474
864.032	4390
864.164	4428
864.296	4493
864.428	4550
864.559	4573
864.691	4531
864.823	4508
864.954	4489
865.086	4516
865.217	4481
865.349	4417
865.48	4432
865.612	4519
865.743	4618
865.875	4493
866.006	4436
866.137	4497
866.269	4481
866.4	4386
866.531	4432
866.662	4440
866.793	4440
866.924	4386
867.055	4512
867.186	4462
867.317	4436
867.448	4379
867.579	4428
867.71	4402
867.841	4386
867.972	4497
868.103	4447
868.233	4451
868.364	4478
868.495	4481
868.625	4626
868.756	4771
868.886	4599
869.017	4634
869.147	4778
869.278	4809
869.408	4668
869.539	4668
869.669	4675
869.799	4675
869.929	4767
870.06	4740
870.19	4953
870.32	4934
870.45	4953
870.58	4991
870.71	5075
870.84	5090
870.97	4980
871.1	4927
871.23	5102
871.36	5105
871.489	5014
871.619	5102
871.749	5105
871.879	5136
872.008	5162
872.138	5098
872.267	4976
872.397	4866
872.526	4767
872.656	4729
872.785	4824
872.915	4938
873.044	5014
873.173	4930
873.303	4995
873.432	4934
873.561	4953
873.69	4881
873.819	4870
873.948	4900
874.077	4824
874.206	4759
874.335	4774
874.464	4938
874.593	5041
874.722	4942
874.851	5056
874.979	5048
875.108	4987
875.237	4957
875.365	4892
875.494	4908
875.623	4980
875.751	4831
875.88	4911
876.008	4961
876.136	5014
876.265	5216
876.393	5322
876.521	5246
876.65	5280
876.778	5162
876.906	5113
877.034	5022
877.162	5029
877.29	5018
877.418	5071
877.546	5048
877.674	5033
877.802	5033
877.93	5006
878.058	4968
878.185	4850
878.313	4976
878.441	4934
878.568	4858
878.696	4881
878.824	5022
878.951	5022
879.079	5159
879.206	5341
879.333	5090
879.461	4972
879.588	5025
879.715	5155
879.842	5239
879.97	4984
880.097	4793
880.224	4786
880.351	4812
880.478	4801
880.605	4828
880.732	4801
880.859	5124
880.986	4911
881.112	4953
881.239	4816
881.366	4675
881.493	4622
881.619	4622
881.746	4698
881.872	4637
881.999	4668
882.125	4675
882.252	4816
882.378	4824
882.505	4991
882.631	4793
882.757	4752
882.883	4748
883.01	4744
883.136	4668
883.262	4637
883.388	4656
883.514	4850
883.64	4881
883.766	4850
883.892	4675
884.018	4767
884.143	4927
884.269	5090
884.395	4675
884.52	4702
884.646	4691
884.772	4561
884.897	4618
885.023	4740
885.148	4778
885.274	4938
885.399	4835
885.524	4752
885.65	4725
885.775	4740
885.9	4763
886.025	4870
886.15	4854
886.275	4733
886.4	4717
886.525	4774
886.65	4733
886.775	4755
886.9	4957
887.025	5083
887.149	4831
887.274	4675
887.399	4668
887.523	4656
887.648	4645
887.773	4622
887.897	4767
888.021	4812
888.146	4733
888.27	4812
888.395	4934
888.519	4793
888.643	4805
888.767	4820
888.891	4752
889.015	4679
889.139	4706
889.263	4607
889.387	4797
889.511	4923
889.635	4828
889.759	4702
889.883	4653
890.006	4759
890.13	4843
890.254	4634
890.377	4721
890.501	4535
890.624	4577
890.748	4656
890.871	4538
890.995	4497
891.118	4470
891.241	4535
891.364	4588
891.488	4641
891.611	4535
891.734	4565
891.857	4637
891.98	4596
892.103	4675
892.226	4577
892.349	4512
892.471	4466
892.594	4626
892.717	4618
892.839	4596
892.962	4611
893.085	4714
893.207	4569
893.33	4489
893.452	4508
893.575	4683
893.697	4645
893.819	4805
893.941	4870
894.064	4801
894.186	4607
894.308	4558
894.43	4812
894.552	4824
894.674	4793
894.796	4603
894.918	4634
895.04	4618
895.161	4759
895.283	4733
895.405	4615
895.526	4687
895.648	4706
895.769	4710
895.891	4759
896.012	4721
896.134	4759
896.255	4714
896.376	4698
896.498	4630
896.619	4729
896.74	4637
896.861	4675
896.982	4957
897.103	5083
897.224	4828
897.345	4725
897.466	4660
897.587	4736
897.708	4847
897.828	4805
897.949	4675
898.07	4569
898.19	4634
898.311	4816
898.431	4691
898.552	4748
898.672	4831
898.792	4824
898.913	4748
899.033	4645
899.153	4497
899.273	4470
899.393	4527
899.513	4527
899.633	4535
899.753	4637
899.873	4531
899.993	4588
900.113	4565
900.232	4565
900.352	4554
900.472	4493
900.591	4428
900.711	4523
900.83	4459
900.95	4641
901.069	4702
901.189	4577
901.308	4405
901.427	4348
901.546	4398
901.665	4493
901.784	4489
901.904	4417
902.023	4341
902.141	4177
902.26	4177
902.379	4356
902.498	4249
902.617	4242
902.735	4360
902.854	4447
902.973	4405
903.091	4249
903.21	4299
903.328	4310
903.446	4306
903.565	4261
903.683	4383
903.801	4303
903.919	4489
904.038	4462
904.156	4409
904.274	4451
904.392	4413
904.51	4455
904.627	4504
904.745	4611
904.863	4645
904.981	4428
905.098	4379
905.216	4436
905.334	4455
905.451	4466
905.569	4470
905.686	4527
905.803	4588
905.921	4436
906.038	4584
906.155	4485
906.272	4440
906.389	4478
906.506	4402
906.623	4409
906.74	4379
906.857	4344
906.974	4383
907.091	4596
907.208	4733
907.324	4637
907.441	4481
907.557	4390
907.674	4367
907.79	4337
907.907	4371
908.023	4478
908.139	4470
908.256	4436
908.372	4493
908.488	4440
908.604	4386
908.72	4383
908.836	4451
908.952	4390
909.068	4478
909.184	4577
909.3	4462
909.415	4588
909.531	4596
909.647	4379
909.762	4363
909.878	4409
909.993	4440
910.108	4356
910.224	4413
910.339	4580
910.454	4470
910.57	4360
910.685	4360
910.8	4675
910.915	4645
911.03	4519
911.145	4348
911.259	4409
911.374	4371
911.489	4299
911.604	4280
911.718	4215
911.833	4246
911.947	4101
912.062	4040
912.176	4230
912.291	4280
912.405	4322
912.519	4451
912.633	4535
912.748	4394
912.862	4306
912.976	4215
913.09	4120
913.204	4181
913.318	4253
913.431	4390
913.545	4333
913.659	4474
913.772	4352
913.886	4268
914	4280
914.113	4386
914.226	4478
914.34	4409
914.453	4261
914.566	4443
914.68	4360
914.793	4352
914.906	4204
915.019	4109
915.132	4071
915.245	4219
915.358	4211
915.47	4246
915.583	4287
915.696	4310
915.809	4421
915.921	4424
916.034	4280
916.146	4291
916.259	4196
916.371	4405
916.483	4356
916.595	4249
916.708	4306
916.82	4386
916.932	4310
917.044	4356
917.156	4341
917.268	4242
917.38	4253
917.491	4295
917.603	4367
917.715	4409
917.826	4447
917.938	4363
918.049	4257
918.161	4383
918.272	4561
918.384	4535
918.495	4466
918.606	4333
918.717	4299
918.828	4333
918.939	4371
919.05	4268
919.161	4303
919.272	4185
919.383	4287
919.494	4497
919.604	4607
919.715	4512
919.826	4363
919.936	4394
920.047	4538
920.157	4527
920.267	4721
920.378	4577
920.488	4516
920.598	4786
920.708	4900
920.818	4786
920.928	4729
921.038	4953
921.148	4934
921.258	4664
921.368	4577
921.477	4565
921.587	4504
921.697	4371
921.806	4569
921.916	4474
922.025	4310
922.134	4306
922.244	4242
922.353	4341
922.462	4200
922.571	4154
922.68	4025
922.789	3998
922.898	4059
923.007	3975
923.116	4093
923.224	4090
923.333	4128
923.442	3994
923.55	4010
923.659	4032
923.767	4162
923.876	3968
923.984	4158
924.092	4025
924.201	4090
924.309	4120
924.417	4154
924.525	4109
924.633	4162
924.741	5018
924.849	3949
924.956	4162
925.064	4002
925.172	3911
925.279	4025
925.387	4074
925.494	4093
925.602	4207
925.709	4215
925.816	4090
925.924	4135
926.031	4238
926.138	4185
926.245	4230
926.352	4135
926.459	4261
926.566	4322
926.673	4173
926.779	4116
926.886	4051
926.993	3975
927.099	3979
927.206	3953
927.312	3979
927.419	4090
927.525	4044
927.631	4135
927.737	3945
927.843	3972
927.95	3857
928.056	3987
928.162	4010
928.267	4059
928.373	4580
928.479	4109
928.585	3865
928.69	4013
928.796	4055
928.901	3983
929.007	3861
929.112	4017
929.218	3987
929.323	3983
929.428	3960
929.533	4120
929.638	3903
929.743	3987
929.848	4090
929.953	4017
930.058	3953
930.163	3808
930.267	3850
930.372	4036
930.477	3835
930.581	4124
930.685	3922
930.79	3816
930.894	3903
930.998	3888
931.103	4040
931.207	3732
931.311	3740
931.415	3694
931.519	3534
931.623	3595
