Data from test_V78500241_1830.txt Node
Date: Fri Mar 25 17:01:43 CST 2022
User: usil
Spectrometer: V785-0024
Trigger mode: 0
Integration Time (sec): 4.000000E-1
Scans to average: 1
Nonlinearity correction enabled: false
Boxcar width: 0
Storing dark spectrum: false
XAxis mode: Wavelengths
Number of Pixels in Spectrum: 1024
>>>>>Begin Spectral Data<<<<<
801.071	8005
801.214	7978
801.356	7864
801.499	7845
801.641	7814
801.783	7856
801.926	7932
802.068	7940
802.211	7997
802.353	7986
802.496	7852
802.638	7788
802.78	7951
802.923	7921
803.065	7890
803.208	7807
803.35	7944
803.492	8096
803.635	8164
803.777	8062
803.919	8096
804.061	8457
804.204	8199
804.346	8050
804.488	7982
804.63	8088
804.773	8031
804.915	8157
805.057	8267
805.199	8161
805.341	8187
805.483	8240
805.626	8214
805.768	8065
805.91	8187
806.052	8199
806.194	8123
806.336	8343
806.478	8130
806.62	8054
806.762	8161
806.904	8298
807.046	8499
807.188	8400
807.33	8305
807.472	8290
807.614	8199
807.756	8035
807.898	7993
808.04	7902
808.182	7890
808.324	7849
808.465	7913
808.607	8054
808.749	8123
808.891	8191
809.033	8351
809.174	8180
809.316	8062
809.458	8073
809.6	7993
809.741	8001
809.883	8035
810.025	8058
810.166	8069
810.308	8027
810.45	7951
810.591	7868
810.733	7734
810.875	7674
811.016	7537
811.158	7453
811.299	7582
811.441	7731
811.582	7666
811.724	7578
811.865	7491
812.007	7597
812.148	7616
812.29	7601
812.431	7715
812.573	7879
812.714	8020
812.855	8191
812.997	8153
813.138	8290
813.279	8191
813.421	8058
813.562	7928
813.703	7833
813.845	7719
813.986	7483
814.127	7221
814.268	7255
814.41	7168
814.551	7168
814.692	7228
814.833	7080
814.974	7057
815.115	7099
815.256	7008
815.397	6947
815.539	6943
815.68	6840
815.821	6814
815.962	6856
816.103	6726
816.244	6700
816.385	6612
816.526	6589
816.666	6513
816.807	6342
816.948	6437
817.089	6437
817.23	6429
817.371	6357
817.512	6334
817.653	6346
817.793	6327
817.934	6311
818.075	6376
818.216	6426
818.356	6391
818.497	6258
818.638	6133
818.778	6110
818.919	6136
819.06	6136
819.2	6308
819.341	6334
819.481	6346
819.622	6483
819.762	6734
819.903	6711
820.043	6544
820.184	6597
820.324	6616
820.465	6711
820.605	6654
820.746	6642
820.886	6437
821.026	6597
821.167	6692
821.307	6768
821.447	6776
821.588	6669
821.728	6604
821.868	6502
822.008	6304
822.149	6395
822.289	6308
822.429	6102
822.569	6133
822.709	6087
822.849	5904
822.99	5866
823.13	5870
823.27	5904
823.41	5790
823.55	5748
823.69	5726
823.83	5790
823.97	5668
824.11	5535
824.25	5452
824.389	5600
824.529	5596
824.669	5497
824.809	5630
824.949	5638
825.089	5611
825.228	5562
825.368	5376
825.508	5383
825.648	5307
825.787	5326
825.927	5357
826.067	5334
826.206	5280
826.346	5391
826.485	5387
826.625	5421
826.765	5551
826.904	5505
827.044	5368
827.183	5208
827.323	5159
827.462	5269
827.601	5174
827.741	5231
827.88	5220
828.02	5102
828.159	5288
828.298	5383
828.437	5387
828.577	5303
828.716	5509
828.855	5261
828.994	5201
829.134	5155
829.273	5178
829.412	5151
829.551	5174
829.69	5174
829.829	5315
829.968	5376
830.107	5299
830.246	5353
830.385	5197
830.524	5155
830.663	5045
830.802	4957
830.941	4881
831.08	4953
831.219	5037
831.357	5006
831.496	5193
831.635	4949
831.774	4877
831.913	4862
832.051	4805
832.19	4767
832.329	4904
832.467	4744
832.606	4683
832.744	4778
832.883	4793
833.022	4725
833.16	4805
833.299	4850
833.437	4889
833.576	4858
833.714	4850
833.852	4915
833.991	4919
834.129	5022
834.267	4972
834.406	4961
834.544	4980
834.682	4984
834.821	4980
834.959	5197
835.097	5006
835.235	5197
835.373	5083
835.511	5151
835.65	5064
835.788	5048
835.926	4934
836.064	4889
836.202	4987
836.34	5204
836.478	5254
836.615	5178
836.753	5235
836.891	5337
837.029	5261
837.167	5280
837.305	5178
837.443	5128
837.58	5136
837.718	5296
837.856	5201
837.993	5185
838.131	5296
838.269	5204
838.406	5261
838.544	5246
838.681	5067
838.819	5029
838.956	4953
839.094	4934
839.231	5022
839.369	5102
839.506	5421
839.643	5353
839.781	5094
839.918	5052
840.055	5102
840.193	5113
840.33	5170
840.467	5170
840.604	5208
840.742	5455
840.879	5083
841.016	5086
841.153	5178
841.29	5410
841.427	5353
841.564	5372
841.701	5357
841.838	5299
841.975	5303
842.112	5273
842.249	5162
842.385	5197
842.522	5345
842.659	5223
842.796	5124
842.933	5204
843.069	5185
843.206	5201
843.343	5311
843.479	5258
843.616	5315
843.752	5075
843.889	5033
844.025	5227
844.162	5048
844.298	5242
844.435	5102
844.571	5086
844.708	5212
844.844	5326
844.98	5395
845.117	5349
845.253	5189
845.389	5174
845.525	5197
845.661	5159
845.798	5056
845.934	5128
846.07	5079
846.206	5242
846.342	5288
846.478	5197
846.614	5064
846.75	4976
846.886	4965
847.022	5151
847.158	5064
847.294	5075
847.429	5121
847.565	5102
847.701	5315
847.837	4908
847.972	4828
848.108	5014
848.244	4995
848.379	4854
848.515	4755
848.65	4710
848.786	4790
848.921	4771
849.057	4911
849.192	4900
849.328	4820
849.463	4870
849.598	4816
849.734	4759
849.869	4664
850.004	4675
850.14	4675
850.275	4611
850.41	4542
850.545	4580
850.68	4645
850.815	4645
850.95	4622
851.085	4908
851.22	4786
851.355	4672
851.49	4691
851.625	4668
851.76	4744
851.895	4569
852.03	4603
852.165	4672
852.299	4717
852.434	4835
852.569	4767
852.703	4782
852.838	4873
852.973	4949
853.107	4949
853.242	4793
853.376	4698
853.511	4577
853.645	4630
853.78	4866
853.914	4744
854.048	4721
854.183	4702
854.317	4725
854.451	4934
854.585	4694
854.72	4672
854.854	4774
854.988	4615
855.122	4668
855.256	4550
855.39	4687
855.524	4820
855.658	4706
855.792	4805
855.926	4752
856.06	4733
856.194	4850
856.327	4755
856.461	4607
856.595	4645
856.729	4637
856.862	4740
856.996	4717
857.13	4733
857.263	4786
857.397	4793
857.53	4672
857.664	4763
857.797	4778
857.931	4786
858.064	4706
858.197	4748
858.331	4656
858.464	4653
858.597	4497
858.731	4641
858.864	4698
858.997	4664
859.13	4694
859.263	4645
859.396	4694
859.529	4611
859.662	4603
859.795	4573
859.928	4630
860.061	4786
860.194	4755
860.327	4626
860.46	4603
860.592	4759
860.725	4740
860.858	4774
860.99	4584
861.123	4573
861.256	4535
861.388	4569
861.521	5425
861.653	4527
861.786	4485
861.918	4474
862.05	4565
862.183	4615
862.315	4649
862.447	4698
862.58	4538
862.712	4432
862.844	4356
862.976	4493
863.108	4481
863.24	4915
863.372	4337
863.504	4493
863.636	4424
863.768	4504
863.9	4443
864.032	4398
864.164	4383
864.296	4500
864.428	4565
864.559	4603
864.691	4538
864.823	4550
864.954	4523
865.086	4481
865.217	4516
865.349	4417
865.48	4508
865.612	4523
865.743	4615
865.875	4462
866.006	4428
866.137	4531
866.269	4443
866.4	4470
866.531	4440
866.662	4386
866.793	4379
866.924	4440
867.055	4489
867.186	4481
867.317	4421
867.448	4352
867.579	4436
867.71	4379
867.841	4360
867.972	4519
868.103	4535
868.233	4451
868.364	4493
868.495	4561
868.625	4694
868.756	4805
868.886	4607
869.017	4634
869.147	4774
869.278	4786
869.408	4679
869.539	4679
869.669	4729
869.799	4714
869.929	4774
870.06	4748
870.19	4961
870.32	4938
870.45	4953
870.58	5037
870.71	5098
870.84	5159
870.97	4934
871.1	4911
871.23	5136
871.36	5124
871.489	5037
871.619	5140
871.749	5090
871.879	5159
872.008	5239
872.138	5045
872.267	5010
872.397	4843
872.526	4870
872.656	4763
872.785	4820
872.915	4980
873.044	5048
873.173	4995
873.303	5010
873.432	4980
873.561	4972
873.69	4919
873.819	4873
873.948	4957
874.077	4866
874.206	4782
874.335	4797
874.464	4972
874.593	5102
874.722	4965
874.851	5109
874.979	5083
875.108	5052
875.237	4885
875.365	4885
875.494	4923
875.623	5010
875.751	4885
875.88	4850
876.008	5025
876.136	5048
876.265	5239
876.393	5303
876.521	5227
876.65	5254
876.778	5151
876.906	5075
877.034	5033
877.162	5079
877.29	5003
877.418	5109
877.546	5037
877.674	5010
877.802	5025
877.93	5102
878.058	4915
878.185	4843
878.313	4995
878.441	4972
878.568	4801
878.696	4889
878.824	4965
878.951	5010
879.079	5143
879.206	5318
879.333	5132
879.461	4980
879.588	5052
879.715	5128
879.842	5212
879.97	5048
880.097	4801
880.224	4774
880.351	4866
880.478	4854
880.605	4820
880.732	4828
880.859	5090
880.986	4942
881.112	4953
881.239	4752
881.366	4694
881.493	4626
881.619	4607
881.746	4679
881.872	4637
881.999	4656
882.125	4759
882.252	4763
882.378	4820
882.505	4923
882.631	4843
882.757	4698
882.883	4725
883.01	4740
883.136	4687
883.262	4622
883.388	4573
883.514	4862
883.64	4885
883.766	4831
883.892	4702
884.018	4740
884.143	4949
884.269	4968
884.395	4721
884.52	4672
884.646	4615
884.772	4580
884.897	4554
885.023	4649
885.148	4797
885.274	4847
885.399	4866
885.524	4752
885.65	4733
885.775	4752
885.9	4744
886.025	4862
886.15	4850
886.275	4771
886.4	4675
886.525	4702
886.65	4710
886.775	4721
886.9	4968
887.025	5037
887.149	4763
887.274	4683
887.399	4565
887.523	4615
887.648	4561
887.773	4599
887.897	4774
888.021	4778
888.146	4725
888.27	4824
888.395	4885
888.519	4828
888.643	4801
888.767	4782
888.891	4717
889.015	4626
889.139	4752
889.263	4679
889.387	4801
889.511	4885
889.635	4828
889.759	4679
889.883	4702
890.006	4805
890.13	4839
890.254	4679
890.377	4694
890.501	4558
890.624	4523
890.748	4626
890.871	4531
890.995	4447
891.118	4398
891.241	4527
891.364	4577
891.488	4630
891.611	4558
891.734	4523
891.857	4615
891.98	4546
892.103	4675
892.226	4611
892.349	4542
892.471	4451
892.594	4599
892.717	4649
892.839	4565
892.962	4588
893.085	4679
893.207	4611
893.33	4512
893.452	4535
893.575	4668
893.697	4577
893.819	4812
893.941	4873
894.064	4759
894.186	4569
894.308	4607
894.43	4714
894.552	4824
894.674	4767
894.796	4599
894.918	4618
895.04	4584
895.161	4767
895.283	4683
895.405	4592
895.526	4599
895.648	4717
895.769	4637
895.891	4691
896.012	4744
896.134	4774
896.255	4622
896.376	4664
896.498	4641
896.619	4721
896.74	4630
896.861	4672
896.982	4896
897.103	5113
897.224	4854
897.345	4816
897.466	4687
897.587	4759
897.708	4858
897.828	4778
897.949	4641
898.07	4546
898.19	4641
898.311	4816
898.431	4710
898.552	4725
898.672	4816
898.792	4835
898.913	4736
899.033	4645
899.153	4542
899.273	4436
899.393	4550
899.513	4558
899.633	4531
899.753	4516
899.873	4462
899.993	4558
900.113	4569
900.232	4656
900.352	4516
900.472	4485
900.591	4421
900.711	4485
900.83	4455
900.95	4637
901.069	4675
901.189	4588
901.308	4409
901.427	4329
901.546	4428
901.665	4474
901.784	4497
901.904	4421
902.023	4363
902.141	4253
902.26	4166
902.379	4268
902.498	4238
902.617	4261
902.735	4356
902.854	4394
902.973	4348
903.091	4204
903.21	4219
903.328	4306
903.446	4280
903.565	4246
903.683	4329
903.801	4306
903.919	4356
904.038	4421
904.156	4322
904.274	4443
904.392	4383
904.51	4424
904.627	4459
904.745	4512
904.863	4637
904.981	4478
905.098	4291
905.216	4390
905.334	4443
905.451	4413
905.569	4436
905.686	4596
905.803	4573
905.921	4470
906.038	4573
906.155	4504
906.272	4421
906.389	4413
906.506	4402
906.623	4417
906.74	4379
906.857	4299
906.974	4390
907.091	4523
907.208	4630
907.324	4611
907.441	4500
907.557	4360
907.674	4390
907.79	4360
907.907	4417
908.023	4497
908.139	4478
908.256	4489
908.372	4493
908.488	4428
908.604	4375
908.72	4363
908.836	4375
908.952	4398
909.068	4402
909.184	4592
909.3	4500
909.415	4558
909.531	4531
909.647	4348
909.762	4360
909.878	4356
909.993	4447
910.108	4394
910.224	4421
910.339	4508
910.454	4386
910.57	4383
910.685	4329
910.8	4641
910.915	4637
911.03	4535
911.145	4299
911.259	4322
911.374	4341
911.489	4299
911.604	4329
911.718	4181
911.833	4162
911.947	4120
912.062	4036
912.176	4158
912.291	4257
912.405	4242
912.519	4432
912.633	4462
912.748	4356
912.862	4375
912.976	4261
913.09	4128
913.204	4147
913.318	4234
913.431	4413
913.545	4337
913.659	4489
913.772	4371
913.886	4215
914	4219
914.113	4352
914.226	4470
914.34	4360
914.453	4257
914.566	4402
914.68	4306
914.793	4356
914.906	4147
915.019	4131
915.132	4097
915.245	4200
915.358	4238
915.47	4246
915.583	4234
915.696	4306
915.809	4402
915.921	4424
916.034	4276
916.146	4249
916.259	4242
916.371	4402
916.483	4375
916.595	4325
916.708	4329
916.82	4341
916.932	4348
917.044	4310
917.156	4295
917.268	4242
917.38	4230
917.491	4352
917.603	4329
917.715	4432
917.826	4451
917.938	4341
918.049	4261
918.161	4428
918.272	4538
918.384	4485
918.495	4474
918.606	4329
918.717	4299
918.828	4322
918.939	4367
919.05	4223
919.161	4310
919.272	4147
919.383	4192
919.494	4474
919.604	4637
919.715	4421
919.826	4329
919.936	4386
920.047	4527
920.157	4493
920.267	4714
920.378	4558
920.488	4481
920.598	4733
920.708	4889
920.818	4793
920.928	4733
921.038	4987
921.148	4938
921.258	4626
921.368	4546
921.477	4504
921.587	4519
921.697	4356
921.806	4577
921.916	4455
922.025	4249
922.134	4284
922.244	4207
922.353	4318
922.462	4181
922.571	4154
922.68	3994
922.789	4021
922.898	4059
923.007	3945
923.116	4101
923.224	4055
923.333	4086
923.442	3964
923.55	4036
923.659	4048
923.767	4116
923.876	3979
923.984	4071
924.092	4013
924.201	4074
924.309	4067
924.417	4154
924.525	4040
924.633	4116
924.741	5048
924.849	3907
924.956	4124
925.064	4002
925.172	3888
925.279	3983
925.387	4032
925.494	4040
925.602	4230
925.709	4185
925.816	4059
925.924	4158
926.031	4196
926.138	4207
926.245	4192
926.352	4112
926.459	4234
926.566	4314
926.673	4147
926.779	4082
926.886	4067
926.993	3968
927.099	3953
927.206	3945
927.312	3918
927.419	4067
927.525	4029
927.631	4086
927.737	3941
927.843	3972
927.95	3865
928.056	3930
928.162	3956
928.267	4044
928.373	4599
928.479	4128
928.585	3915
928.69	3998
928.796	4063
928.901	3941
929.007	3835
929.112	4036
929.218	4017
929.323	3960
929.428	3918
929.533	4097
929.638	3903
929.743	3930
929.848	4044
929.953	4021
930.058	3903
930.163	3789
930.267	3861
930.372	3979
930.477	3831
930.581	4082
930.685	3953
930.79	3789
930.894	3884
930.998	3899
931.103	4051
931.207	3720
931.311	3694
931.415	3679
931.519	3492
931.623	3561
