Data from test_V78500241_318.txt Node
Date: Fri Mar 25 16:51:12 CST 2022
User: usil
Spectrometer: V785-0024
Trigger mode: 0
Integration Time (sec): 4.000000E-1
Scans to average: 1
Nonlinearity correction enabled: false
Boxcar width: 0
Storing dark spectrum: false
XAxis mode: Wavelengths
Number of Pixels in Spectrum: 1024
>>>>>Begin Spectral Data<<<<<
801.071	8039
801.214	8039
801.356	7932
801.499	7875
801.641	7830
801.783	7765
801.926	8024
802.068	8027
802.211	7978
802.353	8031
802.496	7978
802.638	7959
802.78	7928
802.923	7951
803.065	7913
803.208	7837
803.35	8005
803.492	8088
803.635	8081
803.777	7989
803.919	8123
804.061	8541
804.204	8142
804.346	8027
804.488	7989
804.63	8081
804.773	7997
804.915	8115
805.057	8279
805.199	8225
805.341	8267
805.483	8229
805.626	8214
805.768	8050
805.91	8221
806.052	8240
806.194	8157
806.336	8286
806.478	8138
806.62	8119
806.762	8187
806.904	8248
807.046	8423
807.188	8320
807.33	8324
807.472	8309
807.614	8088
807.756	8107
807.898	8035
808.04	7902
808.182	7898
808.324	8054
808.465	7967
808.607	8046
808.749	8115
808.891	8229
809.033	8298
809.174	8153
809.316	8081
809.458	8058
809.6	8001
809.741	8016
809.883	8039
810.025	8043
810.166	8096
810.308	8054
810.45	8062
810.591	7864
810.733	7731
810.875	7628
811.016	7586
811.158	7499
811.299	7609
811.441	7788
811.582	7689
811.724	7548
811.865	7556
812.007	7647
812.148	7636
812.29	7712
812.431	7696
812.573	7868
812.714	7947
812.855	8100
812.997	8149
813.138	8313
813.279	8149
813.421	8123
813.562	8024
813.703	7902
813.845	7738
813.986	7449
814.127	7263
814.268	7225
814.41	7247
814.551	7175
814.692	7137
814.833	7103
814.974	7076
815.115	7080
815.256	7000
815.397	6905
815.539	6970
815.68	6791
815.821	6829
815.962	6882
816.103	6871
816.244	6711
816.385	6764
816.526	6627
816.666	6521
816.807	6292
816.948	6437
817.089	6483
817.23	6407
817.371	6376
817.512	6395
817.653	6437
817.793	6429
817.934	6418
818.075	6460
818.216	6464
818.356	6441
818.497	6224
818.638	6110
818.778	6182
818.919	6125
819.06	6083
819.2	6327
819.341	6258
819.481	6338
819.622	6498
819.762	6745
819.903	6734
820.043	6570
820.184	6513
820.324	6521
820.465	6673
820.605	6620
820.746	6608
820.886	6506
821.026	6642
821.167	6700
821.307	6772
821.447	6791
821.588	6688
821.728	6597
821.868	6544
822.008	6384
822.149	6369
822.289	6327
822.429	6171
822.569	6098
822.709	6144
822.849	5874
822.99	5859
823.13	5927
823.27	5866
823.41	5870
823.55	5767
823.69	5752
823.83	5718
823.97	5676
824.11	5558
824.25	5505
824.389	5516
824.529	5596
824.669	5543
824.809	5604
824.949	5695
825.089	5592
825.228	5665
825.368	5455
825.508	5357
825.648	5353
825.787	5364
825.927	5372
826.067	5311
826.206	5273
826.346	5379
826.485	5395
826.625	5417
826.765	5562
826.904	5490
827.044	5296
827.183	5189
827.323	5102
827.462	5265
827.601	5155
827.741	5189
827.88	5239
828.02	5117
828.159	5280
828.298	5307
828.437	5357
828.577	5254
828.716	5467
828.855	5334
828.994	5170
829.134	5166
829.273	5193
829.412	5140
829.551	5136
829.69	5124
829.829	5284
829.968	5364
830.107	5318
830.246	5288
830.385	5204
830.524	5140
830.663	5064
830.802	5025
830.941	4892
831.08	4885
831.219	4934
831.357	4972
831.496	5147
831.635	4942
831.774	4790
831.913	4843
832.051	4714
832.19	4748
832.329	4809
832.467	4721
832.606	4596
832.744	4748
832.883	4767
833.022	4767
833.16	4805
833.299	4835
833.437	4839
833.576	4809
833.714	4820
833.852	4828
833.991	4843
834.129	4961
834.267	4953
834.406	4942
834.544	5014
834.682	5010
834.821	4934
834.959	5151
835.097	5029
835.235	5147
835.373	5098
835.511	5109
835.65	5071
835.788	5003
835.926	4904
836.064	4904
836.202	4889
836.34	5117
836.478	5242
836.615	5121
836.753	5204
836.891	5299
837.029	5269
837.167	5208
837.305	5162
837.443	5151
837.58	5083
837.718	5258
837.856	5254
837.993	5170
838.131	5239
838.269	5239
838.406	5235
838.544	5189
838.681	5037
838.819	5003
838.956	4934
839.094	4923
839.231	4957
839.369	5109
839.506	5474
839.643	5227
839.781	5094
839.918	5041
840.055	5102
840.193	5113
840.33	5128
840.467	5105
840.604	5204
840.742	5459
840.879	5067
841.016	5098
841.153	5136
841.29	5436
841.427	5318
841.564	5337
841.701	5391
841.838	5315
841.975	5212
842.112	5231
842.249	5132
842.385	5128
842.522	5337
842.659	5140
842.796	5162
842.933	5197
843.069	5132
843.206	5155
843.343	5280
843.479	5311
843.616	5212
843.752	5045
843.889	5003
844.025	5220
844.162	5022
844.298	5117
844.435	5094
844.571	5052
844.708	5181
844.844	5273
844.98	5353
845.117	5265
845.253	5170
845.389	5048
845.525	5185
845.661	5113
845.798	5018
845.934	5124
846.07	5056
846.206	5201
846.342	5269
846.478	5208
846.614	5067
846.75	4999
846.886	4904
847.022	5147
847.158	5067
847.294	5056
847.429	5090
847.565	5075
847.701	5299
847.837	4839
847.972	4824
848.108	4984
848.244	4961
848.379	4812
848.515	4710
848.65	4725
848.786	4725
848.921	4812
849.057	4881
849.192	4965
849.328	4801
849.463	4896
849.598	4820
849.734	4831
849.869	4679
850.004	4664
850.14	4714
850.275	4653
850.41	4561
850.545	4603
850.68	4618
850.815	4656
850.95	4622
851.085	4877
851.22	4717
851.355	4725
851.49	4618
851.625	4622
851.76	4611
851.895	4618
852.03	4527
852.165	4664
852.299	4725
852.434	4755
852.569	4812
852.703	4763
852.838	4854
852.973	4927
853.107	4889
853.242	4729
853.376	4694
853.511	4577
853.645	4645
853.78	4786
853.914	4668
854.048	4656
854.183	4660
854.317	4660
854.451	4843
854.585	4717
854.72	4664
854.854	4763
854.988	4565
855.122	4603
855.256	4531
855.39	4637
855.524	4782
855.658	4717
855.792	4702
855.926	4733
856.06	4733
856.194	4793
856.327	4733
856.461	4618
856.595	4626
856.729	4626
856.862	4714
856.996	4698
857.13	4706
857.263	4706
857.397	4828
857.53	4702
857.664	4729
857.797	4786
857.931	4797
858.064	4721
858.197	4759
858.331	4641
858.464	4573
858.597	4546
858.731	4592
858.864	4599
858.997	4599
859.13	4641
859.263	4706
859.396	4733
859.529	4592
859.662	4599
859.795	4558
859.928	4584
860.061	4717
860.194	4748
860.327	4565
860.46	4561
860.592	4668
860.725	4771
860.858	4698
860.99	4596
861.123	4447
861.256	4504
861.388	4622
861.521	5353
861.653	4519
861.786	4451
861.918	4432
862.05	4489
862.183	4588
862.315	4618
862.447	4641
862.58	4519
862.712	4440
862.844	4322
862.976	4554
863.108	4459
863.24	4915
863.372	4325
863.504	4413
863.636	4413
863.768	4497
863.9	4421
864.032	4386
864.164	4375
864.296	4474
864.428	4538
864.559	4554
864.691	4542
864.823	4558
864.954	4504
865.086	4516
865.217	4504
865.349	4459
865.48	4474
865.612	4523
865.743	4630
865.875	4470
866.006	4421
866.137	4459
866.269	4455
866.4	4474
866.531	4432
866.662	4379
866.793	4402
866.924	4417
867.055	4485
867.186	4470
867.317	4409
867.448	4375
867.579	4405
867.71	4405
867.841	4394
867.972	4436
868.103	4474
868.233	4447
868.364	4436
868.495	4512
868.625	4729
868.756	4755
868.886	4558
869.017	4599
869.147	4771
869.278	4748
869.408	4649
869.539	4653
869.669	4733
869.799	4634
869.929	4733
870.06	4729
870.19	4946
870.32	4900
870.45	4972
870.58	4991
870.71	5155
870.84	5109
870.97	4946
871.1	4900
871.23	5147
871.36	5117
871.489	5033
871.619	5075
871.749	5117
871.879	5098
872.008	5201
872.138	5121
872.267	4961
872.397	4790
872.526	4812
872.656	4736
872.785	4801
872.915	4984
873.044	5048
873.173	4938
873.303	4942
873.432	4949
873.561	4923
873.69	4915
873.819	4873
873.948	4904
874.077	4809
874.206	4786
874.335	4790
874.464	4892
874.593	5083
874.722	4911
874.851	5113
874.979	5056
875.108	5048
875.237	4877
875.365	4847
875.494	4904
875.623	5003
875.751	4877
875.88	4946
876.008	5018
876.136	5018
876.265	5223
876.393	5364
876.521	5277
876.65	5220
876.778	5174
876.906	5064
877.034	4980
877.162	5033
877.29	5014
877.418	5086
877.546	5056
877.674	5022
877.802	5022
877.93	5033
878.058	4934
878.185	4873
878.313	4965
878.441	4972
878.568	4839
878.696	4850
878.824	4968
878.951	5029
879.079	5079
879.206	5288
879.333	5098
879.461	5006
879.588	5025
879.715	5155
879.842	5201
879.97	4999
880.097	4831
880.224	4752
880.351	4797
880.478	4847
880.605	4824
880.732	4763
880.859	5098
880.986	4873
881.112	4911
881.239	4809
881.366	4691
881.493	4599
881.619	4637
881.746	4584
881.872	4656
881.999	4630
882.125	4733
882.252	4782
882.378	4835
882.505	4987
882.631	4782
882.757	4698
882.883	4710
883.01	4683
883.136	4626
883.262	4588
883.388	4630
883.514	4812
883.64	4866
883.766	4793
883.892	4656
884.018	4733
884.143	4892
884.269	5014
884.395	4679
884.52	4672
884.646	4679
884.772	4565
884.897	4561
885.023	4672
885.148	4805
885.274	4847
885.399	4816
885.524	4733
885.65	4717
885.775	4740
885.9	4733
886.025	4896
886.15	4816
886.275	4714
886.4	4634
886.525	4771
886.65	4679
886.775	4641
886.9	4942
887.025	5037
887.149	4870
887.274	4656
887.399	4550
887.523	4664
887.648	4622
887.773	4611
887.897	4793
888.021	4786
888.146	4664
888.27	4831
888.395	4980
888.519	4820
888.643	4809
888.767	4831
888.891	4736
889.015	4584
889.139	4672
889.263	4622
889.387	4797
889.511	4839
889.635	4797
889.759	4546
889.883	4683
890.006	4710
890.13	4835
890.254	4622
890.377	4721
890.501	4550
890.624	4512
890.748	4641
890.871	4527
890.995	4462
891.118	4405
891.241	4565
891.364	4565
891.488	4622
891.611	4478
891.734	4531
891.857	4637
891.98	4535
892.103	4672
892.226	4599
892.349	4569
892.471	4402
892.594	4561
892.717	4584
892.839	4565
892.962	4615
893.085	4679
893.207	4637
893.33	4451
893.452	4535
893.575	4656
893.697	4588
893.819	4824
893.941	4828
894.064	4809
894.186	4569
894.308	4561
894.43	4755
894.552	4759
894.674	4771
894.796	4546
894.918	4603
895.04	4588
895.161	4691
895.283	4618
895.405	4565
895.526	4618
895.648	4706
895.769	4710
895.891	4733
896.012	4744
896.134	4767
896.255	4634
896.376	4649
896.498	4561
896.619	4717
896.74	4599
896.861	4622
896.982	4927
897.103	5037
897.224	4854
897.345	4790
897.466	4702
897.587	4767
897.708	4877
897.828	4805
897.949	4717
898.07	4531
898.19	4615
898.311	4839
898.431	4706
898.552	4710
898.672	4835
898.792	4763
898.913	4755
899.033	4656
899.153	4523
899.273	4413
899.393	4538
899.513	4519
899.633	4550
899.753	4561
899.873	4523
899.993	4573
900.113	4565
900.232	4622
900.352	4565
900.472	4481
900.591	4424
900.711	4497
900.83	4466
900.95	4668
901.069	4660
901.189	4561
901.308	4417
901.427	4337
901.546	4409
901.665	4474
901.784	4531
901.904	4402
902.023	4287
902.141	4185
902.26	4173
902.379	4314
902.498	4227
902.617	4238
902.735	4329
902.854	4409
902.973	4356
903.091	4230
903.21	4246
903.328	4303
903.446	4276
903.565	4227
903.683	4348
903.801	4265
903.919	4398
904.038	4424
904.156	4295
904.274	4436
904.392	4383
904.51	4462
904.627	4466
904.745	4599
904.863	4637
904.981	4417
905.098	4314
905.216	4375
905.334	4409
905.451	4500
905.569	4443
905.686	4584
905.803	4558
905.921	4413
906.038	4569
906.155	4466
906.272	4424
906.389	4470
906.506	4348
906.623	4360
906.74	4360
906.857	4318
906.974	4363
907.091	4618
907.208	4641
907.324	4558
907.441	4516
907.557	4386
907.674	4344
907.79	4329
907.907	4375
908.023	4504
908.139	4512
908.256	4436
908.372	4462
908.488	4504
908.604	4352
908.72	4314
908.836	4409
908.952	4360
909.068	4478
909.184	4554
909.3	4508
909.415	4569
909.531	4561
909.647	4344
909.762	4375
909.878	4322
909.993	4421
910.108	4428
910.224	4451
910.339	4527
910.454	4424
910.57	4379
910.685	4291
910.8	4675
910.915	4577
911.03	4512
911.145	4367
911.259	4363
911.374	4360
911.489	4322
911.604	4295
911.718	4196
911.833	4177
911.947	4112
912.062	4013
912.176	4234
912.291	4265
912.405	4284
912.519	4455
912.633	4527
912.748	4386
912.862	4291
912.976	4242
913.09	4105
913.204	4158
913.318	4280
913.431	4360
913.545	4348
913.659	4504
913.772	4386
913.886	4280
914	4234
914.113	4386
914.226	4405
914.34	4390
914.453	4242
914.566	4436
914.68	4306
914.793	4333
914.906	4173
915.019	4150
915.132	4044
915.245	4185
915.358	4200
915.47	4234
915.583	4249
915.696	4284
915.809	4383
915.921	4466
916.034	4276
916.146	4280
916.259	4227
916.371	4379
916.483	4383
916.595	4265
916.708	4318
916.82	4306
916.932	4352
917.044	4322
917.156	4386
917.268	4234
917.38	4246
917.491	4295
917.603	4344
917.715	4398
917.826	4455
917.938	4333
918.049	4261
918.161	4424
918.272	4573
918.384	4577
918.495	4459
918.606	4310
918.717	4215
918.828	4322
918.939	4352
919.05	4287
919.161	4348
919.272	4120
919.383	4219
919.494	4436
919.604	4653
919.715	4428
919.826	4390
919.936	4367
920.047	4478
920.157	4519
920.267	4717
920.378	4573
920.488	4538
920.598	4687
920.708	4881
920.818	4774
920.928	4809
921.038	4915
921.148	4896
921.258	4634
921.368	4531
921.477	4481
921.587	4432
921.697	4371
921.806	4523
921.916	4485
922.025	4291
922.134	4257
922.244	4249
922.353	4337
922.462	4143
922.571	4105
922.68	3998
922.789	3987
922.898	4082
923.007	3983
923.116	4097
923.224	4105
923.333	4124
923.442	3983
923.55	3979
923.659	4017
923.767	4071
923.876	3953
923.984	4188
924.092	3994
924.201	4082
924.309	4101
924.417	4101
924.525	4040
924.633	4097
924.741	4854
924.849	3892
924.956	4150
925.064	3968
925.172	3918
925.279	3937
925.387	4044
925.494	4082
925.602	4215
925.709	4166
925.816	4067
925.924	4124
926.031	4234
926.138	4177
926.245	4192
926.352	4086
926.459	4227
926.566	4329
926.673	4150
926.779	4059
926.886	4059
926.993	3975
927.099	3956
927.206	3945
927.312	3956
927.419	4040
927.525	4017
927.631	4147
927.737	3960
927.843	3994
927.95	3827
928.056	3956
928.162	3998
928.267	4067
928.373	4691
928.479	4131
928.585	3854
928.69	3998
928.796	4071
928.901	3964
929.007	3819
929.112	4013
929.218	3953
929.323	3922
929.428	3918
929.533	4139
929.638	3934
929.743	3953
929.848	4071
929.953	3983
930.058	3956
930.163	3819
930.267	3842
930.372	3934
930.477	3778
930.581	4078
930.685	3937
930.79	3842
930.894	3903
930.998	3823
931.103	3987
931.207	3766
931.311	3740
931.415	3724
931.519	3519
931.623	3526
