Data from test_V78500241_1366.txt Node
Date: Fri Mar 25 16:58:29 CST 2022
User: usil
Spectrometer: V785-0024
Trigger mode: 0
Integration Time (sec): 4.000000E-1
Scans to average: 1
Nonlinearity correction enabled: false
Boxcar width: 0
Storing dark spectrum: false
XAxis mode: Wavelengths
Number of Pixels in Spectrum: 1024
>>>>>Begin Spectral Data<<<<<
801.071	7947
801.214	7970
801.356	7856
801.499	7852
801.641	7719
801.783	7799
801.926	7970
802.068	7967
802.211	7963
802.353	7974
802.496	7860
802.638	7803
802.78	7890
802.923	7932
803.065	7890
803.208	7849
803.35	7982
803.492	8005
803.635	8123
803.777	7986
803.919	8069
804.061	8457
804.204	8210
804.346	8024
804.488	7978
804.63	8012
804.773	8020
804.915	8069
805.057	8317
805.199	8153
805.341	8191
805.483	8237
805.626	8229
805.768	8039
805.91	8157
806.052	8138
806.194	8096
806.336	8259
806.478	8073
806.62	8035
806.762	8168
806.904	8275
807.046	8427
807.188	8324
807.33	8206
807.472	8370
807.614	8157
807.756	8119
807.898	7978
808.04	7898
808.182	7906
808.324	7811
808.465	7951
808.607	8115
808.749	8111
808.891	8259
809.033	8332
809.174	8202
809.316	8024
809.458	8103
809.6	7936
809.741	8016
809.883	8016
810.025	8043
810.166	8043
810.308	8027
810.45	7989
810.591	7883
810.733	7715
810.875	7674
811.016	7483
811.158	7468
811.299	7601
811.441	7765
811.582	7685
811.724	7594
811.865	7533
812.007	7582
812.148	7533
812.29	7605
812.431	7696
812.573	7833
812.714	7944
812.855	8130
812.997	8210
813.138	8347
813.279	8157
813.421	8088
813.562	7951
813.703	7898
813.845	7727
813.986	7457
814.127	7198
814.268	7232
814.41	7221
814.551	7198
814.692	7175
814.833	7122
814.974	7050
815.115	6993
815.256	6897
815.397	6928
815.539	6928
815.68	6840
815.821	6806
815.962	6825
816.103	6814
816.244	6738
816.385	6604
816.526	6623
816.666	6460
816.807	6304
816.948	6407
817.089	6483
817.23	6429
817.371	6304
817.512	6414
817.653	6384
817.793	6372
817.934	6376
818.075	6509
818.216	6433
818.356	6350
818.497	6232
818.638	6140
818.778	6129
818.919	6095
819.06	6178
819.2	6270
819.341	6292
819.481	6346
819.622	6498
819.762	6738
819.903	6738
820.043	6627
820.184	6578
820.324	6612
820.465	6665
820.605	6627
820.746	6658
820.886	6544
821.026	6639
821.167	6722
821.307	6798
821.447	6776
821.588	6677
821.728	6547
821.868	6467
822.008	6315
822.149	6369
822.289	6350
822.429	6136
822.569	6045
822.709	6095
822.849	5844
822.99	5813
823.13	5931
823.27	5904
823.41	5767
823.55	5783
823.69	5737
823.83	5794
823.97	5581
824.11	5551
824.25	5505
824.389	5543
824.529	5585
824.669	5493
824.809	5668
824.949	5627
825.089	5592
825.228	5516
825.368	5414
825.508	5345
825.648	5337
825.787	5376
825.927	5322
826.067	5220
826.206	5235
826.346	5364
826.485	5368
826.625	5436
826.765	5539
826.904	5444
827.044	5193
827.183	5212
827.323	5136
827.462	5269
827.601	5143
827.741	5231
827.88	5204
828.02	5067
828.159	5242
828.298	5303
828.437	5318
828.577	5273
828.716	5467
828.855	5292
828.994	5113
829.134	5159
829.273	5212
829.412	5132
829.551	5159
829.69	5121
829.829	5250
829.968	5391
830.107	5277
830.246	5212
830.385	5121
830.524	5143
830.663	5037
830.802	4976
830.941	4900
831.08	4873
831.219	5010
831.357	4965
831.496	5094
831.635	4892
831.774	4801
831.913	4828
832.051	4698
832.19	4778
832.329	4870
832.467	4694
832.606	4607
832.744	4729
832.883	4714
833.022	4694
833.16	4767
833.299	4748
833.437	4805
833.576	4843
833.714	4904
833.852	4847
833.991	4866
834.129	4900
834.267	4957
834.406	4881
834.544	5003
834.682	4949
834.821	4953
834.959	5151
835.097	4999
835.235	5064
835.373	5098
835.511	5056
835.65	5037
835.788	5025
835.926	4881
836.064	4862
836.202	4873
836.34	5185
836.478	5155
836.615	5083
836.753	5197
836.891	5246
837.029	5220
837.167	5185
837.305	5170
837.443	5155
837.58	5079
837.718	5174
837.856	5166
837.993	5140
838.131	5223
838.269	5147
838.406	5181
838.544	5159
838.681	4987
838.819	5022
838.956	4828
839.094	4892
839.231	4961
839.369	5075
839.506	5398
839.643	5235
839.781	5090
839.918	4987
840.055	5086
840.193	5025
840.33	5105
840.467	5109
840.604	5117
840.742	5395
840.879	5071
841.016	5075
841.153	5086
841.29	5330
841.427	5334
841.564	5303
841.701	5345
841.838	5208
841.975	5220
842.112	5269
842.249	5124
842.385	5060
842.522	5318
842.659	5094
842.796	5166
842.933	5159
843.069	5174
843.206	5159
843.343	5299
843.479	5166
843.616	5197
843.752	4999
843.889	5037
844.025	5212
844.162	5025
844.298	5258
844.435	5079
844.571	5022
844.708	5170
844.844	5284
844.98	5299
845.117	5254
845.253	5147
845.389	5079
845.525	5037
845.661	5121
845.798	5041
845.934	5113
846.07	5052
846.206	5162
846.342	5254
846.478	5159
846.614	4961
846.75	4908
846.886	4930
847.022	5140
847.158	5010
847.294	5056
847.429	5033
847.565	5060
847.701	5311
847.837	4809
847.972	4744
848.108	4946
848.244	4904
848.379	4733
848.515	4748
848.65	4717
848.786	4691
848.921	4744
849.057	4828
849.192	4889
849.328	4752
849.463	4759
849.598	4805
849.734	4736
849.869	4664
850.004	4603
850.14	4637
850.275	4630
850.41	4519
850.545	4565
850.68	4573
850.815	4588
850.95	4622
851.085	4812
851.22	4744
851.355	4668
851.49	4588
851.625	4611
851.76	4580
851.895	4580
852.03	4554
852.165	4637
852.299	4702
852.434	4786
852.569	4752
852.703	4736
852.838	4771
852.973	4885
853.107	4904
853.242	4748
853.376	4649
853.511	4531
853.645	4637
853.78	4759
853.914	4710
854.048	4706
854.183	4618
854.317	4645
854.451	4881
854.585	4641
854.72	4618
854.854	4752
854.988	4607
855.122	4649
855.256	4459
855.39	4660
855.524	4782
855.658	4729
855.792	4683
855.926	4729
856.06	4702
856.194	4816
856.327	4687
856.461	4607
856.595	4683
856.729	4656
856.862	4744
856.996	4710
857.13	4755
857.263	4805
857.397	4767
857.53	4641
857.664	4744
857.797	4710
857.931	4771
858.064	4717
858.197	4733
858.331	4649
858.464	4645
858.597	4523
858.731	4691
858.864	4622
858.997	4637
859.13	4691
859.263	4645
859.396	4721
859.529	4577
859.662	4626
859.795	4546
859.928	4622
860.061	4763
860.194	4778
860.327	4645
860.46	4596
860.592	4729
860.725	4748
860.858	4748
860.99	4611
861.123	4584
861.256	4588
861.388	4694
861.521	5349
861.653	4500
861.786	4462
861.918	4455
862.05	4569
862.183	4584
862.315	4683
862.447	4706
862.58	4577
862.712	4443
862.844	4341
862.976	4542
863.108	4500
863.24	4904
863.372	4344
863.504	4447
863.636	4440
863.768	4558
863.9	4489
864.032	4413
864.164	4413
864.296	4508
864.428	4618
864.559	4599
864.691	4542
864.823	4527
864.954	4569
865.086	4538
865.217	4523
865.349	4443
865.48	4432
865.612	4538
865.743	4672
865.875	4527
866.006	4489
866.137	4523
866.269	4497
866.4	4481
866.531	4432
866.662	4447
866.793	4390
866.924	4474
867.055	4489
867.186	4497
867.317	4398
867.448	4390
867.579	4379
867.71	4447
867.841	4398
867.972	4493
868.103	4443
868.233	4470
868.364	4478
868.495	4493
868.625	4714
868.756	4816
868.886	4554
869.017	4675
869.147	4786
869.278	4790
869.408	4710
869.539	4641
869.669	4736
869.799	4691
869.929	4778
870.06	4740
870.19	4984
870.32	4904
870.45	4942
870.58	4980
870.71	5048
870.84	5181
870.97	4972
871.1	4938
871.23	5140
871.36	5136
871.489	5083
871.619	5064
871.749	5105
871.879	5083
872.008	5231
872.138	5109
872.267	4965
872.397	4885
872.526	4854
872.656	4767
872.785	4835
872.915	5018
873.044	5071
873.173	4934
873.303	4934
873.432	4968
873.561	4976
873.69	4934
873.819	4862
873.948	4934
874.077	4900
874.206	4782
874.335	4755
874.464	4946
874.593	5090
874.722	4942
874.851	5109
874.979	5056
875.108	5064
875.237	4938
875.365	4900
875.494	4889
875.623	4999
875.751	4835
875.88	4923
876.008	4984
876.136	5045
876.265	5166
876.393	5372
876.521	5303
876.65	5254
876.778	5143
876.906	5071
877.034	5064
877.162	5060
877.29	5056
877.418	5140
877.546	5056
877.674	5037
877.802	5086
877.93	5018
878.058	4980
878.185	4870
878.313	4934
878.441	4984
878.568	4828
878.696	4862
878.824	5041
878.951	4999
879.079	5151
879.206	5265
879.333	5117
879.461	4987
879.588	4995
879.715	5128
879.842	5261
879.97	5033
880.097	4835
880.224	4797
880.351	4824
880.478	4889
880.605	4801
880.732	4782
880.859	5071
880.986	4900
881.112	4957
881.239	4797
881.366	4733
881.493	4618
881.619	4607
881.746	4660
881.872	4645
881.999	4679
882.125	4759
882.252	4790
882.378	4831
882.505	5006
882.631	4824
882.757	4729
882.883	4767
883.01	4801
883.136	4702
883.262	4626
883.388	4675
883.514	4850
883.64	4908
883.766	4778
883.892	4649
884.018	4710
884.143	4866
884.269	5079
884.395	4759
884.52	4649
884.646	4694
884.772	4622
884.897	4584
885.023	4710
885.148	4740
885.274	4908
885.399	4820
885.524	4755
885.65	4691
885.775	4793
885.9	4725
886.025	4816
886.15	4782
886.275	4748
886.4	4656
886.525	4721
886.65	4702
886.775	4683
886.9	4908
887.025	5033
887.149	4805
887.274	4672
887.399	4607
887.523	4672
887.648	4558
887.773	4588
887.897	4816
888.021	4820
888.146	4710
888.27	4820
888.395	4900
888.519	4816
888.643	4866
888.767	4843
888.891	4694
889.015	4615
889.139	4664
889.263	4611
889.387	4763
889.511	4881
889.635	4797
889.759	4664
889.883	4668
890.006	4729
890.13	4843
890.254	4622
890.377	4679
890.501	4577
890.624	4565
890.748	4641
890.871	4512
890.995	4497
891.118	4383
891.241	4497
891.364	4546
891.488	4637
891.611	4527
891.734	4542
891.857	4630
891.98	4565
892.103	4664
892.226	4599
892.349	4569
892.471	4424
892.594	4577
892.717	4630
892.839	4592
892.962	4653
893.085	4664
893.207	4584
893.33	4462
893.452	4550
893.575	4721
893.697	4607
893.819	4824
893.941	4835
894.064	4771
894.186	4584
894.308	4611
894.43	4759
894.552	4809
894.674	4759
894.796	4626
894.918	4618
895.04	4611
895.161	4752
895.283	4702
895.405	4675
895.526	4645
895.648	4736
895.769	4744
895.891	4714
896.012	4736
896.134	4702
896.255	4683
896.376	4649
896.498	4599
896.619	4679
896.74	4653
896.861	4721
896.982	4965
897.103	5143
897.224	4820
897.345	4767
897.466	4656
897.587	4725
897.708	4881
897.828	4782
897.949	4706
898.07	4641
898.19	4630
898.311	4862
898.431	4714
898.552	4721
898.672	4862
898.792	4816
898.913	4733
899.033	4599
899.153	4504
899.273	4436
899.393	4516
899.513	4535
899.633	4554
899.753	4542
899.873	4573
899.993	4656
900.113	4519
900.232	4615
900.352	4550
900.472	4493
900.591	4405
900.711	4481
900.83	4432
900.95	4603
901.069	4763
901.189	4565
901.308	4386
901.427	4348
901.546	4379
901.665	4531
901.784	4542
901.904	4413
902.023	4337
902.141	4196
902.26	4196
902.379	4344
902.498	4234
902.617	4253
902.735	4424
902.854	4432
902.973	4371
903.091	4246
903.21	4234
903.328	4318
903.446	4299
903.565	4303
903.683	4386
903.801	4386
903.919	4383
904.038	4459
904.156	4322
904.274	4466
904.392	4462
904.51	4436
904.627	4500
904.745	4596
904.863	4660
904.981	4428
905.098	4303
905.216	4413
905.334	4447
905.451	4440
905.569	4466
905.686	4577
905.803	4542
905.921	4428
906.038	4561
906.155	4440
906.272	4409
906.389	4474
906.506	4329
906.623	4383
906.74	4348
906.857	4329
906.974	4394
907.091	4592
907.208	4721
907.324	4573
907.441	4497
907.557	4375
907.674	4344
907.79	4314
907.907	4375
908.023	4478
908.139	4432
908.256	4459
908.372	4493
908.488	4481
908.604	4398
908.72	4337
908.836	4398
908.952	4405
909.068	4432
909.184	4561
909.3	4516
909.415	4607
909.531	4565
909.647	4360
909.762	4383
909.878	4318
909.993	4462
910.108	4405
910.224	4447
910.339	4500
910.454	4417
910.57	4394
910.685	4337
910.8	4649
910.915	4577
911.03	4474
911.145	4314
911.259	4310
911.374	4398
911.489	4295
911.604	4303
911.718	4166
911.833	4204
911.947	4086
912.062	4048
912.176	4249
912.291	4257
912.405	4284
912.519	4466
912.633	4459
912.748	4386
912.862	4344
912.976	4177
913.09	4128
913.204	4166
913.318	4276
913.431	4367
913.545	4394
913.659	4455
913.772	4322
913.886	4249
914	4211
914.113	4394
914.226	4447
914.34	4405
914.453	4249
914.566	4440
914.68	4306
914.793	4360
914.906	4200
915.019	4097
915.132	4067
915.245	4200
915.358	4196
915.47	4268
915.583	4276
915.696	4348
915.809	4432
915.921	4436
916.034	4261
916.146	4268
916.259	4219
916.371	4375
916.483	4356
916.595	4257
916.708	4375
916.82	4344
916.932	4337
917.044	4287
917.156	4341
917.268	4215
917.38	4249
917.491	4276
917.603	4303
917.715	4470
917.826	4424
917.938	4375
918.049	4249
918.161	4379
918.272	4538
918.384	4565
918.495	4455
918.606	4310
918.717	4249
918.828	4394
918.939	4375
919.05	4257
919.161	4291
919.272	4162
919.383	4230
919.494	4470
919.604	4653
919.715	4440
919.826	4348
919.936	4428
920.047	4523
920.157	4531
920.267	4710
920.378	4542
920.488	4485
920.598	4755
920.708	4866
920.818	4782
920.928	4755
921.038	4949
921.148	4942
921.258	4653
921.368	4596
921.477	4485
921.587	4497
921.697	4386
921.806	4580
921.916	4432
922.025	4265
922.134	4261
922.244	4272
922.353	4310
922.462	4200
922.571	4116
922.68	4010
922.789	3987
922.898	4093
923.007	3972
923.116	4120
923.224	4101
923.333	4071
923.442	3994
923.55	4021
923.659	4063
923.767	4112
923.876	4036
923.984	4131
924.092	3998
924.201	4082
924.309	4112
924.417	4105
924.525	4078
924.633	4124
924.741	5067
924.849	3915
924.956	4154
925.064	3994
925.172	3941
925.279	3956
925.387	4097
925.494	4116
925.602	4246
925.709	4268
925.816	4101
925.924	4166
926.031	4249
926.138	4200
926.245	4280
926.352	4078
926.459	4242
926.566	4344
926.673	4253
926.779	4131
926.886	4143
926.993	4032
927.099	3953
927.206	3983
927.312	3987
927.419	4082
927.525	4078
927.631	4162
927.737	3991
927.843	4044
927.95	3953
928.056	4013
928.162	4021
928.267	4093
928.373	4706
928.479	4112
928.585	3880
928.69	4059
928.796	4116
928.901	4006
929.007	3926
929.112	4032
929.218	3991
929.323	3987
929.428	3979
929.533	4154
929.638	3949
929.743	4051
929.848	4063
929.953	4063
930.058	3983
930.163	3846
930.267	3854
930.372	3994
930.477	3838
930.581	4139
930.685	3979
930.79	3865
930.894	3975
930.998	3937
931.103	4063
931.207	3732
931.311	3720
931.415	3701
931.519	3610
931.623	3614
