Data from test_V78500241_232.txt Node
Date: Fri Mar 25 16:50:36 CST 2022
User: usil
Spectrometer: V785-0024
Trigger mode: 0
Integration Time (sec): 4.000000E-1
Scans to average: 1
Nonlinearity correction enabled: false
Boxcar width: 0
Storing dark spectrum: false
XAxis mode: Wavelengths
Number of Pixels in Spectrum: 1024
>>>>>Begin Spectral Data<<<<<
801.071	8005
801.214	8020
801.356	7780
801.499	7818
801.641	7833
801.783	7856
801.926	7993
802.068	7974
802.211	7963
802.353	7993
802.496	7944
802.638	7868
802.78	8008
802.923	7974
803.065	7845
803.208	7837
803.35	7936
803.492	8077
803.635	7997
803.777	8024
803.919	8100
804.061	8400
804.204	8096
804.346	8081
804.488	7902
804.63	8134
804.773	7947
804.915	8020
805.057	8279
805.199	8088
805.341	8286
805.483	8199
805.626	8145
805.768	8039
805.91	8130
806.052	8176
806.194	8081
806.336	8313
806.478	8046
806.62	8069
806.762	8168
806.904	8225
807.046	8446
807.188	8294
807.33	8252
807.472	8324
807.614	8164
807.756	8084
807.898	7967
808.04	7875
808.182	7951
808.324	7883
808.465	7887
808.607	8062
808.749	8084
808.891	8199
809.033	8332
809.174	8233
809.316	8008
809.458	8027
809.6	7989
809.741	7989
809.883	8065
810.025	8115
810.166	8027
810.308	8020
810.45	8005
810.591	7856
810.733	7757
810.875	7677
811.016	7472
811.158	7445
811.299	7628
811.441	7734
811.582	7670
811.724	7571
811.865	7533
812.007	7510
812.148	7601
812.29	7700
812.431	7814
812.573	7921
812.714	8046
812.855	8180
812.997	8168
813.138	8286
813.279	8195
813.421	8111
813.562	7959
813.703	7822
813.845	7788
813.986	7449
814.127	7194
814.268	7228
814.41	7301
814.551	7164
814.692	7244
814.833	7175
814.974	7103
815.115	7084
815.256	6962
815.397	6897
815.539	6981
815.68	6909
815.821	6798
815.962	6886
816.103	6791
816.244	6738
816.385	6639
816.526	6608
816.666	6555
816.807	6353
816.948	6426
817.089	6441
817.23	6422
817.371	6334
817.512	6353
817.653	6414
817.793	6361
817.934	6334
818.075	6456
818.216	6403
818.356	6380
818.497	6247
818.638	6114
818.778	6110
818.919	6129
819.06	6159
819.2	6308
819.341	6266
819.481	6319
819.622	6464
819.762	6715
819.903	6711
820.043	6585
820.184	6551
820.324	6566
820.465	6642
820.605	6635
820.746	6593
820.886	6502
821.026	6597
821.167	6677
821.307	6768
821.447	6730
821.588	6650
821.728	6639
821.868	6494
822.008	6342
822.149	6323
822.289	6372
822.429	6121
822.569	6038
822.709	6091
822.849	5946
822.99	5889
823.13	5901
823.27	5901
823.41	5805
823.55	5798
823.69	5771
823.83	5767
823.97	5646
824.11	5512
824.25	5490
824.389	5630
824.529	5570
824.669	5520
824.809	5608
824.949	5684
825.089	5558
825.228	5581
825.368	5387
825.508	5337
825.648	5357
825.787	5410
825.927	5391
826.067	5288
826.206	5265
826.346	5395
826.485	5357
826.625	5406
826.765	5547
826.904	5482
827.044	5242
827.183	5178
827.323	5132
827.462	5254
827.601	5151
827.741	5197
827.88	5220
828.02	5094
828.159	5227
828.298	5269
828.437	5391
828.577	5273
828.716	5433
828.855	5299
828.994	5220
829.134	5147
829.273	5174
829.412	5178
829.551	5143
829.69	5162
829.829	5254
829.968	5360
830.107	5322
830.246	5280
830.385	5155
830.524	5128
830.663	5029
830.802	4923
830.941	4889
831.08	4847
831.219	4949
831.357	4976
831.496	5189
831.635	4942
831.774	4820
831.913	4870
832.051	4729
832.19	4767
832.329	4820
832.467	4706
832.606	4599
832.744	4706
832.883	4774
833.022	4714
833.16	4809
833.299	4812
833.437	4854
833.576	4900
833.714	4805
833.852	4854
833.991	4911
834.129	4965
834.267	4938
834.406	4938
834.544	4995
834.682	4991
834.821	4991
834.959	5162
835.097	4972
835.235	5151
835.373	5056
835.511	5090
835.65	5022
835.788	5052
835.926	4919
836.064	4915
836.202	4930
836.34	5201
836.478	5208
836.615	5136
836.753	5193
836.891	5311
837.029	5254
837.167	5193
837.305	5159
837.443	5109
837.58	5086
837.718	5277
837.856	5159
837.993	5185
838.131	5231
838.269	5231
838.406	5223
838.544	5178
838.681	5033
838.819	5022
838.956	4889
839.094	4919
839.231	4972
839.369	5056
839.506	5406
839.643	5284
839.781	5037
839.918	5010
840.055	5109
840.193	5090
840.33	5105
840.467	5140
840.604	5170
840.742	5436
840.879	5083
841.016	5025
841.153	5132
841.29	5391
841.427	5376
841.564	5349
841.701	5395
841.838	5231
841.975	5227
842.112	5288
842.249	5151
842.385	5117
842.522	5307
842.659	5151
842.796	5162
842.933	5223
843.069	5178
843.206	5124
843.343	5273
843.479	5227
843.616	5239
843.752	5045
843.889	5048
844.025	5227
844.162	5029
844.298	5216
844.435	5025
844.571	5014
844.708	5189
844.844	5284
844.98	5292
845.117	5284
845.253	5162
845.389	5124
845.525	5178
845.661	5136
845.798	5067
845.934	5178
846.07	5022
846.206	5140
846.342	5311
846.478	5155
846.614	5037
846.75	4980
846.886	4995
847.022	5117
847.158	5006
847.294	5075
847.429	5102
847.565	5075
847.701	5273
847.837	4843
847.972	4809
848.108	4961
848.244	4915
848.379	4828
848.515	4748
848.65	4683
848.786	4729
848.921	4763
849.057	4915
849.192	4915
849.328	4786
849.463	4854
849.598	4755
849.734	4801
849.869	4710
850.004	4664
850.14	4645
850.275	4584
850.41	4527
850.545	4599
850.68	4645
850.815	4649
850.95	4649
851.085	4824
851.22	4740
851.355	4679
851.49	4580
851.625	4588
851.76	4656
851.895	4573
852.03	4523
852.165	4660
852.299	4752
852.434	4839
852.569	4778
852.703	4809
852.838	4839
852.973	4889
853.107	4881
853.242	4687
853.376	4672
853.511	4470
853.645	4622
853.78	4771
853.914	4672
854.048	4653
854.183	4664
854.317	4702
854.451	4873
854.585	4675
854.72	4660
854.854	4744
854.988	4607
855.122	4668
855.256	4538
855.39	4645
855.524	4797
855.658	4694
855.792	4717
855.926	4733
856.06	4710
856.194	4812
856.327	4683
856.461	4596
856.595	4672
856.729	4630
856.862	4733
856.996	4653
857.13	4717
857.263	4748
857.397	4771
857.53	4653
857.664	4702
857.797	4759
857.931	4786
858.064	4683
858.197	4748
858.331	4653
858.464	4611
858.597	4550
858.731	4630
858.864	4653
858.997	4592
859.13	4683
859.263	4634
859.396	4702
859.529	4577
859.662	4584
859.795	4577
859.928	4637
860.061	4717
860.194	4736
860.327	4603
860.46	4577
860.592	4740
860.725	4717
860.858	4729
860.99	4546
861.123	4500
861.256	4569
861.388	4607
861.521	5402
861.653	4470
861.786	4436
861.918	4493
862.05	4542
862.183	4538
862.315	4630
862.447	4675
862.58	4565
862.712	4402
862.844	4314
862.976	4478
863.108	4500
863.24	4927
863.372	4257
863.504	4447
863.636	4459
863.768	4440
863.9	4466
864.032	4344
864.164	4443
864.296	4485
864.428	4497
864.559	4550
864.691	4508
864.823	4531
864.954	4546
865.086	4500
865.217	4470
865.349	4459
865.48	4489
865.612	4516
865.743	4683
865.875	4481
866.006	4462
866.137	4508
866.269	4462
866.4	4451
866.531	4390
866.662	4417
866.793	4398
866.924	4424
867.055	4481
867.186	4451
867.317	4409
867.448	4375
867.579	4356
867.71	4367
867.841	4383
867.972	4459
868.103	4462
868.233	4462
868.364	4447
868.495	4481
868.625	4637
868.756	4797
868.886	4554
869.017	4618
869.147	4759
869.278	4782
869.408	4645
869.539	4611
869.669	4714
869.799	4656
869.929	4782
870.06	4793
870.19	4968
870.32	4930
870.45	4892
870.58	4976
870.71	5090
870.84	5086
870.97	4991
871.1	4919
871.23	5166
871.36	5117
871.489	5025
871.619	5109
871.749	5079
871.879	5140
872.008	5174
872.138	5083
872.267	4976
872.397	4812
872.526	4786
872.656	4774
872.785	4812
872.915	4987
873.044	5064
873.173	4968
873.303	4980
873.432	4991
873.561	4957
873.69	4866
873.819	4866
873.948	4896
874.077	4858
874.206	4744
874.335	4793
874.464	4927
874.593	5033
874.722	4991
874.851	5094
874.979	5022
875.108	5071
875.237	4923
875.365	4896
875.494	4877
875.623	4991
875.751	4828
875.88	4889
876.008	5014
876.136	5045
876.265	5166
876.393	5311
876.521	5239
876.65	5201
876.778	5201
876.906	5090
877.034	5052
877.162	5090
877.29	4991
877.418	5037
877.546	5060
877.674	5018
877.802	5064
877.93	5003
878.058	4881
878.185	4854
878.313	4957
878.441	4961
878.568	4790
878.696	4889
878.824	4953
878.951	5022
879.079	5151
879.206	5280
879.333	5105
879.461	4987
879.588	4984
879.715	5121
879.842	5162
879.97	5037
880.097	4793
880.224	4755
880.351	4801
880.478	4812
880.605	4809
880.732	4767
880.859	5121
880.986	4862
881.112	4911
881.239	4801
881.366	4687
881.493	4607
881.619	4611
881.746	4649
881.872	4645
881.999	4691
882.125	4706
882.252	4774
882.378	4850
882.505	4923
882.631	4843
882.757	4660
882.883	4717
883.01	4755
883.136	4710
883.262	4561
883.388	4599
883.514	4828
883.64	4847
883.766	4839
883.892	4679
884.018	4714
884.143	4927
884.269	4968
884.395	4660
884.52	4626
884.646	4569
884.772	4668
884.897	4538
885.023	4645
885.148	4778
885.274	4866
885.399	4782
885.524	4717
885.65	4698
885.775	4771
885.9	4710
886.025	4847
886.15	4755
886.275	4694
886.4	4622
886.525	4721
886.65	4672
886.775	4672
886.9	4915
887.025	5064
887.149	4828
887.274	4717
887.399	4592
887.523	4580
887.648	4603
887.773	4592
887.897	4759
888.021	4759
888.146	4683
888.27	4824
888.395	4889
888.519	4767
888.643	4797
888.767	4843
888.891	4694
889.015	4603
889.139	4687
889.263	4599
889.387	4763
889.511	4892
889.635	4831
889.759	4645
889.883	4622
890.006	4740
890.13	4843
890.254	4607
890.377	4706
890.501	4565
890.624	4470
890.748	4634
890.871	4512
890.995	4470
891.118	4386
891.241	4512
891.364	4538
891.488	4637
891.611	4516
891.734	4538
891.857	4622
891.98	4554
892.103	4615
892.226	4577
892.349	4542
892.471	4371
892.594	4592
892.717	4584
892.839	4611
892.962	4588
893.085	4634
893.207	4634
893.33	4386
893.452	4538
893.575	4618
893.697	4573
893.819	4755
893.941	4812
894.064	4805
894.186	4573
894.308	4565
894.43	4710
894.552	4866
894.674	4736
894.796	4550
894.918	4618
895.04	4546
895.161	4721
895.283	4645
895.405	4569
895.526	4626
895.648	4694
895.769	4691
895.891	4759
896.012	4740
896.134	4706
896.255	4668
896.376	4626
896.498	4611
896.619	4683
896.74	4641
896.861	4630
896.982	4911
897.103	5094
897.224	4812
897.345	4782
897.466	4706
897.587	4736
897.708	4812
897.828	4820
897.949	4656
898.07	4538
898.19	4630
898.311	4843
898.431	4675
898.552	4729
898.672	4816
898.792	4812
898.913	4793
899.033	4592
899.153	4470
899.273	4398
899.393	4542
899.513	4523
899.633	4558
899.753	4527
899.873	4512
899.993	4558
900.113	4519
900.232	4577
900.352	4538
900.472	4500
900.591	4367
900.711	4493
900.83	4440
900.95	4569
901.069	4694
901.189	4523
901.308	4360
901.427	4337
901.546	4356
901.665	4443
901.784	4462
901.904	4383
902.023	4363
902.141	4207
902.26	4196
902.379	4329
902.498	4211
902.617	4181
902.735	4375
902.854	4417
902.973	4360
903.091	4223
903.21	4181
903.328	4295
903.446	4272
903.565	4261
903.683	4329
903.801	4295
903.919	4398
904.038	4405
904.156	4352
904.274	4421
904.392	4443
904.51	4436
904.627	4428
904.745	4599
904.863	4634
904.981	4398
905.098	4291
905.216	4371
905.334	4455
905.451	4428
905.569	4493
905.686	4588
905.803	4535
905.921	4405
906.038	4592
906.155	4474
906.272	4413
906.389	4459
906.506	4394
906.623	4386
906.74	4409
906.857	4310
906.974	4417
907.091	4596
907.208	4706
907.324	4603
907.441	4527
907.557	4363
907.674	4367
907.79	4333
907.907	4409
908.023	4546
908.139	4474
908.256	4451
908.372	4523
908.488	4500
908.604	4394
908.72	4390
908.836	4451
908.952	4413
909.068	4508
909.184	4599
909.3	4565
909.415	4645
909.531	4630
909.647	4352
909.762	4409
909.878	4402
909.993	4481
910.108	4459
910.224	4478
910.339	4516
910.454	4443
910.57	4363
910.685	4356
910.8	4702
910.915	4641
911.03	4512
911.145	4390
911.259	4409
911.374	4409
911.489	4363
911.604	4310
911.718	4207
911.833	4261
911.947	4112
912.062	4051
912.176	4280
912.291	4276
912.405	4325
912.519	4497
912.633	4584
912.748	4390
912.862	4310
912.976	4272
913.09	4135
913.204	4249
913.318	4337
913.431	4436
913.545	4474
913.659	4455
913.772	4405
913.886	4314
914	4219
914.113	4417
914.226	4504
914.34	4394
914.453	4287
914.566	4512
914.68	4402
914.793	4348
914.906	4207
915.019	4207
915.132	4120
915.245	4234
915.358	4268
915.47	4287
915.583	4276
915.696	4329
915.809	4421
915.921	4432
916.034	4299
916.146	4325
916.259	4276
916.371	4432
916.483	4398
916.595	4325
916.708	4363
916.82	4356
916.932	4325
917.044	4371
917.156	4398
917.268	4306
917.38	4310
917.491	4341
917.603	4386
917.715	4432
917.826	4447
917.938	4417
918.049	4295
918.161	4421
918.272	4607
918.384	4611
918.495	4489
918.606	4322
918.717	4253
918.828	4341
918.939	4363
919.05	4306
919.161	4386
919.272	4219
919.383	4329
919.494	4466
919.604	4679
919.715	4459
919.826	4363
919.936	4447
920.047	4546
920.157	4531
920.267	4736
920.378	4580
920.488	4561
920.598	4759
920.708	4889
920.818	4759
920.928	4850
921.038	4995
921.148	4923
921.258	4721
921.368	4599
921.477	4542
921.587	4497
921.697	4417
921.806	4569
921.916	4493
922.025	4322
922.134	4337
922.244	4257
922.353	4409
922.462	4207
922.571	4204
922.68	4051
922.789	3964
922.898	4109
923.007	4040
923.116	4063
923.224	4090
923.333	4101
923.442	4112
923.55	3998
923.659	4063
923.767	4150
923.876	4032
923.984	4135
924.092	4002
924.201	4143
924.309	4150
924.417	4200
924.525	4093
924.633	4181
924.741	5094
924.849	3945
924.956	4181
925.064	3983
925.172	3945
925.279	4013
925.387	4101
925.494	4105
925.602	4261
925.709	4227
925.816	4086
925.924	4169
926.031	4238
926.138	4192
926.245	4253
926.352	4147
926.459	4337
926.566	4375
926.673	4204
926.779	4097
926.886	4139
926.993	4025
927.099	3960
927.206	4048
927.312	3987
927.419	4128
927.525	4059
927.631	4128
927.737	4006
927.843	4025
927.95	3918
928.056	3949
928.162	4013
928.267	4109
928.373	4664
928.479	4131
928.585	3896
928.69	4071
928.796	4131
928.901	4010
929.007	3873
929.112	4055
929.218	4044
929.323	4002
929.428	3987
929.533	4131
929.638	3930
929.743	3998
929.848	4082
929.953	4029
930.058	3994
930.163	3831
930.267	3865
930.372	4044
930.477	3819
930.581	4166
930.685	3960
930.79	3865
930.894	3934
930.998	3907
931.103	4078
931.207	3705
931.311	3732
931.415	3743
931.519	3584
931.623	3576
