Data from test_V78500241_2411.txt Node
Date: Fri Mar 25 17:05:46 CST 2022
User: usil
Spectrometer: V785-0024
Trigger mode: 0
Integration Time (sec): 4.000000E-1
Scans to average: 1
Nonlinearity correction enabled: false
Boxcar width: 0
Storing dark spectrum: false
XAxis mode: Wavelengths
Number of Pixels in Spectrum: 1024
>>>>>Begin Spectral Data<<<<<
801.071	8043
801.214	8035
801.356	7879
801.499	7925
801.641	7792
801.783	7837
801.926	7925
802.068	7913
802.211	7986
802.353	8050
802.496	7833
802.638	7871
802.78	7913
802.923	7932
803.065	7898
803.208	7864
803.35	7982
803.492	8092
803.635	8183
803.777	8062
803.919	8126
804.061	8537
804.204	8115
804.346	8027
804.488	7982
804.63	8077
804.773	7967
804.915	8145
805.057	8301
805.199	8046
805.341	8168
805.483	8301
805.626	8309
805.768	8142
805.91	8172
806.052	8180
806.194	8119
806.336	8248
806.478	8100
806.62	8035
806.762	8092
806.904	8267
807.046	8465
807.188	8362
807.33	8317
807.472	8259
807.614	8103
807.756	8119
807.898	7986
808.04	7898
808.182	7795
808.324	7860
808.465	7970
808.607	8065
808.749	8081
808.891	8275
809.033	8339
809.174	8229
809.316	8062
809.458	8103
809.6	7993
809.741	8005
809.883	8012
810.025	8107
810.166	8065
810.308	7963
810.45	8008
810.591	7913
810.733	7769
810.875	7670
811.016	7510
811.158	7506
811.299	7563
811.441	7738
811.582	7696
811.724	7590
811.865	7559
812.007	7647
812.148	7518
812.29	7597
812.431	7769
812.573	7940
812.714	8001
812.855	8115
812.997	8294
813.138	8282
813.279	8191
813.421	8092
813.562	7993
813.703	7894
813.845	7742
813.986	7491
814.127	7244
814.268	7266
814.41	7213
814.551	7187
814.692	7225
814.833	7088
814.974	7031
815.115	7171
815.256	7031
815.397	6901
815.539	6901
815.68	6837
815.821	6779
815.962	6837
816.103	6772
816.244	6703
816.385	6608
816.526	6601
816.666	6509
816.807	6323
816.948	6334
817.089	6471
817.23	6426
817.371	6429
817.512	6342
817.653	6376
817.793	6391
817.934	6399
818.075	6445
818.216	6437
818.356	6331
818.497	6251
818.638	6083
818.778	6125
818.919	6129
819.06	6167
819.2	6319
819.341	6403
819.481	6418
819.622	6551
819.762	6719
819.903	6703
820.043	6601
820.184	6589
820.324	6559
820.465	6730
820.605	6688
820.746	6677
820.886	6536
821.026	6669
821.167	6684
821.307	6806
821.447	6745
821.588	6631
821.728	6570
821.868	6418
822.008	6311
822.149	6407
822.289	6357
822.429	6159
822.569	6098
822.709	6140
822.849	5923
822.99	5863
823.13	5904
823.27	5923
823.41	5783
823.55	5733
823.69	5707
823.83	5767
823.97	5699
824.11	5543
824.25	5471
824.389	5554
824.529	5562
824.669	5497
824.809	5623
824.949	5684
825.089	5585
825.228	5592
825.368	5372
825.508	5280
825.648	5337
825.787	5379
825.927	5345
826.067	5326
826.206	5273
826.346	5383
826.485	5410
826.625	5364
826.765	5554
826.904	5493
827.044	5265
827.183	5178
827.323	5109
827.462	5223
827.601	5193
827.741	5174
827.88	5220
828.02	5136
828.159	5208
828.298	5250
828.437	5345
828.577	5261
828.716	5452
828.855	5318
828.994	5216
829.134	5136
829.273	5178
829.412	5162
829.551	5140
829.69	5204
829.829	5246
829.968	5421
830.107	5265
830.246	5201
830.385	5201
830.524	5105
830.663	5071
830.802	4942
830.941	4873
831.08	4877
831.219	4965
831.357	4965
831.496	5155
831.635	4923
831.774	4843
831.913	4820
832.051	4717
832.19	4725
832.329	4831
832.467	4755
832.606	4584
832.744	4755
832.883	4771
833.022	4744
833.16	4801
833.299	4816
833.437	4820
833.576	4828
833.714	4839
833.852	4858
833.991	4889
834.129	4972
834.267	4930
834.406	4858
834.544	4942
834.682	4953
834.821	4957
834.959	5178
835.097	4984
835.235	5128
835.373	5098
835.511	5094
835.65	5056
835.788	5056
835.926	4854
836.064	4885
836.202	4908
836.34	5201
836.478	5197
836.615	5124
836.753	5227
836.891	5318
837.029	5258
837.167	5216
837.305	5136
837.443	5109
837.58	5086
837.718	5227
837.856	5189
837.993	5170
838.131	5239
838.269	5254
838.406	5128
838.544	5140
838.681	5037
838.819	5006
838.956	4870
839.094	4870
839.231	4965
839.369	5041
839.506	5376
839.643	5288
839.781	5056
839.918	5025
840.055	5060
840.193	5033
840.33	5086
840.467	5140
840.604	5189
840.742	5440
840.879	5086
841.016	5132
841.153	5105
841.29	5364
841.427	5307
841.564	5261
841.701	5311
841.838	5231
841.975	5223
842.112	5269
842.249	5136
842.385	5083
842.522	5288
842.659	5143
842.796	5094
842.933	5166
843.069	5128
843.206	5109
843.343	5277
843.479	5246
843.616	5299
843.752	5033
843.889	5033
844.025	5254
844.162	4976
844.298	5197
844.435	5067
844.571	5006
844.708	5208
844.844	5231
844.98	5334
845.117	5280
845.253	5124
845.389	5113
845.525	5204
845.661	5113
845.798	5022
845.934	5140
846.07	5060
846.206	5181
846.342	5242
846.478	5189
846.614	5006
846.75	4984
846.886	4911
847.022	5170
847.158	5014
847.294	5052
847.429	5121
847.565	5086
847.701	5326
847.837	4850
847.972	4828
848.108	4991
848.244	4976
848.379	4782
848.515	4725
848.65	4771
848.786	4714
848.921	4809
849.057	4877
849.192	4892
849.328	4835
849.463	4831
849.598	4778
849.734	4744
849.869	4675
850.004	4588
850.14	4656
850.275	4588
850.41	4542
850.545	4641
850.68	4592
850.815	4611
850.95	4626
851.085	4877
851.22	4790
851.355	4687
851.49	4565
851.625	4622
851.76	4683
851.895	4580
852.03	4504
852.165	4630
852.299	4736
852.434	4797
852.569	4748
852.703	4763
852.838	4854
852.973	4965
853.107	4892
853.242	4733
853.376	4622
853.511	4531
853.645	4603
853.78	4812
853.914	4653
854.048	4679
854.183	4580
854.317	4721
854.451	4816
854.585	4672
854.72	4706
854.854	4748
854.988	4607
855.122	4603
855.256	4550
855.39	4641
855.524	4801
855.658	4717
855.792	4687
855.926	4702
856.06	4748
856.194	4797
856.327	4710
856.461	4615
856.595	4607
856.729	4607
856.862	4752
856.996	4698
857.13	4717
857.263	4786
857.397	4786
857.53	4630
857.664	4679
857.797	4767
857.931	4752
858.064	4653
858.197	4740
858.331	4668
858.464	4626
858.597	4538
858.731	4637
858.864	4660
858.997	4603
859.13	4656
859.263	4679
859.396	4664
859.529	4611
859.662	4588
859.795	4550
859.928	4615
860.061	4717
860.194	4793
860.327	4626
860.46	4550
860.592	4691
860.725	4759
860.858	4759
860.99	4523
861.123	4542
861.256	4512
861.388	4611
861.521	5296
861.653	4462
861.786	4455
861.918	4440
862.05	4500
862.183	4550
862.315	4607
862.447	4653
862.58	4554
862.712	4428
862.844	4280
862.976	4443
863.108	4478
863.24	4706
863.372	4356
863.504	4394
863.636	4386
863.768	4481
863.9	4428
864.032	4390
864.164	4409
864.296	4516
864.428	4542
864.559	4558
864.691	4459
864.823	4512
864.954	4512
865.086	4523
865.217	4466
865.349	4421
865.48	4455
865.612	4497
865.743	4634
865.875	4443
866.006	4451
866.137	4451
866.269	4447
866.4	4436
866.531	4402
866.662	4394
866.793	4432
866.924	4413
867.055	4535
867.186	4470
867.317	4443
867.448	4344
867.579	4379
867.71	4394
867.841	4371
867.972	4436
868.103	4443
868.233	4455
868.364	4443
868.495	4531
868.625	4675
868.756	4721
868.886	4542
869.017	4634
869.147	4805
869.278	4790
869.408	4622
869.539	4626
869.669	4721
869.799	4683
869.929	4778
870.06	4736
870.19	4965
870.32	4900
870.45	4965
870.58	5022
870.71	5136
870.84	5067
870.97	4892
871.1	4892
871.23	5102
871.36	5147
871.489	5086
871.619	5033
871.749	5075
871.879	5109
872.008	5166
872.138	5037
872.267	4976
872.397	4850
872.526	4797
872.656	4733
872.785	4763
872.915	4968
873.044	5075
873.173	4949
873.303	5006
873.432	4999
873.561	4919
873.69	4839
873.819	4850
873.948	4866
874.077	4866
874.206	4710
874.335	4850
874.464	4904
874.593	5064
874.722	4949
874.851	5113
874.979	5086
875.108	5033
875.237	4919
875.365	4896
875.494	4873
875.623	5006
875.751	4774
875.88	4873
876.008	4984
876.136	5025
876.265	5250
876.393	5330
876.521	5235
876.65	5201
876.778	5193
876.906	5086
877.034	5060
877.162	5067
877.29	5022
877.418	5071
877.546	5037
877.674	5086
877.802	5041
877.93	4987
878.058	4965
878.185	4915
878.313	4976
878.441	4953
878.568	4774
878.696	4892
878.824	4923
878.951	5018
879.079	5105
879.206	5296
879.333	5090
879.461	4999
879.588	4980
879.715	5102
879.842	5231
879.97	5041
880.097	4774
880.224	4759
880.351	4839
880.478	4801
880.605	4812
880.732	4759
880.859	5045
880.986	4839
881.112	4908
881.239	4801
881.366	4637
881.493	4599
881.619	4596
881.746	4618
881.872	4679
881.999	4675
882.125	4691
882.252	4831
882.378	4763
882.505	4953
882.631	4816
882.757	4649
882.883	4706
883.01	4778
883.136	4649
883.262	4584
883.388	4565
883.514	4835
883.64	4870
883.766	4786
883.892	4634
884.018	4710
884.143	4881
884.269	4999
884.395	4668
884.52	4615
884.646	4637
884.772	4626
884.897	4561
885.023	4675
885.148	4793
885.274	4892
885.399	4805
885.524	4752
885.65	4702
885.775	4748
885.9	4717
886.025	4873
886.15	4801
886.275	4717
886.4	4641
886.525	4710
886.65	4672
886.775	4641
886.9	4923
887.025	5033
887.149	4763
887.274	4698
887.399	4577
887.523	4577
887.648	4596
887.773	4607
887.897	4786
888.021	4835
888.146	4641
888.27	4847
888.395	4885
888.519	4786
888.643	4835
888.767	4870
888.891	4672
889.015	4577
889.139	4660
889.263	4588
889.387	4733
889.511	4858
889.635	4809
889.759	4645
889.883	4653
890.006	4698
890.13	4805
890.254	4588
890.377	4660
890.501	4561
890.624	4546
890.748	4611
890.871	4493
890.995	4409
891.118	4402
891.241	4512
891.364	4584
891.488	4630
891.611	4519
891.734	4500
891.857	4584
891.98	4561
892.103	4653
892.226	4535
892.349	4523
892.471	4386
892.594	4535
892.717	4611
892.839	4603
892.962	4561
893.085	4641
893.207	4615
893.33	4443
893.452	4497
893.575	4649
893.697	4558
893.819	4801
893.941	4816
894.064	4790
894.186	4588
894.308	4527
894.43	4717
894.552	4843
894.674	4691
894.796	4569
894.918	4546
895.04	4523
895.161	4694
895.283	4721
895.405	4580
895.526	4645
895.648	4714
895.769	4656
895.891	4721
896.012	4706
896.134	4664
896.255	4626
896.376	4626
896.498	4615
896.619	4679
896.74	4622
896.861	4645
896.982	4896
897.103	5064
897.224	4831
897.345	4778
897.466	4637
897.587	4710
897.708	4850
897.828	4767
897.949	4672
898.07	4535
898.19	4672
898.311	4862
898.431	4641
898.552	4733
898.672	4755
898.792	4824
898.913	4736
899.033	4550
899.153	4497
899.273	4428
899.393	4512
899.513	4573
899.633	4508
899.753	4542
899.873	4542
899.993	4603
900.113	4500
900.232	4538
900.352	4565
900.472	4451
900.591	4390
900.711	4493
900.83	4417
900.95	4611
901.069	4702
901.189	4504
901.308	4371
901.427	4322
901.546	4383
901.665	4409
901.784	4535
901.904	4367
902.023	4322
902.141	4158
902.26	4196
902.379	4268
902.498	4249
902.617	4204
902.735	4352
902.854	4375
902.973	4375
903.091	4219
903.21	4196
903.328	4257
903.446	4246
903.565	4257
903.683	4295
903.801	4276
903.919	4367
904.038	4443
904.156	4306
904.274	4485
904.392	4405
904.51	4455
904.627	4462
904.745	4626
904.863	4634
904.981	4375
905.098	4322
905.216	4398
905.334	4405
905.451	4405
905.569	4462
905.686	4519
905.803	4523
905.921	4405
906.038	4512
906.155	4466
906.272	4428
906.389	4497
906.506	4352
906.623	4356
906.74	4405
906.857	4287
906.974	4348
907.091	4527
907.208	4706
907.324	4538
907.441	4478
907.557	4360
907.674	4329
907.79	4352
907.907	4367
908.023	4489
908.139	4489
908.256	4402
908.372	4466
908.488	4474
908.604	4360
908.72	4299
908.836	4341
908.952	4363
909.068	4424
909.184	4577
909.3	4478
909.415	4561
909.531	4592
909.647	4375
909.762	4337
909.878	4360
909.993	4436
910.108	4379
910.224	4402
910.339	4481
910.454	4394
910.57	4322
910.685	4295
910.8	4660
910.915	4577
911.03	4497
911.145	4344
911.259	4325
911.374	4287
911.489	4318
911.604	4268
911.718	4143
911.833	4181
911.947	4086
912.062	4032
912.176	4211
912.291	4249
912.405	4234
912.519	4470
912.633	4443
912.748	4390
912.862	4276
912.976	4207
913.09	4109
913.204	4128
913.318	4295
913.431	4352
913.545	4367
913.659	4432
913.772	4383
913.886	4223
914	4246
914.113	4367
914.226	4443
914.34	4352
914.453	4227
914.566	4424
914.68	4287
914.793	4325
914.906	4154
915.019	4074
915.132	4036
915.245	4181
915.358	4207
915.47	4249
915.583	4223
915.696	4268
915.809	4379
915.921	4402
916.034	4284
916.146	4261
916.259	4219
916.371	4363
916.483	4360
916.595	4295
916.708	4329
916.82	4310
916.932	4360
917.044	4261
917.156	4284
917.268	4234
917.38	4253
917.491	4257
917.603	4341
917.715	4436
917.826	4443
917.938	4371
918.049	4215
918.161	4402
918.272	4577
918.384	4558
918.495	4497
918.606	4310
918.717	4230
918.828	4310
918.939	4383
919.05	4337
919.161	4383
919.272	4162
919.383	4215
919.494	4424
919.604	4656
919.715	4447
919.826	4417
919.936	4413
920.047	4531
920.157	4542
920.267	4717
920.378	4546
920.488	4577
920.598	4759
920.708	4930
920.818	4790
920.928	4805
921.038	4972
921.148	4987
921.258	4668
921.368	4599
921.477	4535
921.587	4512
921.697	4428
921.806	4569
921.916	4432
922.025	4306
922.134	4291
922.244	4234
922.353	4367
922.462	4223
922.571	4185
922.68	4029
922.789	4036
922.898	4086
923.007	4013
923.116	4139
923.224	4086
923.333	4112
923.442	4021
923.55	3994
923.659	4082
923.767	4124
923.876	4055
923.984	4177
924.092	4071
924.201	4169
924.309	4128
924.417	4120
924.525	4124
924.633	4150
924.741	5102
924.849	3987
924.956	4196
925.064	3972
925.172	3998
925.279	3998
925.387	4101
925.494	4086
925.602	4295
925.709	4200
925.816	4032
925.924	4143
926.031	4284
926.138	4135
926.245	4284
926.352	4124
926.459	4287
926.566	4363
926.673	4181
926.779	4109
926.886	4097
926.993	4021
927.099	4025
927.206	3979
927.312	3945
927.419	4071
927.525	4074
927.631	4120
927.737	3998
927.843	3987
927.95	3865
928.056	4010
928.162	4040
928.267	4109
928.373	4706
928.479	4154
928.585	3922
928.69	4048
928.796	4116
928.901	4017
929.007	3884
929.112	4036
929.218	4006
929.323	3945
929.428	3964
929.533	4120
929.638	3979
929.743	3991
929.848	4071
929.953	4013
930.058	3968
930.163	3823
930.267	3861
930.372	3991
930.477	3846
930.581	4128
930.685	4010
930.79	3861
930.894	3899
930.998	3865
931.103	4093
931.207	3770
931.311	3736
931.415	3698
931.519	3523
931.623	3568
