Data from test_V78500241_1209.txt Node
Date: Fri Mar 25 16:57:24 CST 2022
User: usil
Spectrometer: V785-0024
Trigger mode: 0
Integration Time (sec): 4.000000E-1
Scans to average: 1
Nonlinearity correction enabled: false
Boxcar width: 0
Storing dark spectrum: false
XAxis mode: Wavelengths
Number of Pixels in Spectrum: 1024
>>>>>Begin Spectral Data<<<<<
801.071	8046
801.214	8024
801.356	7917
801.499	7864
801.641	7742
801.783	7803
801.926	7959
802.068	8008
802.211	8020
802.353	7890
802.496	7811
802.638	7822
802.78	7902
802.923	7928
803.065	7883
803.208	7845
803.35	7932
803.492	8031
803.635	8123
803.777	8008
803.919	8123
804.061	8381
804.204	8119
804.346	7978
804.488	7921
804.63	8130
804.773	8012
804.915	8073
805.057	8290
805.199	8157
805.341	8229
805.483	8275
805.626	8176
805.768	8145
805.91	8221
806.052	8263
806.194	8084
806.336	8301
806.478	8111
806.62	8073
806.762	8096
806.904	8290
807.046	8431
807.188	8313
807.33	8259
807.472	8358
807.614	8187
807.756	8115
807.898	7955
808.04	7868
808.182	7826
808.324	7849
808.465	7860
808.607	8096
808.749	8153
808.891	8237
809.033	8324
809.174	8229
809.316	8050
809.458	8043
809.6	7921
809.741	8081
809.883	8020
810.025	8077
810.166	8111
810.308	8077
810.45	7974
810.591	7875
810.733	7662
810.875	7689
811.016	7521
811.158	7540
811.299	7605
811.441	7742
811.582	7651
811.724	7575
811.865	7563
812.007	7533
812.148	7601
812.29	7594
812.431	7734
812.573	7868
812.714	8027
812.855	8153
812.997	8191
813.138	8305
813.279	8187
813.421	7993
813.562	7955
813.703	7852
813.845	7727
813.986	7415
814.127	7240
814.268	7190
814.41	7236
814.551	7110
814.692	7175
814.833	7095
814.974	7065
815.115	7080
815.256	6913
815.397	6901
815.539	6882
815.68	6833
815.821	6791
815.962	6848
816.103	6802
816.244	6677
816.385	6563
816.526	6574
816.666	6445
816.807	6270
816.948	6502
817.089	6506
817.23	6433
817.371	6372
817.512	6384
817.653	6410
817.793	6357
817.934	6471
818.075	6467
818.216	6441
818.356	6372
818.497	6266
818.638	6076
818.778	6190
818.919	6129
819.06	6159
819.2	6273
819.341	6270
819.481	6331
819.622	6551
819.762	6734
819.903	6662
820.043	6601
820.184	6570
820.324	6536
820.465	6677
820.605	6692
820.746	6688
820.886	6486
821.026	6604
821.167	6684
821.307	6779
821.447	6677
821.588	6639
821.728	6589
821.868	6506
822.008	6304
822.149	6384
822.289	6308
822.429	6140
822.569	6076
822.709	6079
822.849	5904
822.99	5912
823.13	5859
823.27	5931
823.41	5726
823.55	5752
823.69	5764
823.83	5737
823.97	5676
824.11	5524
824.25	5566
824.389	5566
824.529	5573
824.669	5554
824.809	5642
824.949	5646
825.089	5619
825.228	5532
825.368	5414
825.508	5395
825.648	5337
825.787	5425
825.927	5406
826.067	5322
826.206	5246
826.346	5414
826.485	5376
826.625	5444
826.765	5547
826.904	5516
827.044	5277
827.183	5250
827.323	5147
827.462	5307
827.601	5178
827.741	5239
827.88	5208
828.02	5098
828.159	5254
828.298	5307
828.437	5357
828.577	5280
828.716	5474
828.855	5307
828.994	5185
829.134	5143
829.273	5250
829.412	5159
829.551	5162
829.69	5174
829.829	5265
829.968	5364
830.107	5315
830.246	5265
830.385	5223
830.524	5147
830.663	5067
830.802	5056
830.941	4961
831.08	4923
831.219	4987
831.357	5033
831.496	5162
831.635	4953
831.774	4858
831.913	4862
832.051	4733
832.19	4793
832.329	4858
832.467	4736
832.606	4618
832.744	4706
832.883	4778
833.022	4725
833.16	4778
833.299	4904
833.437	4812
833.576	4824
833.714	4858
833.852	4870
833.991	4862
834.129	4923
834.267	4999
834.406	4919
834.544	5037
834.682	4961
834.821	4957
834.959	5216
835.097	5048
835.235	5151
835.373	5105
835.511	5075
835.65	5083
835.788	5060
835.926	4904
836.064	4976
836.202	4946
836.34	5170
836.478	5212
836.615	5174
836.753	5239
836.891	5326
837.029	5246
837.167	5254
837.305	5193
837.443	5185
837.58	5128
837.718	5307
837.856	5155
837.993	5170
838.131	5273
838.269	5204
838.406	5261
838.544	5220
838.681	5071
838.819	5025
838.956	4934
839.094	4946
839.231	5018
839.369	5086
839.506	5444
839.643	5318
839.781	5102
839.918	5048
840.055	5128
840.193	5121
840.33	5128
840.467	5136
840.604	5178
840.742	5486
840.879	5147
841.016	5079
841.153	5181
841.29	5425
841.427	5364
841.564	5303
841.701	5391
841.838	5311
841.975	5288
842.112	5326
842.249	5181
842.385	5117
842.522	5337
842.659	5212
842.796	5181
842.933	5181
843.069	5162
843.206	5193
843.343	5288
843.479	5235
843.616	5280
843.752	5064
843.889	5090
844.025	5254
844.162	5045
844.298	5239
844.435	5113
844.571	5052
844.708	5242
844.844	5315
844.98	5334
845.117	5357
845.253	5140
845.389	5136
845.525	5174
845.661	5086
845.798	5071
845.934	5174
846.07	5075
846.206	5239
846.342	5250
846.478	5212
846.614	5037
846.75	5025
846.886	4965
847.022	5113
847.158	5052
847.294	5121
847.429	5094
847.565	5098
847.701	5353
847.837	4881
847.972	4820
848.108	4984
848.244	4946
848.379	4774
848.515	4729
848.65	4717
848.786	4763
848.921	4782
849.057	4858
849.192	4919
849.328	4843
849.463	4847
849.598	4847
849.734	4736
849.869	4672
850.004	4672
850.14	4660
850.275	4672
850.41	4573
850.545	4561
850.68	4607
850.815	4675
850.95	4592
851.085	4809
851.22	4714
851.355	4694
851.49	4637
851.625	4630
851.76	4641
851.895	4542
852.03	4569
852.165	4691
852.299	4748
852.434	4763
852.569	4755
852.703	4850
852.838	4831
852.973	4980
853.107	4976
853.242	4755
853.376	4683
853.511	4611
853.645	4630
853.78	4816
853.914	4706
854.048	4706
854.183	4679
854.317	4752
854.451	4870
854.585	4714
854.72	4672
854.854	4790
854.988	4573
855.122	4634
855.256	4573
855.39	4679
855.524	4812
855.658	4774
855.792	4672
855.926	4691
856.06	4782
856.194	4786
856.327	4691
856.461	4599
856.595	4656
856.729	4664
856.862	4801
856.996	4664
857.13	4744
857.263	4767
857.397	4816
857.53	4672
857.664	4740
857.797	4786
857.931	4790
858.064	4706
858.197	4801
858.331	4672
858.464	4630
858.597	4527
858.731	4641
858.864	4675
858.997	4577
859.13	4664
859.263	4698
859.396	4656
859.529	4558
859.662	4592
859.795	4603
859.928	4637
860.061	4744
860.194	4748
860.327	4615
860.46	4569
860.592	4698
860.725	4679
860.858	4717
860.99	4592
861.123	4550
861.256	4535
861.388	4618
861.521	5322
861.653	4558
861.786	4451
861.918	4478
862.05	4523
862.183	4497
862.315	4634
862.447	4649
862.58	4596
862.712	4405
862.844	4383
862.976	4447
863.108	4481
863.24	4889
863.372	4325
863.504	4443
863.636	4421
863.768	4538
863.9	4436
864.032	4341
864.164	4405
864.296	4493
864.428	4546
864.559	4630
864.691	4519
864.823	4569
864.954	4504
865.086	4519
865.217	4436
865.349	4398
865.48	4451
865.612	4485
865.743	4637
865.875	4459
866.006	4413
866.137	4474
866.269	4447
866.4	4421
866.531	4428
866.662	4333
866.793	4409
866.924	4443
867.055	4500
867.186	4500
867.317	4447
867.448	4375
867.579	4436
867.71	4383
867.841	4379
867.972	4443
868.103	4493
868.233	4478
868.364	4489
868.495	4478
868.625	4744
868.756	4771
868.886	4592
869.017	4645
869.147	4801
869.278	4812
869.408	4656
869.539	4637
869.669	4744
869.799	4664
869.929	4767
870.06	4755
870.19	4908
870.32	4934
870.45	4946
870.58	5018
870.71	5166
870.84	5083
870.97	4965
871.1	4908
871.23	5216
871.36	5159
871.489	5083
871.619	5086
871.749	5155
871.879	5147
872.008	5197
872.138	5105
872.267	4984
872.397	4839
872.526	4801
872.656	4714
872.785	4843
872.915	4911
873.044	5090
873.173	4942
873.303	4927
873.432	5003
873.561	4976
873.69	4877
873.819	4805
873.948	4946
874.077	4828
874.206	4805
874.335	4862
874.464	4927
874.593	5064
874.722	4961
874.851	5117
874.979	5105
875.108	5045
875.237	4923
875.365	4877
875.494	4881
875.623	4995
875.751	4820
875.88	4904
876.008	4999
876.136	5014
876.265	5250
876.393	5368
876.521	5227
876.65	5261
876.778	5136
876.906	5067
877.034	5033
877.162	5079
877.29	5022
877.418	5037
877.546	5045
877.674	5064
877.802	5022
877.93	5086
878.058	4976
878.185	4885
878.313	4999
878.441	4972
878.568	4847
878.696	4900
878.824	4953
878.951	4987
879.079	5117
879.206	5288
879.333	5132
879.461	4980
879.588	5041
879.715	5105
879.842	5193
879.97	5045
880.097	4843
880.224	4710
880.351	4778
880.478	4820
880.605	4805
880.732	4820
880.859	5086
880.986	4949
881.112	4934
881.239	4850
881.366	4721
881.493	4599
881.619	4596
881.746	4653
881.872	4691
881.999	4679
882.125	4736
882.252	4767
882.378	4820
882.505	4972
882.631	4809
882.757	4645
882.883	4683
883.01	4755
883.136	4702
883.262	4611
883.388	4649
883.514	4831
883.64	4900
883.766	4790
883.892	4725
884.018	4725
884.143	4915
884.269	5056
884.395	4717
884.52	4653
884.646	4626
884.772	4607
884.897	4580
885.023	4706
885.148	4752
885.274	4892
885.399	4809
885.524	4721
885.65	4702
885.775	4793
885.9	4812
886.025	4866
886.15	4755
886.275	4740
886.4	4668
886.525	4744
886.65	4660
886.775	4721
886.9	4923
887.025	5045
887.149	4816
887.274	4634
887.399	4615
887.523	4675
887.648	4634
887.773	4599
887.897	4812
888.021	4805
888.146	4645
888.27	4801
888.395	4915
888.519	4835
888.643	4797
888.767	4816
888.891	4702
889.015	4599
889.139	4706
889.263	4618
889.387	4752
889.511	4850
889.635	4778
889.759	4675
889.883	4630
890.006	4694
890.13	4850
890.254	4622
890.377	4683
890.501	4554
890.624	4504
890.748	4622
890.871	4538
890.995	4443
891.118	4405
891.241	4516
891.364	4516
891.488	4626
891.611	4489
891.734	4516
891.857	4637
891.98	4584
892.103	4656
892.226	4599
892.349	4550
892.471	4428
892.594	4561
892.717	4611
892.839	4599
892.962	4622
893.085	4698
893.207	4573
893.33	4440
893.452	4497
893.575	4656
893.697	4577
893.819	4824
893.941	4797
894.064	4752
894.186	4618
894.308	4569
894.43	4744
894.552	4820
894.674	4759
894.796	4584
894.918	4569
895.04	4584
895.161	4714
895.283	4687
895.405	4588
895.526	4645
895.648	4679
895.769	4679
895.891	4721
896.012	4759
896.134	4714
896.255	4733
896.376	4660
896.498	4630
896.619	4668
896.74	4615
896.861	4668
896.982	4911
897.103	5071
897.224	4774
897.345	4740
897.466	4668
897.587	4721
897.708	4873
897.828	4767
897.949	4679
898.07	4565
898.19	4672
898.311	4797
898.431	4679
898.552	4744
898.672	4820
898.792	4801
898.913	4740
899.033	4634
899.153	4508
899.273	4413
899.393	4516
899.513	4558
899.633	4527
899.753	4550
899.873	4527
899.993	4535
900.113	4500
900.232	4630
900.352	4596
900.472	4500
900.591	4481
900.711	4523
900.83	4470
900.95	4569
901.069	4675
901.189	4500
901.308	4352
901.427	4318
901.546	4371
901.665	4489
901.784	4512
901.904	4402
902.023	4299
902.141	4166
902.26	4211
902.379	4310
902.498	4249
902.617	4200
902.735	4341
902.854	4409
902.973	4356
903.091	4227
903.21	4253
903.328	4306
903.446	4257
903.565	4295
903.683	4344
903.801	4291
903.919	4383
904.038	4478
904.156	4310
904.274	4459
904.392	4413
904.51	4436
904.627	4455
904.745	4580
904.863	4607
904.981	4390
905.098	4306
905.216	4398
905.334	4428
905.451	4413
905.569	4485
905.686	4546
905.803	4588
905.921	4440
906.038	4561
906.155	4481
906.272	4409
906.389	4424
906.506	4386
906.623	4371
906.74	4405
906.857	4253
906.974	4394
907.091	4630
907.208	4588
907.324	4573
907.441	4504
907.557	4352
907.674	4344
907.79	4333
907.907	4402
908.023	4455
908.139	4459
908.256	4413
908.372	4478
908.488	4474
908.604	4341
908.72	4333
908.836	4394
908.952	4352
909.068	4440
909.184	4626
909.3	4451
909.415	4550
909.531	4558
909.647	4360
909.762	4360
909.878	4310
909.993	4455
910.108	4390
910.224	4405
910.339	4493
910.454	4447
910.57	4379
910.685	4318
910.8	4698
910.915	4561
911.03	4485
911.145	4352
911.259	4367
911.374	4375
911.489	4314
911.604	4246
911.718	4150
911.833	4158
911.947	4063
912.062	4002
912.176	4173
912.291	4188
912.405	4257
912.519	4474
912.633	4466
912.748	4344
912.862	4276
912.976	4230
913.09	4109
913.204	4162
913.318	4261
913.431	4367
913.545	4348
913.659	4421
913.772	4367
913.886	4265
914	4204
914.113	4375
914.226	4443
914.34	4371
914.453	4230
914.566	4402
914.68	4291
914.793	4325
914.906	4135
915.019	4124
915.132	4082
915.245	4204
915.358	4188
915.47	4227
915.583	4249
915.696	4284
915.809	4409
915.921	4436
916.034	4242
916.146	4257
916.259	4238
916.371	4386
916.483	4375
916.595	4287
916.708	4356
916.82	4333
916.932	4390
917.044	4318
917.156	4295
917.268	4253
917.38	4295
917.491	4272
917.603	4325
917.715	4409
917.826	4417
917.938	4383
918.049	4219
918.161	4405
918.272	4500
918.384	4542
918.495	4470
918.606	4257
918.717	4215
918.828	4333
918.939	4352
919.05	4299
919.161	4318
919.272	4150
919.383	4200
919.494	4413
919.604	4710
919.715	4421
919.826	4375
919.936	4394
920.047	4504
920.157	4474
920.267	4706
920.378	4550
920.488	4504
920.598	4694
920.708	4881
920.818	4812
920.928	4752
921.038	4991
921.148	4908
921.258	4622
921.368	4550
921.477	4489
921.587	4451
921.697	4432
921.806	4550
921.916	4436
922.025	4265
922.134	4227
922.244	4223
922.353	4352
922.462	4177
922.571	4150
922.68	4059
922.789	3968
922.898	3994
923.007	3979
923.116	4059
923.224	4051
923.333	4109
923.442	3949
923.55	3994
923.659	4013
923.767	4086
923.876	3979
923.984	4105
924.092	4006
924.201	4101
924.309	4074
924.417	4139
924.525	4082
924.633	4044
924.741	5041
924.849	3915
924.956	4162
925.064	3918
925.172	3918
925.279	3994
925.387	4071
925.494	4032
925.602	4177
925.709	4177
925.816	4013
925.924	4131
926.031	4230
926.138	4169
926.245	4150
926.352	4074
926.459	4230
926.566	4306
926.673	4188
926.779	4051
926.886	4040
926.993	3964
927.099	4002
927.206	3964
927.312	3956
927.419	4086
927.525	4006
927.631	4063
927.737	3911
927.843	3979
927.95	3816
928.056	3926
928.162	4029
928.267	4055
928.373	4672
928.479	4101
928.585	3918
928.69	4082
928.796	4067
928.901	3949
929.007	3850
929.112	4048
929.218	3998
929.323	3907
929.428	3941
929.533	4128
929.638	3892
929.743	3934
929.848	4063
929.953	3972
930.058	3915
930.163	3793
930.267	3823
930.372	3972
930.477	3831
930.581	4055
930.685	3953
930.79	3861
930.894	3857
930.998	3880
931.103	4017
931.207	3717
931.311	3679
931.415	3705
931.519	3519
931.623	3561
