Data from test_V78500241_2472.txt Node
Date: Fri Mar 25 17:06:11 CST 2022
User: usil
Spectrometer: V785-0024
Trigger mode: 0
Integration Time (sec): 4.000000E-1
Scans to average: 1
Nonlinearity correction enabled: false
Boxcar width: 0
Storing dark spectrum: false
XAxis mode: Wavelengths
Number of Pixels in Spectrum: 1024
>>>>>Begin Spectral Data<<<<<
801.071	8062
801.214	8012
801.356	7833
801.499	7788
801.641	7723
801.783	7841
801.926	8031
802.068	7932
802.211	7951
802.353	7986
802.496	7875
802.638	7845
802.78	7917
802.923	7909
803.065	7868
803.208	7868
803.35	7978
803.492	8054
803.635	8100
803.777	8054
803.919	8126
804.061	8438
804.204	8229
804.346	8153
804.488	7940
804.63	8081
804.773	8046
804.915	8123
805.057	8351
805.199	8176
805.341	8130
805.483	8298
805.626	8282
805.768	8092
805.91	8221
806.052	8225
806.194	8123
806.336	8256
806.478	8115
806.62	8088
806.762	8149
806.904	8244
807.046	8484
807.188	8358
807.33	8256
807.472	8377
807.614	8180
807.756	8145
807.898	8081
808.04	7932
808.182	7841
808.324	7913
808.465	7940
808.607	8100
808.749	8142
808.891	8259
809.033	8362
809.174	8256
809.316	8103
809.458	8149
809.6	8046
809.741	8027
809.883	8065
810.025	8062
810.166	8149
810.308	8008
810.45	8027
810.591	7913
810.733	7780
810.875	7727
811.016	7609
811.158	7491
811.299	7597
811.441	7731
811.582	7655
811.724	7636
811.865	7628
812.007	7643
812.148	7689
812.29	7708
812.431	7780
812.573	7852
812.714	8001
812.855	8077
812.997	8214
813.138	8366
813.279	8237
813.421	8172
813.562	7921
813.703	7788
813.845	7731
813.986	7426
814.127	7324
814.268	7278
814.41	7228
814.551	7183
814.692	7259
814.833	7145
814.974	7129
815.115	7137
815.256	7012
815.397	7000
815.539	7008
815.68	6924
815.821	6810
815.962	6867
816.103	6894
816.244	6696
816.385	6662
816.526	6627
816.666	6566
816.807	6327
816.948	6422
817.089	6490
817.23	6509
817.371	6426
817.512	6422
817.653	6460
817.793	6452
817.934	6448
818.075	6464
818.216	6441
818.356	6437
818.497	6232
818.638	6171
818.778	6186
818.919	6175
819.06	6186
819.2	6403
819.341	6319
819.481	6506
819.622	6597
819.762	6772
819.903	6738
820.043	6616
820.184	6623
820.324	6646
820.465	6734
820.605	6757
820.746	6715
820.886	6521
821.026	6703
821.167	6760
821.307	6821
821.447	6818
821.588	6677
821.728	6639
821.868	6517
822.008	6407
822.149	6433
822.289	6384
822.429	6243
822.569	6121
822.709	6106
822.849	5954
822.99	5958
823.13	5969
823.27	5961
823.41	5771
823.55	5836
823.69	5779
823.83	5832
823.97	5752
824.11	5554
824.25	5558
824.389	5604
824.529	5627
824.669	5509
824.809	5695
824.949	5665
825.089	5684
825.228	5604
825.368	5440
825.508	5372
825.648	5368
825.787	5414
825.927	5444
826.067	5326
826.206	5242
826.346	5402
826.485	5410
826.625	5459
826.765	5611
826.904	5505
827.044	5265
827.183	5246
827.323	5170
827.462	5311
827.601	5174
827.741	5261
827.88	5227
828.02	5136
828.159	5311
828.298	5372
828.437	5433
828.577	5250
828.716	5490
828.855	5337
828.994	5208
829.134	5162
829.273	5231
829.412	5159
829.551	5143
829.69	5212
829.829	5280
829.968	5402
830.107	5265
830.246	5353
830.385	5235
830.524	5208
830.663	5162
830.802	5014
830.941	4927
831.08	4850
831.219	5060
831.357	5022
831.496	5155
831.635	4972
831.774	4854
831.913	4850
832.051	4763
832.19	4748
832.329	4889
832.467	4733
832.606	4694
832.744	4752
832.883	4763
833.022	4717
833.16	4824
833.299	4889
833.437	4847
833.576	4904
833.714	4892
833.852	4923
833.991	4889
834.129	4972
834.267	4953
834.406	4915
834.544	4976
834.682	5014
834.821	5006
834.959	5151
835.097	4980
835.235	5181
835.373	5094
835.511	5098
835.65	5098
835.788	5025
835.926	4896
836.064	4877
836.202	4930
836.34	5166
836.478	5265
836.615	5143
836.753	5242
836.891	5296
837.029	5220
837.167	5216
837.305	5162
837.443	5140
837.58	5147
837.718	5296
837.856	5201
837.993	5242
838.131	5296
838.269	5136
838.406	5212
838.544	5227
838.681	5090
838.819	5025
838.956	4889
839.094	4946
839.231	5006
839.369	5132
839.506	5425
839.643	5345
839.781	5052
839.918	5067
840.055	5121
840.193	5121
840.33	5113
840.467	5162
840.604	5223
840.742	5417
840.879	5094
841.016	5121
841.153	5216
841.29	5406
841.427	5387
841.564	5334
841.701	5349
841.838	5337
841.975	5280
842.112	5334
842.249	5216
842.385	5128
842.522	5398
842.659	5220
842.796	5201
842.933	5208
843.069	5201
843.206	5128
843.343	5280
843.479	5292
843.616	5239
843.752	5037
843.889	5098
844.025	5296
844.162	5048
844.298	5280
844.435	5037
844.571	5071
844.708	5269
844.844	5318
844.98	5425
845.117	5341
845.253	5178
845.389	5124
845.525	5223
845.661	5159
845.798	5079
845.934	5174
846.07	5037
846.206	5265
846.342	5311
846.478	5181
846.614	5067
846.75	4953
846.886	4957
847.022	5181
847.158	4995
847.294	5113
847.429	5117
847.565	5056
847.701	5311
847.837	4862
847.972	4820
848.108	5010
848.244	4961
848.379	4801
848.515	4710
848.65	4740
848.786	4755
848.921	4778
849.057	4930
849.192	4942
849.328	4877
849.463	4812
849.598	4831
849.734	4740
849.869	4691
850.004	4599
850.14	4683
850.275	4630
850.41	4577
850.545	4607
850.68	4637
850.815	4653
850.95	4641
851.085	4915
851.22	4759
851.355	4649
851.49	4672
851.625	4691
851.76	4672
851.895	4577
852.03	4569
852.165	4714
852.299	4736
852.434	4812
852.569	4767
852.703	4820
852.838	4885
852.973	4980
853.107	4908
853.242	4729
853.376	4672
853.511	4618
853.645	4641
853.78	4862
853.914	4687
854.048	4683
854.183	4649
854.317	4694
854.451	4850
854.585	4668
854.72	4668
854.854	4793
854.988	4634
855.122	4660
855.256	4573
855.39	4664
855.524	4771
855.658	4782
855.792	4687
855.926	4740
856.06	4774
856.194	4805
856.327	4698
856.461	4626
856.595	4637
856.729	4653
856.862	4748
856.996	4717
857.13	4752
857.263	4771
857.397	4812
857.53	4637
857.664	4752
857.797	4733
857.931	4767
858.064	4694
858.197	4721
858.331	4714
858.464	4664
858.597	4573
858.731	4687
858.864	4656
858.997	4546
859.13	4710
859.263	4733
859.396	4725
859.529	4577
859.662	4577
859.795	4596
859.928	4611
860.061	4778
860.194	4725
860.327	4592
860.46	4542
860.592	4748
860.725	4691
860.858	4748
860.99	4584
861.123	4554
861.256	4573
861.388	4618
861.521	5261
861.653	4478
861.786	4478
861.918	4489
862.05	4481
862.183	4573
862.315	4565
862.447	4679
862.58	4584
862.712	4398
862.844	4318
862.976	4523
863.108	4421
863.24	4892
863.372	4402
863.504	4459
863.636	4409
863.768	4451
863.9	4413
864.032	4405
864.164	4409
864.296	4440
864.428	4603
864.559	4573
864.691	4558
864.823	4550
864.954	4512
865.086	4569
865.217	4451
865.349	4402
865.48	4455
865.612	4519
865.743	4641
865.875	4436
866.006	4459
866.137	4504
866.269	4478
866.4	4459
866.531	4417
866.662	4436
866.793	4440
866.924	4455
867.055	4546
867.186	4466
867.317	4413
867.448	4371
867.579	4424
867.71	4333
867.841	4417
867.972	4523
868.103	4459
868.233	4481
868.364	4455
868.495	4504
868.625	4679
868.756	4763
868.886	4603
869.017	4596
869.147	4812
869.278	4778
869.408	4653
869.539	4599
869.669	4656
869.799	4706
869.929	4782
870.06	4748
870.19	4991
870.32	4965
870.45	4942
870.58	5022
870.71	5079
870.84	5086
870.97	4923
871.1	4877
871.23	5109
871.36	5079
871.489	5022
871.619	5056
871.749	5109
871.879	5178
872.008	5181
872.138	5086
872.267	5033
872.397	4904
872.526	4877
872.656	4771
872.785	4862
872.915	4999
873.044	5071
873.173	4934
873.303	4934
873.432	4976
873.561	4957
873.69	4915
873.819	4892
873.948	4927
874.077	4858
874.206	4767
874.335	4812
874.464	4934
874.593	5052
874.722	4927
874.851	5109
874.979	5121
875.108	5109
875.237	4930
875.365	4892
875.494	4923
875.623	5003
875.751	4843
875.88	4896
876.008	4999
876.136	5109
876.265	5204
876.393	5322
876.521	5246
876.65	5197
876.778	5197
876.906	5117
877.034	5006
877.162	5083
877.29	5022
877.418	5083
877.546	5067
877.674	5079
877.802	5067
877.93	5075
878.058	4965
878.185	4889
878.313	4900
878.441	4915
878.568	4816
878.696	4938
878.824	4980
878.951	4965
879.079	5162
879.206	5280
879.333	5113
879.461	5010
879.588	5048
879.715	5136
879.842	5239
879.97	5018
880.097	4809
880.224	4759
880.351	4847
880.478	4828
880.605	4847
880.732	4786
880.859	5117
880.986	4885
881.112	4934
881.239	4828
881.366	4649
881.493	4615
881.619	4588
881.746	4656
881.872	4649
881.999	4656
882.125	4660
882.252	4733
882.378	4812
882.505	4968
882.631	4793
882.757	4656
882.883	4759
883.01	4748
883.136	4653
883.262	4653
883.388	4618
883.514	4828
883.64	4885
883.766	4793
883.892	4679
884.018	4748
884.143	4870
884.269	5025
884.395	4687
884.52	4596
884.646	4649
884.772	4615
884.897	4565
885.023	4660
885.148	4782
885.274	4835
885.399	4809
885.524	4759
885.65	4694
885.775	4771
885.9	4733
886.025	4824
886.15	4790
886.275	4710
886.4	4637
886.525	4744
886.65	4687
886.775	4710
886.9	4896
887.025	5003
887.149	4816
887.274	4694
887.399	4573
887.523	4634
887.648	4584
887.773	4599
887.897	4778
888.021	4809
888.146	4721
888.27	4763
888.395	4927
888.519	4843
888.643	4862
888.767	4797
888.891	4687
889.015	4592
889.139	4618
889.263	4580
889.387	4812
889.511	4854
889.635	4824
889.759	4637
889.883	4630
890.006	4763
890.13	4809
890.254	4660
890.377	4729
890.501	4538
890.624	4558
890.748	4630
890.871	4523
890.995	4436
891.118	4421
891.241	4516
891.364	4504
891.488	4649
891.611	4508
891.734	4474
891.857	4641
891.98	4542
892.103	4664
892.226	4580
892.349	4500
892.471	4413
892.594	4580
892.717	4596
892.839	4611
892.962	4607
893.085	4664
893.207	4546
893.33	4474
893.452	4523
893.575	4641
893.697	4584
893.819	4809
893.941	4858
894.064	4809
894.186	4584
894.308	4561
894.43	4763
894.552	4824
894.674	4767
894.796	4523
894.918	4599
895.04	4577
895.161	4660
895.283	4706
895.405	4584
895.526	4592
895.648	4710
895.769	4710
895.891	4729
896.012	4748
896.134	4752
896.255	4672
896.376	4637
896.498	4679
896.619	4675
896.74	4599
896.861	4630
896.982	4938
897.103	5075
897.224	4858
897.345	4793
897.466	4687
897.587	4733
897.708	4862
897.828	4771
897.949	4668
898.07	4588
898.19	4596
898.311	4858
898.431	4641
898.552	4740
898.672	4824
898.792	4820
898.913	4782
899.033	4672
899.153	4504
899.273	4421
899.393	4500
899.513	4504
899.633	4542
899.753	4577
899.873	4497
899.993	4592
900.113	4508
900.232	4546
900.352	4497
900.472	4474
900.591	4432
900.711	4481
900.83	4436
900.95	4615
901.069	4706
901.189	4535
901.308	4402
901.427	4337
901.546	4398
901.665	4455
901.784	4485
901.904	4405
902.023	4341
902.141	4154
902.26	4185
902.379	4280
902.498	4230
902.617	4238
902.735	4375
902.854	4379
902.973	4337
903.091	4177
903.21	4207
903.328	4375
903.446	4287
903.565	4272
903.683	4352
903.801	4306
903.919	4409
904.038	4432
904.156	4375
904.274	4440
904.392	4363
904.51	4417
904.627	4466
904.745	4592
904.863	4672
904.981	4485
905.098	4310
905.216	4375
905.334	4409
905.451	4440
905.569	4455
905.686	4542
905.803	4592
905.921	4402
906.038	4542
906.155	4500
906.272	4428
906.389	4428
906.506	4284
906.623	4367
906.74	4417
906.857	4318
906.974	4360
907.091	4580
907.208	4721
907.324	4592
907.441	4516
907.557	4398
907.674	4356
907.79	4329
907.907	4402
908.023	4531
908.139	4478
908.256	4436
908.372	4500
908.488	4436
908.604	4356
908.72	4348
908.836	4379
908.952	4390
909.068	4383
909.184	4596
909.3	4466
909.415	4592
909.531	4531
909.647	4348
909.762	4398
909.878	4379
909.993	4455
910.108	4413
910.224	4417
910.339	4474
910.454	4413
910.57	4363
910.685	4265
910.8	4637
910.915	4641
911.03	4436
911.145	4337
911.259	4299
911.374	4367
911.489	4314
911.604	4318
911.718	4215
911.833	4200
911.947	4067
912.062	4036
912.176	4204
912.291	4272
912.405	4265
912.519	4459
912.633	4531
912.748	4367
912.862	4306
912.976	4249
913.09	4067
913.204	4166
913.318	4230
913.431	4299
913.545	4383
913.659	4405
913.772	4337
913.886	4215
914	4238
914.113	4394
914.226	4405
914.34	4405
914.453	4227
914.566	4455
914.68	4329
914.793	4303
914.906	4169
915.019	4112
915.132	4059
915.245	4154
915.358	4188
915.47	4257
915.583	4238
915.696	4253
915.809	4409
915.921	4421
916.034	4287
916.146	4265
916.259	4207
916.371	4375
916.483	4352
916.595	4257
916.708	4352
916.82	4314
916.932	4299
917.044	4284
917.156	4341
917.268	4246
917.38	4318
917.491	4295
917.603	4325
917.715	4383
917.826	4421
917.938	4329
918.049	4253
918.161	4390
918.272	4531
918.384	4554
918.495	4417
918.606	4291
918.717	4219
918.828	4329
918.939	4360
919.05	4265
919.161	4333
919.272	4139
919.383	4242
919.494	4432
919.604	4588
919.715	4371
919.826	4356
919.936	4398
920.047	4592
920.157	4470
920.267	4691
920.378	4489
920.488	4470
920.598	4729
920.708	4911
920.818	4725
920.928	4843
921.038	4965
921.148	4965
921.258	4603
921.368	4538
921.477	4485
921.587	4462
921.697	4390
921.806	4542
921.916	4409
922.025	4276
922.134	4287
922.244	4227
922.353	4287
922.462	4158
922.571	4116
922.68	3991
922.789	3941
922.898	4010
923.007	4006
923.116	4120
923.224	4063
923.333	4093
923.442	4006
923.55	3983
923.659	4067
923.767	4128
923.876	3953
923.984	4135
924.092	4002
924.201	4093
924.309	4071
924.417	4112
924.525	4059
924.633	4124
924.741	5014
924.849	3896
924.956	4143
925.064	3953
925.172	3922
925.279	3979
925.387	4032
925.494	4101
925.602	4223
925.709	4196
925.816	4051
925.924	4090
926.031	4230
926.138	4211
926.245	4230
926.352	4074
926.459	4150
926.566	4284
926.673	4143
926.779	4063
926.886	4105
926.993	3979
927.099	3983
927.206	3926
927.312	3934
927.419	4044
927.525	4021
927.631	4105
927.737	3979
927.843	3953
927.95	3827
928.056	3987
928.162	3998
928.267	4040
928.373	4649
928.479	4120
928.585	3884
928.69	4021
928.796	4048
928.901	3991
929.007	3850
929.112	4006
929.218	3991
929.323	3968
929.428	3968
929.533	4116
929.638	3949
929.743	3953
929.848	3987
929.953	4021
930.058	3930
930.163	3800
930.267	3804
930.372	3972
930.477	3846
930.581	4135
930.685	3968
930.79	3785
930.894	3869
930.998	3812
931.103	4040
931.207	3728
931.311	3720
931.415	3625
931.519	3477
931.623	3538
