Data from test_V78500241_960.txt Node
Date: Fri Mar 25 16:55:40 CST 2022
User: usil
Spectrometer: V785-0024
Trigger mode: 0
Integration Time (sec): 4.000000E-1
Scans to average: 1
Nonlinearity correction enabled: false
Boxcar width: 0
Storing dark spectrum: false
XAxis mode: Wavelengths
Number of Pixels in Spectrum: 1024
>>>>>Begin Spectral Data<<<<<
801.071	8008
801.214	8012
801.356	7864
801.499	7860
801.641	7811
801.783	7902
801.926	8031
802.068	7902
802.211	7936
802.353	7986
802.496	7780
802.638	7776
802.78	7906
802.923	7970
803.065	7890
803.208	7902
803.35	7986
803.492	8081
803.635	8145
803.777	8005
803.919	8069
804.061	8434
804.204	8138
804.346	8058
804.488	7978
804.63	8123
804.773	8058
804.915	8126
805.057	8233
805.199	8069
805.341	8301
805.483	8286
805.626	8206
805.768	8073
805.91	8218
806.052	8157
806.194	8081
806.336	8298
806.478	8138
806.62	8103
806.762	8111
806.904	8275
807.046	8412
807.188	8305
807.33	8252
807.472	8294
807.614	8130
807.756	8111
807.898	8027
808.04	7898
808.182	7826
808.324	7909
808.465	7879
808.607	8092
808.749	8088
808.891	8172
809.033	8263
809.174	8199
809.316	8073
809.458	8081
809.6	8005
809.741	8107
809.883	8039
810.025	8100
810.166	8062
810.308	8024
810.45	7970
810.591	7860
810.733	7677
810.875	7704
811.016	7445
811.158	7480
811.299	7620
811.441	7677
811.582	7712
811.724	7556
811.865	7480
812.007	7514
812.148	7537
812.29	7636
812.431	7723
812.573	7803
812.714	7944
812.855	8191
812.997	8157
813.138	8256
813.279	8180
813.421	8081
813.562	7993
813.703	7864
813.845	7765
813.986	7529
814.127	7293
814.268	7198
814.41	7149
814.551	7122
814.692	7129
814.833	7050
814.974	7038
815.115	7099
815.256	6905
815.397	6913
815.539	6989
815.68	6818
815.821	6753
815.962	6859
816.103	6821
816.244	6715
816.385	6642
816.526	6665
816.666	6498
816.807	6300
816.948	6460
817.089	6437
817.23	6410
817.371	6395
817.512	6407
817.653	6445
817.793	6433
817.934	6437
818.075	6433
818.216	6414
818.356	6414
818.497	6216
818.638	6060
818.778	6129
818.919	6125
819.06	6171
819.2	6281
819.341	6292
819.481	6338
819.622	6475
819.762	6715
819.903	6707
820.043	6604
820.184	6582
820.324	6502
820.465	6654
820.605	6642
820.746	6620
820.886	6490
821.026	6612
821.167	6696
821.307	6821
821.447	6707
821.588	6608
821.728	6593
821.868	6460
822.008	6361
822.149	6300
822.289	6353
822.429	6125
822.569	6091
822.709	6140
822.849	5916
822.99	5920
823.13	5931
823.27	5897
823.41	5840
823.55	5737
823.69	5726
823.83	5798
823.97	5634
824.11	5562
824.25	5474
824.389	5600
824.529	5581
824.669	5524
824.809	5630
824.949	5642
825.089	5608
825.228	5539
825.368	5429
825.508	5349
825.648	5364
825.787	5341
825.927	5395
826.067	5246
826.206	5261
826.346	5318
826.485	5410
826.625	5376
826.765	5539
826.904	5463
827.044	5258
827.183	5170
827.323	5094
827.462	5227
827.601	5143
827.741	5178
827.88	5193
828.02	5121
828.159	5250
828.298	5299
828.437	5357
828.577	5265
828.716	5486
828.855	5311
828.994	5136
829.134	5117
829.273	5185
829.412	5105
829.551	5105
829.69	5181
829.829	5189
829.968	5330
830.107	5277
830.246	5242
830.385	5128
830.524	5094
830.663	5056
830.802	4953
830.941	4854
831.08	4847
831.219	4938
831.357	4938
831.496	5162
831.635	4953
831.774	4801
831.913	4824
832.051	4721
832.19	4759
832.329	4839
832.467	4698
832.606	4615
832.744	4698
832.883	4725
833.022	4698
833.16	4782
833.299	4843
833.437	4816
833.576	4771
833.714	4847
833.852	4870
833.991	4877
834.129	4900
834.267	4938
834.406	4900
834.544	4968
834.682	4896
834.821	4934
834.959	5140
835.097	4938
835.235	5147
835.373	5064
835.511	5105
835.65	5029
835.788	5018
835.926	4965
836.064	4839
836.202	4972
836.34	5147
836.478	5299
836.615	5090
836.753	5178
836.891	5280
837.029	5258
837.167	5242
837.305	5128
837.443	5102
837.58	5098
837.718	5220
837.856	5166
837.993	5105
838.131	5242
838.269	5193
838.406	5105
838.544	5143
838.681	5052
838.819	4968
838.956	4885
839.094	4908
839.231	4991
839.369	5075
839.506	5372
839.643	5246
839.781	5041
839.918	5003
840.055	5067
840.193	5124
840.33	5037
840.467	5121
840.604	5155
840.742	5467
840.879	5071
841.016	5075
841.153	5124
841.29	5311
841.427	5318
841.564	5315
841.701	5322
841.838	5197
841.975	5197
842.112	5258
842.249	5136
842.385	5140
842.522	5330
842.659	5147
842.796	5143
842.933	5216
843.069	5140
843.206	5155
843.343	5311
843.479	5201
843.616	5273
843.752	4999
843.889	5025
844.025	5170
844.162	4995
844.298	5227
844.435	5056
844.571	5056
844.708	5140
844.844	5299
844.98	5307
845.117	5197
845.253	5174
845.389	5048
845.525	5159
845.661	5147
845.798	5041
845.934	5102
846.07	5041
846.206	5162
846.342	5299
846.478	5181
846.614	5037
846.75	4987
846.886	4915
847.022	5105
847.158	5010
847.294	5102
847.429	5098
847.565	5025
847.701	5322
847.837	4843
847.972	4809
848.108	4892
848.244	4908
848.379	4752
848.515	4694
848.65	4687
848.786	4763
848.921	4736
849.057	4843
849.192	4877
849.328	4786
849.463	4805
849.598	4805
849.734	4790
849.869	4694
850.004	4618
850.14	4679
850.275	4630
850.41	4500
850.545	4584
850.68	4550
850.815	4615
850.95	4596
851.085	4812
851.22	4755
851.355	4664
851.49	4584
851.625	4668
851.76	4622
851.895	4527
852.03	4512
852.165	4607
852.299	4687
852.434	4782
852.569	4752
852.703	4778
852.838	4805
852.973	4892
853.107	4881
853.242	4725
853.376	4691
853.511	4497
853.645	4607
853.78	4771
853.914	4668
854.048	4645
854.183	4615
854.317	4698
854.451	4816
854.585	4679
854.72	4611
854.854	4736
854.988	4565
855.122	4630
855.256	4512
855.39	4664
855.524	4801
855.658	4694
855.792	4668
855.926	4729
856.06	4725
856.194	4752
856.327	4691
856.461	4565
856.595	4599
856.729	4634
856.862	4744
856.996	4645
857.13	4714
857.263	4717
857.397	4767
857.53	4668
857.664	4725
857.797	4714
857.931	4767
858.064	4702
858.197	4733
858.331	4603
858.464	4596
858.597	4504
858.731	4634
858.864	4637
858.997	4554
859.13	4634
859.263	4649
859.396	4725
859.529	4569
859.662	4554
859.795	4504
859.928	4645
860.061	4767
860.194	4736
860.327	4618
860.46	4558
860.592	4668
860.725	4752
860.858	4702
860.99	4558
861.123	4500
861.256	4485
861.388	4618
861.521	5216
861.653	4447
861.786	4440
861.918	4436
862.05	4565
862.183	4493
862.315	4584
862.447	4615
862.58	4550
862.712	4348
862.844	4329
862.976	4500
863.108	4417
863.24	4828
863.372	4333
863.504	4402
863.636	4417
863.768	4500
863.9	4428
864.032	4356
864.164	4405
864.296	4436
864.428	4516
864.559	4512
864.691	4516
864.823	4538
864.954	4500
865.086	4519
865.217	4440
865.349	4367
865.48	4474
865.612	4462
865.743	4596
865.875	4428
866.006	4421
866.137	4462
866.269	4470
866.4	4398
866.531	4405
866.662	4371
866.793	4409
866.924	4394
867.055	4432
867.186	4459
867.317	4432
867.448	4375
867.579	4322
867.71	4375
867.841	4337
867.972	4428
868.103	4462
868.233	4405
868.364	4402
868.495	4489
868.625	4675
868.756	4759
868.886	4580
869.017	4584
869.147	4740
869.278	4774
869.408	4592
869.539	4626
869.669	4729
869.799	4622
869.929	4733
870.06	4740
870.19	4919
870.32	4866
870.45	4957
870.58	4976
870.71	5102
870.84	5098
870.97	4896
871.1	4938
871.23	5140
871.36	5117
871.489	5060
871.619	5025
871.749	5075
871.879	5136
872.008	5174
872.138	5029
872.267	4968
872.397	4831
872.526	4771
872.656	4687
872.785	4782
872.915	4911
873.044	4953
873.173	4908
873.303	4938
873.432	4984
873.561	4934
873.69	4908
873.819	4858
873.948	4843
874.077	4866
874.206	4755
874.335	4767
874.464	4881
874.593	5060
874.722	4949
874.851	5098
874.979	5033
875.108	5022
875.237	4889
875.365	4870
875.494	4892
875.623	4949
875.751	4816
875.88	4885
876.008	4968
876.136	4995
876.265	5181
876.393	5299
876.521	5239
876.65	5254
876.778	5155
876.906	5060
877.034	4991
877.162	5075
877.29	4995
877.418	5067
877.546	4991
877.674	5113
877.802	5048
877.93	4961
878.058	4911
878.185	4839
878.313	4942
878.441	4927
878.568	4767
878.696	4854
878.824	4957
878.951	4919
879.079	5079
879.206	5258
879.333	5090
879.461	4987
879.588	4987
879.715	5094
879.842	5212
879.97	4980
880.097	4767
880.224	4778
880.351	4771
880.478	4824
880.605	4778
880.732	4767
880.859	5086
880.986	4873
881.112	4930
881.239	4767
881.366	4626
881.493	4596
881.619	4618
881.746	4626
881.872	4645
881.999	4592
882.125	4675
882.252	4748
882.378	4835
882.505	4930
882.631	4812
882.757	4672
882.883	4729
883.01	4733
883.136	4634
883.262	4569
883.388	4599
883.514	4862
883.64	4900
883.766	4782
883.892	4641
884.018	4691
884.143	4847
884.269	4965
884.395	4668
884.52	4588
884.646	4618
884.772	4569
884.897	4527
885.023	4656
885.148	4759
885.274	4873
885.399	4805
885.524	4698
885.65	4660
885.775	4755
885.9	4687
886.025	4816
886.15	4755
886.275	4725
886.4	4603
886.525	4710
886.65	4714
886.775	4675
886.9	4896
887.025	5018
887.149	4824
887.274	4645
887.399	4569
887.523	4611
887.648	4577
887.773	4569
887.897	4725
888.021	4755
888.146	4683
888.27	4790
888.395	4870
888.519	4767
888.643	4752
888.767	4778
888.891	4691
889.015	4626
889.139	4618
889.263	4596
889.387	4675
889.511	4820
889.635	4824
889.759	4668
889.883	4630
890.006	4755
890.13	4831
890.254	4577
890.377	4694
890.501	4554
890.624	4516
890.748	4653
890.871	4508
890.995	4424
891.118	4371
891.241	4493
891.364	4550
891.488	4649
891.611	4535
891.734	4485
891.857	4577
891.98	4565
892.103	4611
892.226	4592
892.349	4504
892.471	4481
892.594	4508
892.717	4596
892.839	4580
892.962	4611
893.085	4622
893.207	4580
893.33	4459
893.452	4538
893.575	4672
893.697	4565
893.819	4812
893.941	4816
894.064	4793
894.186	4615
894.308	4538
894.43	4736
894.552	4790
894.674	4748
894.796	4558
894.918	4603
895.04	4531
895.161	4653
895.283	4645
895.405	4554
895.526	4656
895.648	4626
895.769	4645
895.891	4672
896.012	4733
896.134	4694
896.255	4641
896.376	4550
896.498	4626
896.619	4645
896.74	4535
896.861	4660
896.982	4904
897.103	5010
897.224	4805
897.345	4721
897.466	4649
897.587	4706
897.708	4847
897.828	4767
897.949	4706
898.07	4504
898.19	4626
898.311	4862
898.431	4668
898.552	4733
898.672	4828
898.792	4774
898.913	4721
899.033	4634
899.153	4443
899.273	4394
899.393	4481
899.513	4519
899.633	4500
899.753	4546
899.873	4516
899.993	4561
900.113	4485
900.232	4630
900.352	4558
900.472	4455
900.591	4405
900.711	4455
900.83	4440
900.95	4607
901.069	4656
901.189	4527
901.308	4360
901.427	4295
901.546	4363
901.665	4443
901.784	4459
901.904	4402
902.023	4310
902.141	4200
902.26	4169
902.379	4299
902.498	4234
902.617	4223
902.735	4348
902.854	4356
902.973	4318
903.091	4166
903.21	4200
903.328	4276
903.446	4265
903.565	4276
903.683	4363
903.801	4310
903.919	4371
904.038	4409
904.156	4318
904.274	4428
904.392	4367
904.51	4398
904.627	4447
904.745	4580
904.863	4577
904.981	4367
905.098	4310
905.216	4322
905.334	4417
905.451	4409
905.569	4462
905.686	4527
905.803	4588
905.921	4371
906.038	4546
906.155	4451
906.272	4413
906.389	4451
906.506	4356
906.623	4367
906.74	4390
906.857	4310
906.974	4363
907.091	4527
907.208	4710
907.324	4584
907.441	4451
907.557	4322
907.674	4276
907.79	4303
907.907	4348
908.023	4462
908.139	4428
908.256	4386
908.372	4485
908.488	4512
908.604	4363
908.72	4325
908.836	4386
908.952	4386
909.068	4436
909.184	4584
909.3	4440
909.415	4561
909.531	4542
909.647	4348
909.762	4371
909.878	4341
909.993	4424
910.108	4398
910.224	4394
910.339	4462
910.454	4405
910.57	4386
910.685	4360
910.8	4634
910.915	4584
911.03	4459
911.145	4306
911.259	4360
911.374	4333
911.489	4306
911.604	4306
911.718	4181
911.833	4215
911.947	4093
912.062	4029
912.176	4162
912.291	4200
912.405	4253
912.519	4443
912.633	4481
912.748	4325
912.862	4253
912.976	4158
913.09	4059
913.204	4173
913.318	4227
913.431	4341
913.545	4348
913.659	4432
913.772	4356
913.886	4227
914	4215
914.113	4379
914.226	4428
914.34	4424
914.453	4192
914.566	4390
914.68	4291
914.793	4306
914.906	4211
915.019	4135
915.132	4078
915.245	4082
915.358	4234
915.47	4230
915.583	4215
915.696	4329
915.809	4394
915.921	4421
916.034	4238
916.146	4265
916.259	4230
916.371	4356
916.483	4348
916.595	4227
916.708	4322
916.82	4356
916.932	4337
917.044	4310
917.156	4287
917.268	4219
917.38	4253
917.491	4246
917.603	4360
917.715	4421
917.826	4421
917.938	4329
918.049	4238
918.161	4398
918.272	4542
918.384	4542
918.495	4459
918.606	4318
918.717	4215
918.828	4360
918.939	4386
919.05	4272
919.161	4337
919.272	4131
919.383	4188
919.494	4470
919.604	4577
919.715	4428
919.826	4360
919.936	4405
920.047	4485
920.157	4459
920.267	4694
920.378	4538
920.488	4485
920.598	4694
920.708	4850
920.818	4733
920.928	4725
921.038	4911
921.148	4896
921.258	4603
921.368	4580
921.477	4421
921.587	4466
921.697	4341
921.806	4527
921.916	4413
922.025	4242
922.134	4265
922.244	4169
922.353	4329
922.462	4204
922.571	4124
922.68	3934
922.789	4006
922.898	3998
923.007	3994
923.116	4082
923.224	4044
923.333	4097
923.442	3949
923.55	3960
923.659	4040
923.767	4097
923.876	4040
923.984	4116
924.092	3956
924.201	4097
924.309	4074
924.417	4112
924.525	4071
924.633	4101
924.741	4980
924.849	3945
924.956	4124
925.064	3964
925.172	3888
925.279	3884
925.387	4032
925.494	4055
925.602	4211
925.709	4158
925.816	3983
925.924	4131
926.031	4265
926.138	4169
926.245	4158
926.352	4093
926.459	4253
926.566	4272
926.673	4158
926.779	4086
926.886	4074
926.993	4010
927.099	3930
927.206	3930
927.312	3926
927.419	4059
927.525	4063
927.631	4090
927.737	3930
927.843	3972
927.95	3857
928.056	3949
928.162	3979
928.267	4032
928.373	4691
928.479	4063
928.585	3865
928.69	3994
928.796	4036
928.901	3930
929.007	3850
929.112	3975
929.218	4010
929.323	3899
929.428	3915
929.533	4097
929.638	3857
929.743	3964
929.848	4029
929.953	4032
930.058	3907
930.163	3778
930.267	3850
930.372	3987
930.477	3819
930.581	4093
930.685	3956
930.79	3800
930.894	3854
930.998	3857
931.103	4021
931.207	3705
931.311	3705
931.415	3648
931.519	3545
931.623	3530
