Data from test_V78500241_2220.txt Node
Date: Fri Mar 25 17:04:26 CST 2022
User: usil
Spectrometer: V785-0024
Trigger mode: 0
Integration Time (sec): 4.000000E-1
Scans to average: 1
Nonlinearity correction enabled: false
Boxcar width: 0
Storing dark spectrum: false
XAxis mode: Wavelengths
Number of Pixels in Spectrum: 1024
>>>>>Begin Spectral Data<<<<<
801.071	7917
801.214	7944
801.356	7871
801.499	7868
801.641	7731
801.783	7803
801.926	8016
802.068	7890
802.211	7963
802.353	7997
802.496	7784
802.638	7864
802.78	7871
802.923	7898
803.065	7799
803.208	7871
803.35	7963
803.492	8039
803.635	8126
803.777	7928
803.919	8138
804.061	8484
804.204	8149
804.346	8031
804.488	7986
804.63	8062
804.773	7951
804.915	8081
805.057	8210
805.199	8161
805.341	8229
805.483	8252
805.626	8168
805.768	8142
805.91	8142
806.052	8138
806.194	8008
806.336	8256
806.478	8111
806.62	8031
806.762	8183
806.904	8267
807.046	8457
807.188	8370
807.33	8279
807.472	8351
807.614	8123
807.756	8142
807.898	7997
808.04	7830
808.182	7898
808.324	7845
808.465	7868
808.607	8039
808.749	8145
808.891	8210
809.033	8324
809.174	8187
809.316	8058
809.458	8054
809.6	7955
809.741	8020
809.883	8058
810.025	8088
810.166	8077
810.308	7944
810.45	7986
810.591	7811
810.733	7651
810.875	7643
811.016	7499
811.158	7430
811.299	7563
811.441	7666
811.582	7693
811.724	7575
811.865	7468
812.007	7575
812.148	7575
812.29	7639
812.431	7712
812.573	7883
812.714	7989
812.855	8107
812.997	8252
813.138	8233
813.279	8145
813.421	8096
813.562	7970
813.703	7822
813.845	7700
813.986	7472
814.127	7255
814.268	7209
814.41	7194
814.551	7160
814.692	7240
814.833	7110
814.974	7152
815.115	7091
815.256	6943
815.397	6913
815.539	6939
815.68	6745
815.821	6688
815.962	6897
816.103	6798
816.244	6665
816.385	6646
816.526	6604
816.666	6471
816.807	6331
816.948	6418
817.089	6475
817.23	6372
817.371	6361
817.512	6388
817.653	6365
817.793	6353
817.934	6308
818.075	6452
818.216	6407
818.356	6369
818.497	6228
818.638	6129
818.778	6114
818.919	6148
819.06	6121
819.2	6357
819.341	6251
819.481	6380
819.622	6536
819.762	6684
819.903	6711
820.043	6559
820.184	6593
820.324	6563
820.465	6692
820.605	6669
820.746	6684
820.886	6574
821.026	6662
821.167	6654
821.307	6818
821.447	6760
821.588	6681
821.728	6597
821.868	6517
822.008	6323
822.149	6429
822.289	6384
822.429	6171
822.569	6045
822.709	6117
822.849	5939
822.99	5927
823.13	5908
823.27	5920
823.41	5756
823.55	5771
823.69	5794
823.83	5745
823.97	5718
824.11	5520
824.25	5520
824.389	5551
824.529	5573
824.669	5566
824.809	5604
824.949	5608
825.089	5623
825.228	5566
825.368	5368
825.508	5395
825.648	5311
825.787	5372
825.927	5383
826.067	5318
826.206	5258
826.346	5395
826.485	5417
826.625	5414
826.765	5516
826.904	5501
827.044	5235
827.183	5166
827.323	5083
827.462	5216
827.601	5155
827.741	5189
827.88	5159
828.02	5121
828.159	5197
828.298	5288
828.437	5410
828.577	5311
828.716	5486
828.855	5334
828.994	5189
829.134	5162
829.273	5185
829.412	5117
829.551	5067
829.69	5189
829.829	5307
829.968	5364
830.107	5269
830.246	5307
830.385	5151
830.524	5128
830.663	5067
830.802	4976
830.941	4900
831.08	4862
831.219	4991
831.357	4915
831.496	5147
831.635	4927
831.774	4835
831.913	4828
832.051	4736
832.19	4778
832.329	4820
832.467	4683
832.606	4611
832.744	4687
832.883	4710
833.022	4717
833.16	4786
833.299	4805
833.437	4801
833.576	4820
833.714	4850
833.852	4843
833.991	4900
834.129	4957
834.267	4953
834.406	4889
834.544	5018
834.682	5033
834.821	4870
834.959	5162
835.097	5006
835.235	5143
835.373	5052
835.511	5045
835.65	5003
835.788	5060
835.926	4892
836.064	4847
836.202	4892
836.34	5216
836.478	5220
836.615	5109
836.753	5189
836.891	5261
837.029	5223
837.167	5204
837.305	5143
837.443	5151
837.58	5045
837.718	5204
837.856	5208
837.993	5159
838.131	5250
838.269	5204
838.406	5174
838.544	5178
838.681	5041
838.819	4946
838.956	4885
839.094	4938
839.231	4919
839.369	5060
839.506	5395
839.643	5284
839.781	5010
839.918	4999
840.055	5048
840.193	5067
840.33	5090
840.467	5136
840.604	5178
840.742	5452
840.879	5041
841.016	5075
841.153	5113
841.29	5330
841.427	5311
841.564	5330
841.701	5311
841.838	5220
841.975	5193
842.112	5223
842.249	5151
842.385	5124
842.522	5334
842.659	5124
842.796	5094
842.933	5181
843.069	5143
843.206	5132
843.343	5242
843.479	5204
843.616	5318
843.752	4987
843.889	4972
844.025	5174
844.162	5033
844.298	5178
844.435	5067
844.571	5045
844.708	5246
844.844	5258
844.98	5318
845.117	5254
845.253	5102
845.389	5071
845.525	5166
845.661	5128
845.798	5060
845.934	5155
846.07	5052
846.206	5208
846.342	5261
846.478	5155
846.614	4991
846.75	4995
846.886	4961
847.022	5098
847.158	5022
847.294	5003
847.429	5071
847.565	5006
847.701	5372
847.837	4847
847.972	4828
848.108	4946
848.244	4885
848.379	4805
848.515	4725
848.65	4717
848.786	4733
848.921	4786
849.057	4850
849.192	4911
849.328	4759
849.463	4843
849.598	4790
849.734	4744
849.869	4706
850.004	4599
850.14	4706
850.275	4603
850.41	4550
850.545	4481
850.68	4584
850.815	4626
850.95	4615
851.085	4862
851.22	4733
851.355	4698
851.49	4618
851.625	4653
851.76	4672
851.895	4558
852.03	4580
852.165	4656
852.299	4752
852.434	4797
852.569	4744
852.703	4755
852.838	4847
852.973	4885
853.107	4892
853.242	4755
853.376	4637
853.511	4538
853.645	4565
853.78	4858
853.914	4683
854.048	4630
854.183	4592
854.317	4702
854.451	4820
854.585	4641
854.72	4615
854.854	4744
854.988	4611
855.122	4603
855.256	4481
855.39	4653
855.524	4771
855.658	4702
855.792	4721
855.926	4694
856.06	4740
856.194	4771
856.327	4702
856.461	4672
856.595	4588
856.729	4630
856.862	4714
856.996	4721
857.13	4736
857.263	4782
857.397	4816
857.53	4679
857.664	4710
857.797	4744
857.931	4767
858.064	4683
858.197	4653
858.331	4599
858.464	4546
858.597	4508
858.731	4622
858.864	4607
858.997	4558
859.13	4653
859.263	4660
859.396	4683
859.529	4615
859.662	4577
859.795	4535
859.928	4603
860.061	4755
860.194	4797
860.327	4599
860.46	4618
860.592	4664
860.725	4698
860.858	4683
860.99	4546
861.123	4527
861.256	4550
861.388	4618
861.521	5273
861.653	4462
861.786	4386
861.918	4481
862.05	4542
862.183	4523
862.315	4592
862.447	4626
862.58	4535
862.712	4413
862.844	4337
862.976	4455
863.108	4443
863.24	4870
863.372	4318
863.504	4310
863.636	4436
863.768	4462
863.9	4440
864.032	4356
864.164	4417
864.296	4424
864.428	4466
864.559	4554
864.691	4592
864.823	4459
864.954	4459
865.086	4516
865.217	4409
865.349	4424
865.48	4447
865.612	4462
865.743	4618
865.875	4432
866.006	4402
866.137	4432
866.269	4447
866.4	4443
866.531	4386
866.662	4440
866.793	4417
866.924	4386
867.055	4558
867.186	4447
867.317	4405
867.448	4329
867.579	4402
867.71	4402
867.841	4333
867.972	4497
868.103	4417
868.233	4424
868.364	4436
868.495	4519
868.625	4641
868.756	4763
868.886	4550
869.017	4615
869.147	4763
869.278	4736
869.408	4653
869.539	4618
869.669	4721
869.799	4664
869.929	4797
870.06	4694
870.19	4938
870.32	4911
870.45	4927
870.58	5022
870.71	5128
870.84	5102
870.97	4953
871.1	4900
871.23	5143
871.36	5140
871.489	5041
871.619	5056
871.749	5067
871.879	5121
872.008	5147
872.138	5067
872.267	4953
872.397	4812
872.526	4839
872.656	4679
872.785	4805
872.915	4900
873.044	5029
873.173	4873
873.303	4961
873.432	4984
873.561	4949
873.69	4862
873.819	4828
873.948	4900
874.077	4805
874.206	4748
874.335	4828
874.464	4923
874.593	5033
874.722	4938
874.851	5079
874.979	5010
875.108	5060
875.237	4938
875.365	4900
875.494	4900
875.623	4938
875.751	4820
875.88	4866
876.008	4980
876.136	5052
876.265	5201
876.393	5326
876.521	5197
876.65	5258
876.778	5121
876.906	5033
877.034	5010
877.162	5060
877.29	4991
877.418	5010
877.546	5022
877.674	5037
877.802	5041
877.93	4999
878.058	4877
878.185	4889
878.313	4946
878.441	4923
878.568	4801
878.696	4854
878.824	4908
878.951	5045
879.079	5113
879.206	5299
879.333	5105
879.461	4984
879.588	4991
879.715	5083
879.842	5197
879.97	4999
880.097	4755
880.224	4774
880.351	4816
880.478	4831
880.605	4835
880.732	4759
880.859	5067
880.986	4824
881.112	4934
881.239	4793
881.366	4626
881.493	4626
881.619	4599
881.746	4607
881.872	4660
881.999	4618
882.125	4698
882.252	4793
882.378	4828
882.505	4961
882.631	4862
882.757	4645
882.883	4717
883.01	4748
883.136	4733
883.262	4577
883.388	4630
883.514	4801
883.64	4873
883.766	4763
883.892	4736
884.018	4752
884.143	4934
884.269	5045
884.395	4630
884.52	4649
884.646	4660
884.772	4603
884.897	4603
885.023	4710
885.148	4805
885.274	4847
885.399	4824
885.524	4733
885.65	4744
885.775	4748
885.9	4744
886.025	4843
886.15	4831
886.275	4771
886.4	4687
886.525	4744
886.65	4740
886.775	4740
886.9	4946
887.025	5048
887.149	4881
887.274	4660
887.399	4611
887.523	4622
887.648	4554
887.773	4573
887.897	4790
888.021	4812
888.146	4687
888.27	4889
888.395	4930
888.519	4828
888.643	4801
888.767	4873
888.891	4683
889.015	4626
889.139	4675
889.263	4656
889.387	4744
889.511	4908
889.635	4820
889.759	4683
889.883	4721
890.006	4744
890.13	4850
890.254	4656
890.377	4702
890.501	4573
890.624	4519
890.748	4641
890.871	4558
890.995	4497
891.118	4409
891.241	4584
891.364	4565
891.488	4721
891.611	4527
891.734	4550
891.857	4660
891.98	4546
892.103	4721
892.226	4599
892.349	4561
892.471	4462
892.594	4611
892.717	4634
892.839	4588
892.962	4653
893.085	4725
893.207	4577
893.33	4542
893.452	4531
893.575	4672
893.697	4611
893.819	4900
893.941	4847
894.064	4793
894.186	4637
894.308	4611
894.43	4797
894.552	4812
894.674	4778
894.796	4577
894.918	4588
895.04	4565
895.161	4763
895.283	4694
895.405	4599
895.526	4702
895.648	4656
895.769	4767
895.891	4717
896.012	4771
896.134	4744
896.255	4736
896.376	4687
896.498	4592
896.619	4706
896.74	4607
896.861	4691
896.982	4938
897.103	5105
897.224	4820
897.345	4763
897.466	4672
897.587	4763
897.708	4885
897.828	4824
897.949	4668
898.07	4565
898.19	4660
898.311	4862
898.431	4694
898.552	4710
898.672	4801
898.792	4801
898.913	4767
899.033	4721
899.153	4538
899.273	4493
899.393	4516
899.513	4508
899.633	4516
899.753	4573
899.873	4546
899.993	4626
900.113	4599
900.232	4584
900.352	4546
900.472	4504
900.591	4443
900.711	4531
900.83	4455
900.95	4637
901.069	4729
901.189	4535
901.308	4371
901.427	4356
901.546	4436
901.665	4519
901.784	4535
901.904	4443
902.023	4333
902.141	4215
902.26	4196
902.379	4333
902.498	4242
902.617	4257
902.735	4409
902.854	4470
902.973	4337
903.091	4249
903.21	4268
903.328	4329
903.446	4238
903.565	4306
903.683	4390
903.801	4318
903.919	4371
904.038	4459
904.156	4325
904.274	4459
904.392	4409
904.51	4451
904.627	4489
904.745	4607
904.863	4626
904.981	4398
905.098	4363
905.216	4443
905.334	4459
905.451	4523
905.569	4447
905.686	4561
905.803	4618
905.921	4432
906.038	4580
906.155	4504
906.272	4409
906.389	4459
906.506	4455
906.623	4379
906.74	4440
906.857	4303
906.974	4390
907.091	4573
907.208	4691
907.324	4580
907.441	4573
907.557	4383
907.674	4356
907.79	4333
907.907	4409
908.023	4542
908.139	4474
908.256	4478
908.372	4489
908.488	4451
908.604	4413
908.72	4344
908.836	4348
908.952	4413
909.068	4436
909.184	4596
909.3	4474
909.415	4596
909.531	4542
909.647	4367
909.762	4386
909.878	4417
909.993	4500
910.108	4451
910.224	4443
910.339	4535
910.454	4436
910.57	4394
910.685	4344
910.8	4694
910.915	4641
911.03	4516
911.145	4363
911.259	4352
911.374	4386
911.489	4325
911.604	4306
911.718	4162
911.833	4242
911.947	4147
912.062	4090
912.176	4249
912.291	4287
912.405	4276
912.519	4466
912.633	4531
912.748	4409
912.862	4356
912.976	4219
913.09	4128
913.204	4177
913.318	4280
913.431	4451
913.545	4371
913.659	4466
913.772	4367
913.886	4291
914	4265
914.113	4375
914.226	4455
914.34	4383
914.453	4310
914.566	4470
914.68	4390
914.793	4337
914.906	4181
915.019	4135
915.132	4074
915.245	4158
915.358	4261
915.47	4207
915.583	4306
915.696	4322
915.809	4447
915.921	4436
916.034	4253
916.146	4322
916.259	4249
916.371	4398
916.483	4348
916.595	4303
916.708	4375
916.82	4348
916.932	4348
917.044	4360
917.156	4356
917.268	4291
917.38	4314
917.491	4322
917.603	4379
917.715	4436
917.826	4459
917.938	4360
918.049	4249
918.161	4402
918.272	4535
918.384	4538
918.495	4462
918.606	4306
918.717	4272
918.828	4390
918.939	4398
919.05	4280
919.161	4325
919.272	4143
919.383	4253
919.494	4459
919.604	4702
919.715	4451
919.826	4417
919.936	4424
920.047	4531
920.157	4500
920.267	4721
920.378	4519
920.488	4538
920.598	4740
920.708	4877
920.818	4801
920.928	4820
921.038	5018
921.148	4949
921.258	4656
921.368	4584
921.477	4538
921.587	4497
921.697	4447
921.806	4596
921.916	4432
922.025	4242
922.134	4291
922.244	4234
922.353	4318
922.462	4181
922.571	4166
922.68	4040
922.789	4025
922.898	4074
923.007	3979
923.116	4139
923.224	4093
923.333	4063
923.442	4013
923.55	4002
923.659	4025
923.767	4105
923.876	4082
923.984	4185
924.092	4036
924.201	4101
924.309	4097
924.417	4154
924.525	4071
924.633	4128
924.741	5094
924.849	3949
924.956	4169
925.064	3979
925.172	3884
925.279	3964
925.387	4025
925.494	4074
925.602	4215
925.709	4139
925.816	4082
925.924	4135
926.031	4242
926.138	4211
926.245	4227
926.352	4109
926.459	4272
926.566	4329
926.673	4139
926.779	4029
926.886	4093
926.993	3998
927.099	3972
927.206	3930
927.312	3991
927.419	4135
927.525	3987
927.631	4120
927.737	3983
927.843	3964
927.95	3865
928.056	3964
928.162	3972
928.267	4051
928.373	4733
928.479	4093
928.585	3903
928.69	4002
928.796	4071
928.901	3975
929.007	3854
929.112	4032
929.218	3979
929.323	3987
929.428	3975
929.533	4131
929.638	3907
929.743	3941
929.848	4071
929.953	4051
930.058	4010
930.163	3778
930.267	3831
930.372	4006
930.477	3838
930.581	4086
930.685	3968
930.79	3819
930.894	3896
930.998	3892
931.103	4074
931.207	3713
931.311	3728
931.415	3656
931.519	3549
931.623	3599
