Data from test_V78500241_2117.txt Node
Date: Fri Mar 25 17:03:43 CST 2022
User: usil
Spectrometer: V785-0024
Trigger mode: 0
Integration Time (sec): 4.000000E-1
Scans to average: 1
Nonlinearity correction enabled: false
Boxcar width: 0
Storing dark spectrum: false
XAxis mode: Wavelengths
Number of Pixels in Spectrum: 1024
>>>>>Begin Spectral Data<<<<<
801.071	8005
801.214	7944
801.356	7856
801.499	7841
801.641	7795
801.783	7814
801.926	7921
802.068	7932
802.211	7917
802.353	7967
802.496	7849
802.638	7769
802.78	7871
802.923	7913
803.065	7875
803.208	7837
803.35	7936
803.492	8088
803.635	8180
803.777	8001
803.919	8130
804.061	8419
804.204	8199
804.346	8084
804.488	8001
804.63	8077
804.773	7974
804.915	8126
805.057	8294
805.199	8092
805.341	8161
805.483	8206
805.626	8225
805.768	8100
805.91	8195
806.052	8214
806.194	8050
806.336	8248
806.478	8168
806.62	8107
806.762	8100
806.904	8240
807.046	8415
807.188	8377
807.33	8317
807.472	8370
807.614	8180
807.756	8157
807.898	8031
808.04	7875
808.182	7811
808.324	7765
808.465	7932
808.607	8058
808.749	8138
808.891	8267
809.033	8240
809.174	8252
809.316	8077
809.458	8145
809.6	8073
809.741	8084
809.883	8073
810.025	8164
810.166	8111
810.308	8043
810.45	8024
810.591	7833
810.733	7776
810.875	7696
811.016	7506
811.158	7460
811.299	7647
811.441	7689
811.582	7693
811.724	7582
811.865	7559
812.007	7594
812.148	7624
812.29	7647
812.431	7780
812.573	7864
812.714	8065
812.855	8191
812.997	8225
813.138	8339
813.279	8115
813.421	8069
813.562	7936
813.703	7849
813.845	7776
813.986	7434
814.127	7339
814.268	7274
814.41	7225
814.551	7213
814.692	7217
814.833	7122
814.974	7145
815.115	7149
815.256	7038
815.397	6981
815.539	6966
815.68	6867
815.821	6779
815.962	6928
816.103	6863
816.244	6726
816.385	6631
816.526	6673
816.666	6506
816.807	6395
816.948	6437
817.089	6532
817.23	6456
817.371	6403
817.512	6376
817.653	6395
817.793	6410
817.934	6418
818.075	6547
818.216	6452
818.356	6429
818.497	6266
818.638	6152
818.778	6114
818.919	6190
819.06	6178
819.2	6353
819.341	6376
819.481	6403
819.622	6597
819.762	6745
819.903	6730
820.043	6593
820.184	6585
820.324	6566
820.465	6760
820.605	6696
820.746	6627
820.886	6544
821.026	6745
821.167	6741
821.307	6825
821.447	6802
821.588	6753
821.728	6544
821.868	6502
822.008	6372
822.149	6414
822.289	6380
822.429	6159
822.569	6144
822.709	6159
822.849	5923
822.99	5950
823.13	5999
823.27	5942
823.41	5783
823.55	5790
823.69	5790
823.83	5840
823.97	5691
824.11	5589
824.25	5539
824.389	5547
824.529	5638
824.669	5581
824.809	5703
824.949	5691
825.089	5611
825.228	5558
825.368	5455
825.508	5372
825.648	5402
825.787	5402
825.927	5341
826.067	5326
826.206	5288
826.346	5376
826.485	5436
826.625	5433
826.765	5577
826.904	5512
827.044	5277
827.183	5235
827.323	5178
827.462	5296
827.601	5204
827.741	5216
827.88	5242
828.02	5162
828.159	5296
828.298	5357
828.437	5398
828.577	5303
828.716	5512
828.855	5322
828.994	5159
829.134	5181
829.273	5216
829.412	5147
829.551	5162
829.69	5223
829.829	5208
829.968	5425
830.107	5311
830.246	5292
830.385	5143
830.524	5136
830.663	5067
830.802	5014
830.941	4923
831.08	4938
831.219	5010
831.357	4995
831.496	5185
831.635	4930
831.774	4843
831.913	4892
832.051	4752
832.19	4755
832.329	4896
832.467	4748
832.606	4649
832.744	4759
832.883	4771
833.022	4736
833.16	4812
833.299	4824
833.437	4908
833.576	4862
833.714	4892
833.852	4949
833.991	4885
834.129	4972
834.267	4987
834.406	4927
834.544	5003
834.682	4976
834.821	4957
834.959	5174
835.097	4987
835.235	5151
835.373	5170
835.511	5124
835.65	5109
835.788	5033
835.926	4904
836.064	4938
836.202	4938
836.34	5136
836.478	5239
836.615	5170
836.753	5269
836.891	5307
837.029	5227
837.167	5242
837.305	5170
837.443	5109
837.58	5132
837.718	5292
837.856	5212
837.993	5185
838.131	5273
838.269	5250
838.406	5189
838.544	5197
838.681	5060
838.819	5014
838.956	4972
839.094	4923
839.231	5041
839.369	5105
839.506	5482
839.643	5273
839.781	5136
839.918	5010
840.055	5105
840.193	5083
840.33	5121
840.467	5140
840.604	5185
840.742	5448
840.879	5109
841.016	5064
841.153	5151
841.29	5395
841.427	5322
841.564	5326
841.701	5360
841.838	5277
841.975	5235
842.112	5315
842.249	5155
842.385	5147
842.522	5372
842.659	5197
842.796	5140
842.933	5140
843.069	5155
843.206	5178
843.343	5303
843.479	5284
843.616	5250
843.752	5048
843.889	5029
844.025	5201
844.162	5052
844.298	5204
844.435	5109
844.571	5105
844.708	5227
844.844	5292
844.98	5337
845.117	5303
845.253	5147
845.389	5052
845.525	5178
845.661	5201
845.798	5079
845.934	5159
846.07	5025
846.206	5185
846.342	5292
846.478	5178
846.614	5048
846.75	4965
846.886	4938
847.022	5178
847.158	5060
847.294	5079
847.429	5147
847.565	5067
847.701	5376
847.837	4870
847.972	4812
848.108	5003
848.244	4957
848.379	4778
848.515	4812
848.65	4752
848.786	4729
848.921	4809
849.057	4889
849.192	4923
849.328	4793
849.463	4881
849.598	4839
849.734	4755
849.869	4706
850.004	4641
850.14	4698
850.275	4698
850.41	4527
850.545	4573
850.68	4611
850.815	4618
850.95	4672
851.085	4850
851.22	4752
851.355	4675
851.49	4675
851.625	4710
851.76	4630
851.895	4580
852.03	4516
852.165	4596
852.299	4706
852.434	4778
852.569	4767
852.703	4812
852.838	4870
852.973	4957
853.107	4911
853.242	4771
853.376	4634
853.511	4618
853.645	4653
853.78	4847
853.914	4725
854.048	4698
854.183	4626
854.317	4717
854.451	4896
854.585	4656
854.72	4664
854.854	4786
854.988	4637
855.122	4664
855.256	4580
855.39	4668
855.524	4816
855.658	4805
855.792	4721
855.926	4793
856.06	4729
856.194	4809
856.327	4687
856.461	4618
856.595	4649
856.729	4641
856.862	4740
856.996	4714
857.13	4767
857.263	4755
857.397	4797
857.53	4679
857.664	4706
857.797	4752
857.931	4782
858.064	4683
858.197	4744
858.331	4698
858.464	4618
858.597	4538
858.731	4672
858.864	4603
858.997	4607
859.13	4637
859.263	4675
859.396	4736
859.529	4584
859.662	4630
859.795	4565
859.928	4630
860.061	4778
860.194	4774
860.327	4641
860.46	4584
860.592	4710
860.725	4702
860.858	4740
860.99	4573
861.123	4550
861.256	4538
861.388	4637
861.521	5471
861.653	4538
861.786	4443
861.918	4512
862.05	4588
862.183	4599
862.315	4641
862.447	4615
862.58	4565
862.712	4432
862.844	4280
862.976	4504
863.108	4466
863.24	4748
863.372	4356
863.504	4459
863.636	4428
863.768	4542
863.9	4447
864.032	4375
864.164	4470
864.296	4474
864.428	4519
864.559	4588
864.691	4569
864.823	4542
864.954	4497
865.086	4531
865.217	4485
865.349	4371
865.48	4516
865.612	4508
865.743	4637
865.875	4508
866.006	4394
866.137	4481
866.269	4481
866.4	4455
866.531	4455
866.662	4405
866.793	4352
866.924	4405
867.055	4497
867.186	4459
867.317	4432
867.448	4386
867.579	4421
867.71	4379
867.841	4390
867.972	4470
868.103	4421
868.233	4455
868.364	4462
868.495	4546
868.625	4717
868.756	4725
868.886	4542
869.017	4645
869.147	4824
869.278	4767
869.408	4679
869.539	4626
869.669	4687
869.799	4683
869.929	4786
870.06	4767
870.19	4946
870.32	4938
870.45	4927
870.58	5029
870.71	5071
870.84	5056
870.97	4923
871.1	4896
871.23	5117
871.36	5155
871.489	5045
871.619	5041
871.749	5090
871.879	5151
872.008	5185
872.138	5045
872.267	5006
872.397	4831
872.526	4820
872.656	4736
872.785	4854
872.915	4900
873.044	5045
873.173	4927
873.303	4938
873.432	4972
873.561	4984
873.69	4908
873.819	4850
873.948	4908
874.077	4824
874.206	4755
874.335	4755
874.464	4850
874.593	5117
874.722	4972
874.851	5102
874.979	5003
875.108	5079
875.237	4930
875.365	4873
875.494	4854
875.623	5003
875.751	4828
875.88	4850
876.008	5006
876.136	5064
876.265	5189
876.393	5376
876.521	5273
876.65	5235
876.778	5166
876.906	5048
877.034	5041
877.162	5052
877.29	4980
877.418	5056
877.546	5075
877.674	5056
877.802	5033
877.93	5033
878.058	4934
878.185	4896
878.313	4946
878.441	4972
878.568	4812
878.696	4915
878.824	4942
878.951	5018
879.079	5178
879.206	5258
879.333	5132
879.461	5010
879.588	5041
879.715	5124
879.842	5246
879.97	4965
880.097	4843
880.224	4774
880.351	4801
880.478	4793
880.605	4778
880.732	4786
880.859	5121
880.986	4839
881.112	4919
881.239	4816
881.366	4622
881.493	4596
881.619	4573
881.746	4675
881.872	4645
881.999	4668
882.125	4675
882.252	4774
882.378	4831
882.505	4987
882.631	4778
882.757	4717
882.883	4763
883.01	4714
883.136	4698
883.262	4607
883.388	4596
883.514	4866
883.64	4870
883.766	4809
883.892	4702
884.018	4710
884.143	4892
884.269	4980
884.395	4637
884.52	4634
884.646	4634
884.772	4546
884.897	4542
885.023	4721
885.148	4729
885.274	4839
885.399	4786
885.524	4698
885.65	4706
885.775	4710
885.9	4683
886.025	4877
886.15	4782
886.275	4740
886.4	4717
886.525	4683
886.65	4675
886.775	4698
886.9	4915
887.025	5067
887.149	4809
887.274	4607
887.399	4599
887.523	4588
887.648	4569
887.773	4622
887.897	4736
888.021	4752
888.146	4649
888.27	4835
888.395	4892
888.519	4805
888.643	4812
888.767	4858
888.891	4660
889.015	4649
889.139	4645
889.263	4611
889.387	4702
889.511	4866
889.635	4771
889.759	4626
889.883	4607
890.006	4714
890.13	4843
890.254	4622
890.377	4721
890.501	4550
890.624	4550
890.748	4637
890.871	4516
890.995	4398
891.118	4424
891.241	4535
891.364	4531
891.488	4618
891.611	4485
891.734	4546
891.857	4618
891.98	4554
892.103	4698
892.226	4634
892.349	4554
892.471	4462
892.594	4535
892.717	4618
892.839	4592
892.962	4626
893.085	4634
893.207	4603
893.33	4421
893.452	4561
893.575	4653
893.697	4611
893.819	4736
893.941	4801
894.064	4771
894.186	4618
894.308	4569
894.43	4717
894.552	4831
894.674	4767
894.796	4577
894.918	4592
895.04	4535
895.161	4729
895.283	4672
895.405	4603
895.526	4637
895.648	4717
895.769	4717
895.891	4736
896.012	4725
896.134	4721
896.255	4664
896.376	4615
896.498	4607
896.619	4672
896.74	4660
896.861	4675
896.982	4946
897.103	5071
897.224	4847
897.345	4729
897.466	4664
897.587	4717
897.708	4870
897.828	4786
897.949	4694
898.07	4565
898.19	4653
898.311	4812
898.431	4664
898.552	4740
898.672	4809
898.792	4797
898.913	4755
899.033	4656
899.153	4489
899.273	4474
899.393	4546
899.513	4580
899.633	4569
899.753	4573
899.873	4508
899.993	4565
900.113	4561
900.232	4584
900.352	4542
900.472	4497
900.591	4390
900.711	4462
900.83	4424
900.95	4596
901.069	4668
901.189	4558
901.308	4363
901.427	4306
901.546	4424
901.665	4424
901.784	4527
901.904	4398
902.023	4325
902.141	4207
902.26	4177
902.379	4344
902.498	4196
902.617	4238
902.735	4360
902.854	4428
902.973	4348
903.091	4192
903.21	4227
903.328	4329
903.446	4265
903.565	4219
903.683	4402
903.801	4257
903.919	4379
904.038	4443
904.156	4371
904.274	4405
904.392	4367
904.51	4440
904.627	4500
904.745	4558
904.863	4645
904.981	4371
905.098	4303
905.216	4318
905.334	4440
905.451	4451
905.569	4466
905.686	4565
905.803	4603
905.921	4394
906.038	4550
906.155	4451
906.272	4413
906.389	4470
906.506	4348
906.623	4398
906.74	4405
906.857	4306
906.974	4375
907.091	4573
907.208	4672
907.324	4580
907.441	4489
907.557	4371
907.674	4329
907.79	4333
907.907	4367
908.023	4470
908.139	4455
908.256	4417
908.372	4489
908.488	4417
908.604	4314
908.72	4329
908.836	4398
908.952	4363
909.068	4443
909.184	4573
909.3	4443
909.415	4569
909.531	4554
909.647	4348
909.762	4379
909.878	4352
909.993	4432
910.108	4363
910.224	4459
910.339	4481
910.454	4363
910.57	4352
910.685	4325
910.8	4618
910.915	4603
911.03	4489
911.145	4318
911.259	4341
911.374	4348
911.489	4310
911.604	4276
911.718	4154
911.833	4242
911.947	4055
912.062	4013
912.176	4192
912.291	4253
912.405	4249
912.519	4394
912.633	4523
912.748	4367
912.862	4318
912.976	4196
913.09	4093
913.204	4162
913.318	4234
913.431	4360
913.545	4325
913.659	4500
913.772	4367
913.886	4253
914	4272
914.113	4421
914.226	4432
914.34	4428
914.453	4257
914.566	4402
914.68	4341
914.793	4333
914.906	4150
915.019	4120
915.132	4093
915.245	4196
915.358	4223
915.47	4249
915.583	4265
915.696	4295
915.809	4409
915.921	4409
916.034	4230
916.146	4284
916.259	4242
916.371	4436
916.483	4375
916.595	4322
916.708	4318
916.82	4322
916.932	4344
917.044	4356
917.156	4318
917.268	4253
917.38	4261
917.491	4265
917.603	4322
917.715	4402
917.826	4470
917.938	4363
918.049	4242
918.161	4348
918.272	4596
918.384	4497
918.495	4455
918.606	4352
918.717	4207
918.828	4363
918.939	4348
919.05	4261
919.161	4299
919.272	4139
919.383	4253
919.494	4421
919.604	4660
919.715	4394
919.826	4341
919.936	4379
920.047	4474
920.157	4504
920.267	4744
920.378	4504
920.488	4481
920.598	4733
920.708	4892
920.818	4767
920.928	4774
921.038	4934
921.148	4881
921.258	4630
921.368	4565
921.477	4481
921.587	4428
921.697	4383
921.806	4565
921.916	4466
922.025	4272
922.134	4284
922.244	4192
922.353	4314
922.462	4188
922.571	4131
922.68	3998
922.789	4017
922.898	4017
923.007	4010
923.116	4067
923.224	4017
923.333	4059
923.442	3998
923.55	4006
923.659	4036
923.767	4112
923.876	4025
923.984	4166
924.092	3975
924.201	4044
924.309	4109
924.417	4128
924.525	4006
924.633	4124
924.741	5025
924.849	3884
924.956	4166
925.064	3979
925.172	3857
925.279	3979
925.387	4063
925.494	4086
925.602	4230
925.709	4139
925.816	4063
925.924	4090
926.031	4200
926.138	4181
926.245	4219
926.352	4086
926.459	4227
926.566	4318
926.673	4200
926.779	4059
926.886	4105
926.993	3994
927.099	3964
927.206	3941
927.312	3915
927.419	4067
927.525	4025
927.631	4078
927.737	3960
927.843	3945
927.95	3854
928.056	3937
928.162	4029
928.267	4044
928.373	4596
928.479	4124
928.585	3838
928.69	4040
928.796	4029
928.901	3968
929.007	3880
929.112	4010
929.218	3972
929.323	3915
929.428	3930
929.533	4055
929.638	3934
929.743	3949
929.848	4040
929.953	3949
930.058	3869
930.163	3793
930.267	3838
930.372	4017
930.477	3831
930.581	4059
930.685	3922
930.79	3797
930.894	3888
930.998	3827
931.103	4021
931.207	3732
931.311	3717
931.415	3660
931.519	3538
931.623	3507
