Data from test_V78500241_2429.txt Node
Date: Fri Mar 25 17:05:53 CST 2022
User: usil
Spectrometer: V785-0024
Trigger mode: 0
Integration Time (sec): 4.000000E-1
Scans to average: 1
Nonlinearity correction enabled: false
Boxcar width: 0
Storing dark spectrum: false
XAxis mode: Wavelengths
Number of Pixels in Spectrum: 1024
>>>>>Begin Spectral Data<<<<<
801.071	7970
801.214	8027
801.356	7890
801.499	7841
801.641	7738
801.783	7811
801.926	8024
802.068	7963
802.211	7890
802.353	8039
802.496	7856
802.638	7879
802.78	7906
802.923	7925
803.065	7879
803.208	7871
803.35	8020
803.492	8111
803.635	8130
803.777	8001
803.919	8183
804.061	8377
804.204	8218
804.346	8111
804.488	7997
804.63	8119
804.773	8001
804.915	8142
805.057	8347
805.199	8123
805.341	8168
805.483	8214
805.626	8320
805.768	8183
805.91	8187
806.052	8206
806.194	8145
806.336	8279
806.478	8096
806.62	8039
806.762	8088
806.904	8317
807.046	8461
807.188	8366
807.33	8305
807.472	8347
807.614	8138
807.756	8161
807.898	8069
808.04	7841
808.182	7864
808.324	7852
808.465	7955
808.607	8073
808.749	8084
808.891	8202
809.033	8339
809.174	8218
809.316	8100
809.458	8161
809.6	7978
809.741	8084
809.883	8084
810.025	8111
810.166	8043
810.308	7967
810.45	7925
810.591	7887
810.733	7761
810.875	7712
811.016	7495
811.158	7518
811.299	7590
811.441	7734
811.582	7605
811.724	7571
811.865	7495
812.007	7620
812.148	7624
812.29	7597
812.431	7696
812.573	7906
812.714	7936
812.855	8134
812.997	8195
813.138	8328
813.279	8142
813.421	8081
813.562	7986
813.703	7871
813.845	7776
813.986	7495
814.127	7285
814.268	7244
814.41	7198
814.551	7179
814.692	7209
814.833	7019
814.974	7084
815.115	7088
815.256	6958
815.397	6920
815.539	6935
815.68	6856
815.821	6814
815.962	6848
816.103	6897
816.244	6692
816.385	6665
816.526	6684
816.666	6509
816.807	6281
816.948	6429
817.089	6582
817.23	6426
817.371	6391
817.512	6380
817.653	6357
817.793	6334
817.934	6395
818.075	6452
818.216	6437
818.356	6338
818.497	6281
818.638	6114
818.778	6136
818.919	6182
819.06	6152
819.2	6331
819.341	6376
819.481	6399
819.622	6509
819.762	6779
819.903	6787
820.043	6631
820.184	6578
820.324	6612
820.465	6662
820.605	6738
820.746	6620
820.886	6559
821.026	6662
821.167	6738
821.307	6844
821.447	6779
821.588	6654
821.728	6563
821.868	6509
822.008	6319
822.149	6399
822.289	6410
822.429	6175
822.569	6163
822.709	6087
822.849	5939
822.99	5916
823.13	5939
823.27	5927
823.41	5813
823.55	5748
823.69	5767
823.83	5794
823.97	5611
824.11	5490
824.25	5520
824.389	5543
824.529	5634
824.669	5532
824.809	5623
824.949	5672
825.089	5619
825.228	5570
825.368	5414
825.508	5395
825.648	5357
825.787	5410
825.927	5395
826.067	5296
826.206	5357
826.346	5326
826.485	5387
826.625	5433
826.765	5589
826.904	5490
827.044	5235
827.183	5197
827.323	5155
827.462	5223
827.601	5189
827.741	5155
827.88	5201
828.02	5128
828.159	5284
828.298	5292
828.437	5376
828.577	5250
828.716	5455
828.855	5322
828.994	5197
829.134	5155
829.273	5204
829.412	5159
829.551	5201
829.69	5193
829.829	5273
829.968	5406
830.107	5265
830.246	5307
830.385	5193
830.524	5121
830.663	5006
830.802	5010
830.941	4881
831.08	4885
831.219	4953
831.357	4961
831.496	5174
831.635	4919
831.774	4873
831.913	4862
832.051	4755
832.19	4740
832.329	4816
832.467	4706
832.606	4702
832.744	4725
832.883	4736
833.022	4733
833.16	4797
833.299	4759
833.437	4831
833.576	4812
833.714	4831
833.852	4862
833.991	4870
834.129	4984
834.267	4987
834.406	4965
834.544	4968
834.682	4961
834.821	4923
834.959	5170
835.097	4999
835.235	5140
835.373	5094
835.511	5052
835.65	4999
835.788	5037
835.926	4896
836.064	4877
836.202	4930
836.34	5189
836.478	5201
836.615	5094
836.753	5204
836.891	5296
837.029	5250
837.167	5231
837.305	5178
837.443	5155
837.58	5075
837.718	5250
837.856	5166
837.993	5132
838.131	5151
838.269	5208
838.406	5212
838.544	5185
838.681	5064
838.819	5010
838.956	4870
839.094	4938
839.231	4980
839.369	5121
839.506	5448
839.643	5269
839.781	5037
839.918	5041
840.055	5121
840.193	5098
840.33	5121
840.467	5079
840.604	5174
840.742	5421
840.879	5071
841.016	5079
841.153	5204
841.29	5372
841.427	5315
841.564	5288
841.701	5357
841.838	5303
841.975	5159
842.112	5227
842.249	5105
842.385	5102
842.522	5353
842.659	5155
842.796	5185
842.933	5151
843.069	5143
843.206	5174
843.343	5261
843.479	5235
843.616	5265
843.752	5083
843.889	5041
844.025	5231
844.162	5014
844.298	5189
844.435	5113
844.571	5029
844.708	5197
844.844	5250
844.98	5322
845.117	5269
845.253	5143
845.389	5094
845.525	5181
845.661	5162
845.798	5037
845.934	5105
846.07	5071
846.206	5178
846.342	5212
846.478	5128
846.614	5045
846.75	4965
846.886	4938
847.022	5170
847.158	5018
847.294	5060
847.429	5159
847.565	5056
847.701	5326
847.837	4923
847.972	4805
848.108	4972
848.244	4927
848.379	4782
848.515	4725
848.65	4714
848.786	4767
848.921	4797
849.057	4904
849.192	4873
849.328	4828
849.463	4858
849.598	4790
849.734	4786
849.869	4668
850.004	4641
850.14	4679
850.275	4622
850.41	4516
850.545	4531
850.68	4607
850.815	4622
850.95	4664
851.085	4850
851.22	4725
851.355	4660
851.49	4611
851.625	4615
851.76	4691
851.895	4573
852.03	4527
852.165	4615
852.299	4717
852.434	4820
852.569	4744
852.703	4774
852.838	4866
852.973	4896
853.107	4923
853.242	4733
853.376	4721
853.511	4569
853.645	4656
853.78	4786
853.914	4725
854.048	4649
854.183	4637
854.317	4706
854.451	4850
854.585	4672
854.72	4668
854.854	4782
854.988	4577
855.122	4668
855.256	4497
855.39	4694
855.524	4702
855.658	4759
855.792	4714
855.926	4725
856.06	4771
856.194	4771
856.327	4645
856.461	4637
856.595	4588
856.729	4626
856.862	4740
856.996	4694
857.13	4721
857.263	4763
857.397	4843
857.53	4687
857.664	4714
857.797	4755
857.931	4755
858.064	4683
858.197	4733
858.331	4656
858.464	4573
858.597	4493
858.731	4675
858.864	4622
858.997	4580
859.13	4637
859.263	4675
859.396	4679
859.529	4607
859.662	4588
859.795	4561
859.928	4615
860.061	4721
860.194	4721
860.327	4622
860.46	4538
860.592	4755
860.725	4702
860.858	4679
860.99	4596
861.123	4497
861.256	4523
861.388	4641
861.521	5288
861.653	4451
861.786	4424
861.918	4481
862.05	4516
862.183	4546
862.315	4660
862.447	4641
862.58	4569
862.712	4405
862.844	4325
862.976	4481
863.108	4508
863.24	4771
863.372	4329
863.504	4424
863.636	4428
863.768	4447
863.9	4440
864.032	4379
864.164	4421
864.296	4417
864.428	4618
864.559	4565
864.691	4531
864.823	4550
864.954	4531
865.086	4489
865.217	4440
865.349	4436
865.48	4443
865.612	4470
865.743	4630
865.875	4462
866.006	4428
866.137	4390
866.269	4466
866.4	4451
866.531	4466
866.662	4413
866.793	4383
866.924	4421
867.055	4489
867.186	4428
867.317	4405
867.448	4421
867.579	4390
867.71	4356
867.841	4360
867.972	4459
868.103	4451
868.233	4428
868.364	4485
868.495	4474
868.625	4630
868.756	4748
868.886	4569
869.017	4626
869.147	4694
869.278	4812
869.408	4691
869.539	4603
869.669	4687
869.799	4683
869.929	4729
870.06	4714
870.19	4957
870.32	4900
870.45	4900
870.58	4987
870.71	5067
870.84	5086
870.97	4919
871.1	4911
871.23	5181
871.36	5079
871.489	4984
871.619	5113
871.749	5090
871.879	5132
872.008	5143
872.138	5079
872.267	4965
872.397	4828
872.526	4752
872.656	4755
872.785	4782
872.915	4953
873.044	5025
873.173	4961
873.303	4980
873.432	4946
873.561	4972
873.69	4877
873.819	4892
873.948	4900
874.077	4847
874.206	4790
874.335	4820
874.464	4923
874.593	5094
874.722	4949
874.851	5094
874.979	5090
875.108	5071
875.237	4847
875.365	4877
875.494	4908
875.623	4968
875.751	4858
875.88	4873
876.008	4976
876.136	5029
876.265	5155
876.393	5296
876.521	5318
876.65	5239
876.778	5162
876.906	5094
877.034	5010
877.162	5083
877.29	5010
877.418	5090
877.546	5060
877.674	5022
877.802	4999
877.93	5014
878.058	4961
878.185	4889
878.313	4965
878.441	4972
878.568	4812
878.696	4854
878.824	5006
878.951	4976
879.079	5064
879.206	5265
879.333	5155
879.461	4965
879.588	4965
879.715	5162
879.842	5204
879.97	5018
880.097	4797
880.224	4797
880.351	4790
880.478	4850
880.605	4839
880.732	4828
880.859	5098
880.986	4957
881.112	4904
881.239	4778
881.366	4672
881.493	4603
881.619	4599
881.746	4622
881.872	4637
881.999	4679
882.125	4721
882.252	4805
882.378	4824
882.505	4991
882.631	4763
882.757	4630
882.883	4809
883.01	4717
883.136	4656
883.262	4599
883.388	4615
883.514	4828
883.64	4828
883.766	4805
883.892	4679
884.018	4778
884.143	4839
884.269	4991
884.395	4664
884.52	4622
884.646	4660
884.772	4573
884.897	4592
885.023	4653
885.148	4812
885.274	4816
885.399	4816
885.524	4698
885.65	4721
885.775	4759
885.9	4721
886.025	4824
886.15	4812
886.275	4710
886.4	4698
886.525	4710
886.65	4660
886.775	4683
886.9	4908
887.025	5056
887.149	4820
887.274	4664
887.399	4607
887.523	4546
887.648	4630
887.773	4592
887.897	4740
888.021	4782
888.146	4691
888.27	4774
888.395	4923
888.519	4782
888.643	4839
888.767	4790
888.891	4641
889.015	4611
889.139	4694
889.263	4622
889.387	4725
889.511	4835
889.635	4767
889.759	4641
889.883	4611
890.006	4683
890.13	4771
890.254	4645
890.377	4672
890.501	4542
890.624	4527
890.748	4611
890.871	4481
890.995	4405
891.118	4413
891.241	4527
891.364	4554
891.488	4637
891.611	4474
891.734	4538
891.857	4565
891.98	4550
892.103	4603
892.226	4565
892.349	4527
892.471	4394
892.594	4546
892.717	4622
892.839	4538
892.962	4554
893.085	4615
893.207	4588
893.33	4436
893.452	4523
893.575	4660
893.697	4626
893.819	4763
893.941	4820
894.064	4740
894.186	4558
894.308	4550
894.43	4740
894.552	4774
894.674	4733
894.796	4565
894.918	4592
895.04	4561
895.161	4706
895.283	4698
895.405	4577
895.526	4653
895.648	4694
895.769	4687
895.891	4710
896.012	4668
896.134	4717
896.255	4744
896.376	4599
896.498	4580
896.619	4630
896.74	4611
896.861	4660
896.982	4858
897.103	5124
897.224	4854
897.345	4755
897.466	4622
897.587	4771
897.708	4828
897.828	4755
897.949	4683
898.07	4596
898.19	4599
898.311	4839
898.431	4645
898.552	4816
898.672	4820
898.792	4790
898.913	4778
899.033	4611
899.153	4508
899.273	4390
899.393	4504
899.513	4554
899.633	4500
899.753	4523
899.873	4462
899.993	4558
900.113	4512
900.232	4546
900.352	4558
900.472	4516
900.591	4398
900.711	4504
900.83	4451
900.95	4611
901.069	4694
901.189	4519
901.308	4398
901.427	4291
901.546	4375
901.665	4462
901.784	4519
901.904	4390
902.023	4363
902.141	4196
902.26	4177
902.379	4318
902.498	4223
902.617	4234
902.735	4322
902.854	4390
902.973	4333
903.091	4242
903.21	4211
903.328	4291
903.446	4265
903.565	4276
903.683	4348
903.801	4299
903.919	4394
904.038	4409
904.156	4329
904.274	4459
904.392	4402
904.51	4451
904.627	4462
904.745	4550
904.863	4615
904.981	4390
905.098	4310
905.216	4363
905.334	4440
905.451	4428
905.569	4455
905.686	4577
905.803	4577
905.921	4390
906.038	4592
906.155	4485
906.272	4436
906.389	4481
906.506	4367
906.623	4341
906.74	4341
906.857	4295
906.974	4363
907.091	4527
907.208	4717
907.324	4599
907.441	4508
907.557	4329
907.674	4341
907.79	4322
907.907	4386
908.023	4481
908.139	4470
908.256	4459
908.372	4493
908.488	4466
908.604	4341
908.72	4348
908.836	4367
908.952	4310
909.068	4417
909.184	4550
909.3	4508
909.415	4580
909.531	4592
909.647	4341
909.762	4379
909.878	4348
909.993	4421
910.108	4421
910.224	4405
910.339	4504
910.454	4424
910.57	4371
910.685	4287
910.8	4656
910.915	4565
911.03	4500
911.145	4325
911.259	4341
911.374	4352
911.489	4284
911.604	4276
911.718	4154
911.833	4185
911.947	4086
912.062	4040
912.176	4249
912.291	4230
912.405	4265
912.519	4440
912.633	4508
912.748	4363
912.862	4356
912.976	4188
913.09	4105
913.204	4177
913.318	4242
913.431	4325
913.545	4344
913.659	4428
913.772	4344
913.886	4287
914	4238
914.113	4337
914.226	4462
914.34	4352
914.453	4242
914.566	4436
914.68	4249
914.793	4333
914.906	4154
915.019	4093
915.132	4086
915.245	4173
915.358	4211
915.47	4261
915.583	4310
915.696	4299
915.809	4394
915.921	4383
916.034	4268
916.146	4287
916.259	4234
916.371	4413
916.483	4360
916.595	4249
916.708	4306
916.82	4344
916.932	4352
917.044	4367
917.156	4329
917.268	4230
917.38	4314
917.491	4284
917.603	4299
917.715	4367
917.826	4474
917.938	4383
918.049	4246
918.161	4375
918.272	4599
918.384	4531
918.495	4432
918.606	4310
918.717	4268
918.828	4329
918.939	4333
919.05	4249
919.161	4348
919.272	4135
919.383	4200
919.494	4459
919.604	4573
919.715	4405
919.826	4348
919.936	4348
920.047	4546
920.157	4535
920.267	4717
920.378	4531
920.488	4504
920.598	4702
920.708	4949
920.818	4767
920.928	4755
921.038	4927
921.148	4908
921.258	4630
921.368	4531
921.477	4508
921.587	4455
921.697	4394
921.806	4481
921.916	4405
922.025	4272
922.134	4265
922.244	4257
922.353	4318
922.462	4185
922.571	4150
922.68	3994
922.789	3922
922.898	4036
923.007	3998
923.116	4139
923.224	4071
923.333	4093
923.442	3991
923.55	4032
923.659	4017
923.767	4086
923.876	4002
923.984	4116
924.092	3979
924.201	4051
924.309	4055
924.417	4131
924.525	4071
924.633	4086
924.741	5018
924.849	3880
924.956	4105
925.064	3968
925.172	3926
925.279	3949
925.387	4036
925.494	4090
925.602	4249
925.709	4124
925.816	4025
925.924	4131
926.031	4200
926.138	4158
926.245	4234
926.352	4112
926.459	4253
926.566	4261
926.673	4173
926.779	4105
926.886	4067
926.993	3987
927.099	3937
927.206	3937
927.312	3934
927.419	4059
927.525	4040
927.631	4120
927.737	3972
927.843	3930
927.95	3850
928.056	3899
928.162	3987
928.267	4063
928.373	4691
928.479	4097
928.585	3884
928.69	4010
928.796	4143
928.901	3979
929.007	3804
929.112	4032
929.218	3994
929.323	3934
929.428	3972
929.533	4086
929.638	3941
929.743	3994
929.848	4044
929.953	4002
930.058	3918
930.163	3774
930.267	3835
930.372	3964
930.477	3827
930.581	4109
930.685	3918
930.79	3816
930.894	3911
930.998	3880
931.103	4006
931.207	3701
931.311	3675
931.415	3686
931.519	3485
931.623	3561
