Data from test_V78500241_2500.txt Node
Date: Fri Mar 25 17:06:23 CST 2022
User: usil
Spectrometer: V785-0024
Trigger mode: 0
Integration Time (sec): 4.000000E-1
Scans to average: 1
Nonlinearity correction enabled: false
Boxcar width: 0
Storing dark spectrum: false
XAxis mode: Wavelengths
Number of Pixels in Spectrum: 1024
>>>>>Begin Spectral Data<<<<<
801.071	7951
801.214	8027
801.356	7852
801.499	7837
801.641	7757
801.783	7864
801.926	7997
802.068	7947
802.211	7940
802.353	7947
802.496	7860
802.638	7875
802.78	7883
802.923	7902
803.065	7906
803.208	7841
803.35	7967
803.492	8012
803.635	8100
803.777	8054
803.919	8180
804.061	8362
804.204	8126
804.346	8111
804.488	7967
804.63	8050
804.773	7963
804.915	8073
805.057	8275
805.199	8176
805.341	8115
805.483	8218
805.626	8195
805.768	8115
805.91	8180
806.052	8172
806.194	8130
806.336	8305
806.478	8054
806.62	8100
806.762	8103
806.904	8225
807.046	8480
807.188	8343
807.33	8282
807.472	8328
807.614	8134
807.756	8168
807.898	7978
808.04	7849
808.182	7887
808.324	7917
808.465	7959
808.607	8084
808.749	8100
808.891	8244
809.033	8385
809.174	8195
809.316	8103
809.458	8107
809.6	8027
809.741	7989
809.883	8088
810.025	8123
810.166	8039
810.308	8035
810.45	8005
810.591	7879
810.733	7780
810.875	7616
811.016	7518
811.158	7441
811.299	7556
811.441	7761
811.582	7655
811.724	7601
811.865	7636
812.007	7575
812.148	7597
812.29	7658
812.431	7772
812.573	7902
812.714	7974
812.855	8123
812.997	8244
813.138	8301
813.279	8096
813.421	8073
813.562	7989
813.703	7849
813.845	7753
813.986	7499
814.127	7251
814.268	7187
814.41	7194
814.551	7213
814.692	7225
814.833	7057
814.974	7099
815.115	7099
815.256	6958
815.397	6935
815.539	6905
815.68	6776
815.821	6787
815.962	6897
816.103	6825
816.244	6738
816.385	6604
816.526	6563
816.666	6551
816.807	6338
816.948	6471
817.089	6452
817.23	6422
817.371	6407
817.512	6376
817.653	6304
817.793	6319
817.934	6388
818.075	6490
818.216	6460
818.356	6426
818.497	6281
818.638	6148
818.778	6129
818.919	6102
819.06	6117
819.2	6384
819.341	6342
819.481	6391
819.622	6547
819.762	6703
819.903	6715
820.043	6627
820.184	6547
820.324	6593
820.465	6719
820.605	6711
820.746	6639
820.886	6544
821.026	6681
821.167	6707
821.307	6833
821.447	6757
821.588	6734
821.728	6654
821.868	6506
822.008	6365
822.149	6395
822.289	6365
822.429	6194
822.569	6098
822.709	6129
822.849	5920
822.99	5904
823.13	5923
823.27	5920
823.41	5821
823.55	5840
823.69	5779
823.83	5764
823.97	5649
824.11	5539
824.25	5509
824.389	5589
824.529	5615
824.669	5535
824.809	5649
824.949	5627
825.089	5604
825.228	5539
825.368	5429
825.508	5360
825.648	5345
825.787	5387
825.927	5391
826.067	5216
826.206	5337
826.346	5398
826.485	5368
826.625	5402
826.765	5520
826.904	5448
827.044	5265
827.183	5201
827.323	5147
827.462	5231
827.601	5193
827.741	5208
827.88	5254
828.02	5094
828.159	5254
828.298	5337
828.437	5387
828.577	5315
828.716	5444
828.855	5269
828.994	5151
829.134	5147
829.273	5223
829.412	5178
829.551	5109
829.69	5162
829.829	5227
829.968	5364
830.107	5284
830.246	5258
830.385	5197
830.524	5121
830.663	5064
830.802	4972
830.941	4892
831.08	4858
831.219	4980
831.357	5010
831.496	5128
831.635	4908
831.774	4843
831.913	4873
832.051	4782
832.19	4774
832.329	4847
832.467	4767
832.606	4641
832.744	4721
832.883	4702
833.022	4744
833.16	4820
833.299	4793
833.437	4824
833.576	4831
833.714	4847
833.852	4915
833.991	4919
834.129	4972
834.267	4930
834.406	4892
834.544	4984
834.682	4984
834.821	4968
834.959	5220
835.097	4987
835.235	5151
835.373	5086
835.511	5094
835.65	5022
835.788	5045
835.926	4873
836.064	4885
836.202	4870
836.34	5155
836.478	5250
836.615	5117
836.753	5216
836.891	5296
837.029	5292
837.167	5197
837.305	5178
837.443	5140
837.58	5079
837.718	5254
837.856	5178
837.993	5124
838.131	5239
838.269	5151
838.406	5223
838.544	5208
838.681	5037
838.819	5022
838.956	4892
839.094	4900
839.231	4942
839.369	5071
839.506	5452
839.643	5223
839.781	5064
839.918	5010
840.055	5098
840.193	5098
840.33	5121
840.467	5124
840.604	5159
840.742	5429
840.879	5098
841.016	5048
841.153	5162
841.29	5360
841.427	5280
841.564	5284
841.701	5315
841.838	5277
841.975	5265
842.112	5303
842.249	5113
842.385	5102
842.522	5280
842.659	5117
842.796	5128
842.933	5178
843.069	5128
843.206	5193
843.343	5307
843.479	5212
843.616	5189
843.752	5010
843.889	5033
844.025	5212
844.162	5003
844.298	5197
844.435	5071
844.571	5029
844.708	5143
844.844	5311
844.98	5383
845.117	5250
845.253	5185
845.389	5079
845.525	5105
845.661	5136
845.798	5033
845.934	5113
846.07	5025
846.206	5223
846.342	5292
846.478	5227
846.614	5003
846.75	4987
846.886	4968
847.022	5151
847.158	5037
847.294	5060
847.429	5079
847.565	5018
847.701	5296
847.837	4915
847.972	4782
848.108	5010
848.244	4908
848.379	4793
848.515	4714
848.65	4717
848.786	4771
848.921	4797
849.057	4858
849.192	4866
849.328	4854
849.463	4862
849.598	4809
849.734	4752
849.869	4710
850.004	4649
850.14	4649
850.275	4637
850.41	4523
850.545	4527
850.68	4577
850.815	4649
850.95	4630
851.085	4820
851.22	4748
851.355	4656
851.49	4622
851.625	4618
851.76	4626
851.895	4611
852.03	4497
852.165	4599
852.299	4687
852.434	4805
852.569	4733
852.703	4824
852.838	4843
852.973	4877
853.107	4911
853.242	4752
853.376	4641
853.511	4580
853.645	4615
853.78	4831
853.914	4672
854.048	4641
854.183	4634
854.317	4706
854.451	4835
854.585	4706
854.72	4626
854.854	4736
854.988	4588
855.122	4630
855.256	4535
855.39	4710
855.524	4763
855.658	4721
855.792	4702
855.926	4710
856.06	4717
856.194	4870
856.327	4683
856.461	4626
856.595	4626
856.729	4615
856.862	4755
856.996	4717
857.13	4725
857.263	4748
857.397	4839
857.53	4668
857.664	4675
857.797	4725
857.931	4797
858.064	4710
858.197	4736
858.331	4687
858.464	4675
858.597	4558
858.731	4660
858.864	4649
858.997	4611
859.13	4710
859.263	4664
859.396	4653
859.529	4607
859.662	4558
859.795	4519
859.928	4630
860.061	4729
860.194	4786
860.327	4611
860.46	4558
860.592	4729
860.725	4733
860.858	4714
860.99	4527
861.123	4542
861.256	4546
861.388	4618
861.521	5189
861.653	4481
861.786	4451
861.918	4516
862.05	4550
862.183	4607
862.315	4538
862.447	4653
862.58	4504
862.712	4421
862.844	4325
862.976	4474
863.108	4421
863.24	4854
863.372	4314
863.504	4432
863.636	4394
863.768	4519
863.9	4481
864.032	4344
864.164	4360
864.296	4424
864.428	4542
864.559	4542
864.691	4523
864.823	4516
864.954	4493
865.086	4512
865.217	4455
865.349	4402
865.48	4440
865.612	4504
865.743	4615
865.875	4428
866.006	4424
866.137	4436
866.269	4440
866.4	4421
866.531	4394
866.662	4405
866.793	4375
866.924	4390
867.055	4516
867.186	4405
867.317	4474
867.448	4379
867.579	4417
867.71	4398
867.841	4360
867.972	4443
868.103	4466
868.233	4447
868.364	4447
868.495	4447
868.625	4656
868.756	4763
868.886	4554
869.017	4641
869.147	4763
869.278	4778
869.408	4672
869.539	4596
869.669	4691
869.799	4622
869.929	4763
870.06	4752
870.19	4938
870.32	4911
870.45	4908
870.58	5045
870.71	5064
870.84	5113
870.97	4942
871.1	4915
871.23	5159
871.36	5105
871.489	4972
871.619	5037
871.749	5151
871.879	5140
872.008	5185
872.138	5048
872.267	5003
872.397	4881
872.526	4828
872.656	4759
872.785	4877
872.915	4946
873.044	5060
873.173	4873
873.303	4900
873.432	4991
873.561	4927
873.69	4938
873.819	4870
873.948	4900
874.077	4858
874.206	4786
874.335	4809
874.464	4946
874.593	5014
874.722	4930
874.851	5128
874.979	5064
875.108	5018
875.237	4896
875.365	4847
875.494	4850
875.623	4984
875.751	4831
875.88	4854
876.008	5014
876.136	5010
876.265	5208
876.393	5345
876.521	5227
876.65	5273
876.778	5109
876.906	5109
877.034	5056
877.162	5018
877.29	5025
877.418	5018
877.546	5064
877.674	5037
877.802	5041
877.93	5010
878.058	4946
878.185	4824
878.313	4953
878.441	4942
878.568	4824
878.696	4904
878.824	4968
878.951	4999
879.079	5071
879.206	5246
879.333	5109
879.461	5014
879.588	4976
879.715	5102
879.842	5201
879.97	5033
880.097	4729
880.224	4740
880.351	4816
880.478	4824
880.605	4755
880.732	4805
880.859	5075
880.986	4911
881.112	4911
881.239	4805
881.366	4626
881.493	4626
881.619	4588
881.746	4615
881.872	4683
881.999	4668
882.125	4675
882.252	4782
882.378	4847
882.505	4915
882.631	4835
882.757	4725
882.883	4725
883.01	4759
883.136	4630
883.262	4577
883.388	4630
883.514	4812
883.64	4847
883.766	4710
883.892	4710
884.018	4717
884.143	4892
884.269	5025
884.395	4694
884.52	4607
884.646	4698
884.772	4596
884.897	4538
885.023	4675
885.148	4816
885.274	4850
885.399	4797
885.524	4725
885.65	4679
885.775	4736
885.9	4706
886.025	4850
886.15	4721
886.275	4710
886.4	4653
886.525	4755
886.65	4698
886.775	4748
886.9	4896
887.025	5052
887.149	4854
887.274	4698
887.399	4538
887.523	4592
887.648	4611
887.773	4573
887.897	4778
888.021	4771
888.146	4694
888.27	4828
888.395	4881
888.519	4763
888.643	4850
888.767	4824
888.891	4714
889.015	4603
889.139	4637
889.263	4599
889.387	4736
889.511	4904
889.635	4782
889.759	4645
889.883	4641
890.006	4740
890.13	4828
890.254	4542
890.377	4641
890.501	4554
890.624	4519
890.748	4656
890.871	4538
890.995	4455
891.118	4367
891.241	4516
891.364	4542
891.488	4653
891.611	4508
891.734	4573
891.857	4630
891.98	4573
892.103	4687
892.226	4592
892.349	4577
892.471	4440
892.594	4558
892.717	4645
892.839	4512
892.962	4577
893.085	4691
893.207	4615
893.33	4459
893.452	4493
893.575	4687
893.697	4584
893.819	4801
893.941	4774
894.064	4744
894.186	4577
894.308	4546
894.43	4710
894.552	4782
894.674	4752
894.796	4577
894.918	4519
895.04	4527
895.161	4721
895.283	4672
895.405	4588
895.526	4645
895.648	4660
895.769	4653
895.891	4691
896.012	4721
896.134	4744
896.255	4675
896.376	4569
896.498	4615
896.619	4706
896.74	4626
896.861	4641
896.982	4949
897.103	5056
897.224	4850
897.345	4778
897.466	4672
897.587	4763
897.708	4870
897.828	4824
897.949	4664
898.07	4569
898.19	4656
898.311	4854
898.431	4656
898.552	4691
898.672	4835
898.792	4763
898.913	4729
899.033	4584
899.153	4493
899.273	4394
899.393	4478
899.513	4516
899.633	4508
899.753	4561
899.873	4519
899.993	4607
900.113	4531
900.232	4596
900.352	4542
900.472	4462
900.591	4409
900.711	4512
900.83	4443
900.95	4573
901.069	4672
901.189	4542
901.308	4386
901.427	4284
901.546	4394
901.665	4516
901.784	4508
901.904	4413
902.023	4333
902.141	4188
902.26	4188
902.379	4322
902.498	4223
902.617	4211
902.735	4352
902.854	4398
902.973	4348
903.091	4211
903.21	4215
903.328	4276
903.446	4257
903.565	4242
903.683	4363
903.801	4265
903.919	4398
904.038	4440
904.156	4363
904.274	4493
904.392	4432
904.51	4451
904.627	4455
904.745	4546
904.863	4660
904.981	4383
905.098	4333
905.216	4375
905.334	4405
905.451	4413
905.569	4417
905.686	4531
905.803	4596
905.921	4405
906.038	4497
906.155	4485
906.272	4398
906.389	4405
906.506	4333
906.623	4352
906.74	4383
906.857	4268
906.974	4344
907.091	4527
907.208	4668
907.324	4588
907.441	4500
907.557	4344
907.674	4363
907.79	4314
907.907	4390
908.023	4489
908.139	4481
908.256	4417
908.372	4455
908.488	4466
908.604	4333
908.72	4344
908.836	4352
908.952	4371
909.068	4421
909.184	4558
909.3	4523
909.415	4577
909.531	4561
909.647	4367
909.762	4352
909.878	4371
909.993	4386
910.108	4402
910.224	4459
910.339	4493
910.454	4344
910.57	4322
910.685	4322
910.8	4634
910.915	4603
911.03	4512
911.145	4310
911.259	4356
911.374	4394
911.489	4299
911.604	4291
911.718	4188
911.833	4219
911.947	4090
912.062	4010
912.176	4200
912.291	4215
912.405	4291
912.519	4485
912.633	4523
912.748	4371
912.862	4284
912.976	4200
913.09	4055
913.204	4200
913.318	4227
913.431	4379
913.545	4371
913.659	4402
913.772	4379
913.886	4234
914	4230
914.113	4367
914.226	4360
914.34	4383
914.453	4192
914.566	4413
914.68	4291
914.793	4322
914.906	4131
915.019	4112
915.132	4116
915.245	4181
915.358	4249
915.47	4219
915.583	4291
915.696	4299
915.809	4432
915.921	4451
916.034	4261
916.146	4268
916.259	4181
916.371	4379
916.483	4341
916.595	4242
916.708	4337
916.82	4284
916.932	4360
917.044	4329
917.156	4306
917.268	4207
917.38	4306
917.491	4306
917.603	4329
917.715	4417
917.826	4447
917.938	4341
918.049	4234
918.161	4394
918.272	4573
918.384	4489
918.495	4436
918.606	4299
918.717	4246
918.828	4303
918.939	4356
919.05	4219
919.161	4329
919.272	4093
919.383	4230
919.494	4413
919.604	4580
919.715	4421
919.826	4379
919.936	4367
920.047	4493
920.157	4451
920.267	4694
920.378	4550
920.488	4512
920.598	4733
920.708	4919
920.818	4763
920.928	4774
921.038	4995
921.148	4919
921.258	4672
921.368	4504
921.477	4531
921.587	4485
921.697	4379
921.806	4558
921.916	4402
922.025	4268
922.134	4284
922.244	4192
922.353	4303
922.462	4147
922.571	4116
922.68	4025
922.789	3911
922.898	4044
923.007	4032
923.116	4120
923.224	4044
923.333	4048
923.442	3991
923.55	3991
923.659	4032
923.767	4135
923.876	4029
923.984	4116
924.092	3998
924.201	4032
924.309	4112
924.417	4112
924.525	4101
924.633	4082
924.741	4877
924.849	3876
924.956	4120
925.064	3964
925.172	3892
925.279	3937
925.387	4051
925.494	4063
925.602	4158
925.709	4173
925.816	4002
925.924	4112
926.031	4211
926.138	4166
926.245	4219
926.352	4078
926.459	4249
926.566	4291
926.673	4147
926.779	4074
926.886	4071
926.993	3956
927.099	3968
927.206	3945
927.312	3979
927.419	4010
927.525	4074
927.631	4071
927.737	3949
927.843	3911
927.95	3827
928.056	3930
928.162	3994
928.267	4059
928.373	4599
928.479	4078
928.585	3869
928.69	3994
928.796	4063
928.901	4029
929.007	3835
929.112	3975
929.218	3994
929.323	3918
929.428	3926
929.533	4188
929.638	3930
929.743	3964
929.848	4048
929.953	4002
930.058	3907
930.163	3800
930.267	3831
930.372	3949
930.477	3797
930.581	4128
930.685	3949
930.79	3846
930.894	3907
930.998	3842
931.103	4055
931.207	3690
931.311	3671
931.415	3656
931.519	3511
931.623	3564
