Data from test_V78500241_634.txt Node
Date: Fri Mar 25 16:53:24 CST 2022
User: usil
Spectrometer: V785-0024
Trigger mode: 0
Integration Time (sec): 4.000000E-1
Scans to average: 1
Nonlinearity correction enabled: false
Boxcar width: 0
Storing dark spectrum: false
XAxis mode: Wavelengths
Number of Pixels in Spectrum: 1024
>>>>>Begin Spectral Data<<<<<
801.071	7967
801.214	8020
801.356	7902
801.499	7894
801.641	7852
801.783	7814
801.926	8046
802.068	7944
802.211	8001
802.353	8069
802.496	7909
802.638	7856
802.78	7868
802.923	7951
803.065	7845
803.208	7856
803.35	7967
803.492	8138
803.635	8164
803.777	7974
803.919	8134
804.061	8454
804.204	8100
804.346	7997
804.488	7947
804.63	8077
804.773	7974
804.915	8024
805.057	8233
805.199	8172
805.341	8164
805.483	8305
805.626	8248
805.768	8103
805.91	8176
806.052	8225
806.194	8130
806.336	8267
806.478	8111
806.62	8054
806.762	8142
806.904	8313
807.046	8469
807.188	8317
807.33	8332
807.472	8279
807.614	8168
807.756	8164
807.898	7974
808.04	7852
808.182	7887
808.324	7925
808.465	7982
808.607	8054
808.749	8142
808.891	8252
809.033	8256
809.174	8145
809.316	8024
809.458	8027
809.6	7993
809.741	7974
809.883	8100
810.025	8035
810.166	8142
810.308	8065
810.45	8016
810.591	7852
810.733	7696
810.875	7597
811.016	7480
811.158	7533
811.299	7628
811.441	7723
811.582	7670
811.724	7521
811.865	7518
812.007	7628
812.148	7597
812.29	7586
812.431	7670
812.573	7849
812.714	7978
812.855	8168
812.997	8240
813.138	8309
813.279	8256
813.421	8138
813.562	7993
813.703	7890
813.845	7803
813.986	7480
814.127	7339
814.268	7285
814.41	7255
814.551	7190
814.692	7183
814.833	7019
814.974	7057
815.115	7137
815.256	6962
815.397	6947
815.539	6973
815.68	6810
815.821	6859
815.962	6878
816.103	6840
816.244	6749
816.385	6620
816.526	6601
816.666	6525
816.807	6304
816.948	6452
817.089	6452
817.23	6445
817.371	6319
817.512	6410
817.653	6395
817.793	6315
817.934	6441
818.075	6494
818.216	6422
818.356	6433
818.497	6224
818.638	6098
818.778	6186
818.919	6140
819.06	6087
819.2	6296
819.341	6292
819.481	6357
819.622	6525
819.762	6772
819.903	6753
820.043	6585
820.184	6528
820.324	6506
820.465	6662
820.605	6627
820.746	6589
820.886	6521
821.026	6608
821.167	6707
821.307	6829
821.447	6703
821.588	6646
821.728	6536
821.868	6445
822.008	6277
822.149	6342
822.289	6357
822.429	6133
822.569	6087
822.709	6057
822.849	5897
822.99	5897
823.13	5901
823.27	5908
823.41	5745
823.55	5745
823.69	5798
823.83	5809
823.97	5699
824.11	5524
824.25	5490
824.389	5596
824.529	5551
824.669	5509
824.809	5600
824.949	5684
825.089	5615
825.228	5524
825.368	5395
825.508	5341
825.648	5379
825.787	5398
825.927	5349
826.067	5303
826.206	5269
826.346	5398
826.485	5383
826.625	5402
826.765	5532
826.904	5448
827.044	5261
827.183	5162
827.323	5170
827.462	5189
827.601	5143
827.741	5208
827.88	5220
828.02	5102
828.159	5261
828.298	5269
828.437	5372
828.577	5315
828.716	5505
828.855	5372
828.994	5204
829.134	5124
829.273	5181
829.412	5143
829.551	5098
829.69	5132
829.829	5261
829.968	5330
830.107	5315
830.246	5235
830.385	5159
830.524	5105
830.663	5067
830.802	4942
830.941	4923
831.08	4877
831.219	4999
831.357	5022
831.496	5193
831.635	4972
831.774	4870
831.913	4839
832.051	4698
832.19	4748
832.329	4892
832.467	4675
832.606	4672
832.744	4744
832.883	4656
833.022	4733
833.16	4797
833.299	4877
833.437	4812
833.576	4854
833.714	4847
833.852	4843
833.991	4889
834.129	4965
834.267	4953
834.406	4923
834.544	4999
834.682	5003
834.821	4968
834.959	5185
835.097	4942
835.235	5117
835.373	5105
835.511	5109
835.65	5010
835.788	5041
835.926	4881
836.064	4927
836.202	4900
836.34	5121
836.478	5189
836.615	5121
836.753	5246
836.891	5296
837.029	5212
837.167	5220
837.305	5178
837.443	5181
837.58	5086
837.718	5284
837.856	5208
837.993	5136
838.131	5193
838.269	5197
838.406	5220
838.544	5159
838.681	5067
838.819	4995
838.956	4896
839.094	4946
839.231	5025
839.369	5060
839.506	5391
839.643	5277
839.781	5086
839.918	5045
840.055	5052
840.193	5117
840.33	5124
840.467	5185
840.604	5178
840.742	5474
840.879	5025
841.016	5060
841.153	5162
841.29	5368
841.427	5349
841.564	5330
841.701	5326
841.838	5318
841.975	5220
842.112	5239
842.249	5155
842.385	5124
842.522	5334
842.659	5170
842.796	5136
842.933	5170
843.069	5155
843.206	5227
843.343	5315
843.479	5227
843.616	5265
843.752	5029
843.889	4957
844.025	5185
844.162	5010
844.298	5261
844.435	5067
844.571	5018
844.708	5151
844.844	5269
844.98	5311
845.117	5258
845.253	5113
845.389	5086
845.525	5178
845.661	5155
845.798	5022
845.934	5155
846.07	5064
846.206	5140
846.342	5318
846.478	5162
846.614	5003
846.75	4938
846.886	4930
847.022	5124
847.158	5022
847.294	5048
847.429	5094
847.565	5018
847.701	5334
847.837	4812
847.972	4816
848.108	4938
848.244	4968
848.379	4767
848.515	4698
848.65	4694
848.786	4767
848.921	4782
849.057	4873
849.192	4892
849.328	4835
849.463	4870
849.598	4797
849.734	4782
849.869	4748
850.004	4634
850.14	4622
850.275	4565
850.41	4462
850.545	4588
850.68	4596
850.815	4637
850.95	4630
851.085	4812
851.22	4778
851.355	4702
851.49	4634
851.625	4622
851.76	4630
851.895	4599
852.03	4535
852.165	4637
852.299	4744
852.434	4752
852.569	4740
852.703	4755
852.838	4824
852.973	4919
853.107	4911
853.242	4694
853.376	4649
853.511	4531
853.645	4649
853.78	4782
853.914	4675
854.048	4683
854.183	4622
854.317	4721
854.451	4831
854.585	4706
854.72	4645
854.854	4736
854.988	4569
855.122	4656
855.256	4550
855.39	4634
855.524	4721
855.658	4733
855.792	4694
855.926	4733
856.06	4740
856.194	4782
856.327	4706
856.461	4634
856.595	4588
856.729	4645
856.862	4759
856.996	4694
857.13	4717
857.263	4755
857.397	4771
857.53	4615
857.664	4736
857.797	4782
857.931	4771
858.064	4660
858.197	4740
858.331	4672
858.464	4577
858.597	4504
858.731	4645
858.864	4664
858.997	4618
859.13	4641
859.263	4691
859.396	4691
859.529	4550
859.662	4649
859.795	4542
859.928	4569
860.061	4729
860.194	4771
860.327	4607
860.46	4538
860.592	4706
860.725	4725
860.858	4672
860.99	4577
861.123	4558
861.256	4504
861.388	4565
861.521	5334
861.653	4485
861.786	4462
861.918	4459
862.05	4565
862.183	4512
862.315	4660
862.447	4675
862.58	4569
862.712	4409
862.844	4310
862.976	4478
863.108	4421
863.24	4904
863.372	4325
863.504	4386
863.636	4409
863.768	4481
863.9	4451
864.032	4333
864.164	4394
864.296	4474
864.428	4584
864.559	4584
864.691	4512
864.823	4512
864.954	4474
865.086	4462
865.217	4424
865.349	4432
865.48	4447
865.612	4519
865.743	4649
865.875	4462
866.006	4462
866.137	4470
866.269	4474
866.4	4413
866.531	4424
866.662	4409
866.793	4417
866.924	4451
867.055	4504
867.186	4440
867.317	4405
867.448	4386
867.579	4390
867.71	4386
867.841	4375
867.972	4512
868.103	4440
868.233	4485
868.364	4455
868.495	4462
868.625	4645
868.756	4740
868.886	4561
869.017	4618
869.147	4774
869.278	4763
869.408	4687
869.539	4645
869.669	4683
869.799	4687
869.929	4717
870.06	4767
870.19	4938
870.32	4919
870.45	4896
870.58	5014
870.71	5029
870.84	5064
870.97	4976
871.1	4942
871.23	5090
871.36	5109
871.489	5067
871.619	5117
871.749	5109
871.879	5147
872.008	5181
872.138	5048
872.267	4987
872.397	4854
872.526	4809
872.656	4752
872.785	4831
872.915	4965
873.044	5018
873.173	4953
873.303	4968
873.432	4980
873.561	4968
873.69	4911
873.819	4858
873.948	4908
874.077	4831
874.206	4771
874.335	4729
874.464	4908
874.593	5018
874.722	4953
874.851	5128
874.979	5094
875.108	5037
875.237	4934
875.365	4885
875.494	4850
875.623	4999
875.751	4843
875.88	4839
876.008	4976
876.136	4991
876.265	5159
876.393	5311
876.521	5189
876.65	5273
876.778	5162
876.906	5014
877.034	5037
877.162	5067
877.29	4976
877.418	5022
877.546	5014
877.674	5121
877.802	4995
877.93	4965
878.058	4965
878.185	4816
878.313	4915
878.441	4957
878.568	4820
878.696	4847
878.824	4953
878.951	4984
879.079	5132
879.206	5269
879.333	5102
879.461	4946
879.588	5018
879.715	5094
879.842	5201
879.97	5022
880.097	4824
880.224	4744
880.351	4828
880.478	4797
880.605	4812
880.732	4778
880.859	5105
880.986	4881
881.112	4877
881.239	4771
881.366	4653
881.493	4622
881.619	4592
881.746	4634
881.872	4653
881.999	4683
882.125	4672
882.252	4771
882.378	4793
882.505	4957
882.631	4790
882.757	4637
882.883	4710
883.01	4736
883.136	4645
883.262	4588
883.388	4607
883.514	4828
883.64	4847
883.766	4778
883.892	4641
884.018	4702
884.143	4900
884.269	5018
884.395	4679
884.52	4565
884.646	4615
884.772	4596
884.897	4516
885.023	4668
885.148	4774
885.274	4805
885.399	4816
885.524	4702
885.65	4729
885.775	4744
885.9	4752
886.025	4843
886.15	4809
886.275	4687
886.4	4679
886.525	4740
886.65	4691
886.775	4740
886.9	4873
887.025	4999
887.149	4809
887.274	4626
887.399	4588
887.523	4580
887.648	4588
887.773	4588
887.897	4763
888.021	4797
888.146	4649
888.27	4828
888.395	4904
888.519	4755
888.643	4835
888.767	4858
888.891	4634
889.015	4618
889.139	4691
889.263	4577
889.387	4771
889.511	4839
889.635	4809
889.759	4630
889.883	4672
890.006	4771
890.13	4839
890.254	4592
890.377	4649
890.501	4512
890.624	4500
890.748	4622
890.871	4470
890.995	4405
891.118	4360
891.241	4512
891.364	4588
891.488	4641
891.611	4527
891.734	4573
891.857	4599
891.98	4554
892.103	4626
892.226	4577
892.349	4554
892.471	4432
892.594	4538
892.717	4611
892.839	4596
892.962	4611
893.085	4691
893.207	4558
893.33	4409
893.452	4516
893.575	4649
893.697	4580
893.819	4801
893.941	4820
894.064	4763
894.186	4565
894.308	4516
894.43	4698
894.552	4771
894.674	4729
894.796	4577
894.918	4615
895.04	4565
895.161	4729
895.283	4664
895.405	4580
895.526	4611
895.648	4649
895.769	4664
895.891	4714
896.012	4755
896.134	4698
896.255	4618
896.376	4607
896.498	4649
896.619	4630
896.74	4607
896.861	4653
896.982	4923
897.103	5086
897.224	4778
897.345	4744
897.466	4668
897.587	4721
897.708	4816
897.828	4763
897.949	4622
898.07	4542
898.19	4637
898.311	4790
898.431	4714
898.552	4736
898.672	4771
898.792	4782
898.913	4748
899.033	4649
899.153	4538
899.273	4440
899.393	4478
899.513	4489
899.633	4493
899.753	4535
899.873	4489
899.993	4596
900.113	4531
900.232	4603
900.352	4535
900.472	4478
900.591	4379
900.711	4516
900.83	4470
900.95	4611
901.069	4679
901.189	4550
901.308	4318
901.427	4398
901.546	4428
901.665	4440
901.784	4531
901.904	4379
902.023	4253
902.141	4192
902.26	4177
902.379	4314
902.498	4230
902.617	4257
902.735	4386
902.854	4375
902.973	4356
903.091	4207
903.21	4249
903.328	4318
903.446	4261
903.565	4257
903.683	4299
903.801	4299
903.919	4413
904.038	4436
904.156	4344
904.274	4428
904.392	4383
904.51	4440
904.627	4497
904.745	4615
904.863	4626
904.981	4402
905.098	4276
905.216	4333
905.334	4478
905.451	4455
905.569	4436
905.686	4535
905.803	4542
905.921	4436
906.038	4580
906.155	4489
906.272	4424
906.389	4489
906.506	4333
906.623	4379
906.74	4413
906.857	4360
906.974	4352
907.091	4542
907.208	4630
907.324	4637
907.441	4470
907.557	4337
907.674	4337
907.79	4363
907.907	4417
908.023	4455
908.139	4512
908.256	4447
908.372	4470
908.488	4500
908.604	4356
908.72	4329
908.836	4398
908.952	4428
909.068	4447
909.184	4569
909.3	4504
909.415	4561
909.531	4554
909.647	4375
909.762	4402
909.878	4322
909.993	4440
910.108	4413
910.224	4417
910.339	4497
910.454	4440
910.57	4375
910.685	4341
910.8	4626
910.915	4622
911.03	4493
911.145	4352
911.259	4344
911.374	4390
911.489	4287
911.604	4242
911.718	4139
911.833	4230
911.947	4029
912.062	4063
912.176	4204
912.291	4227
912.405	4242
912.519	4493
912.633	4508
912.748	4405
912.862	4303
912.976	4204
913.09	4063
913.204	4200
913.318	4287
913.431	4371
913.545	4424
913.659	4421
913.772	4325
913.886	4280
914	4196
914.113	4421
914.226	4424
914.34	4405
914.453	4253
914.566	4421
914.68	4318
914.793	4352
914.906	4185
915.019	4131
915.132	4059
915.245	4200
915.358	4166
915.47	4253
915.583	4253
915.696	4310
915.809	4440
915.921	4470
916.034	4280
916.146	4261
916.259	4219
916.371	4394
916.483	4348
916.595	4265
916.708	4329
916.82	4284
916.932	4329
917.044	4333
917.156	4322
917.268	4261
917.38	4280
917.491	4268
917.603	4341
917.715	4440
917.826	4421
917.938	4276
918.049	4230
918.161	4402
918.272	4546
918.384	4565
918.495	4432
918.606	4310
918.717	4272
918.828	4329
918.939	4306
919.05	4261
919.161	4306
919.272	4112
919.383	4257
919.494	4443
919.604	4637
919.715	4443
919.826	4356
919.936	4367
920.047	4523
920.157	4451
920.267	4706
920.378	4565
920.488	4493
920.598	4679
920.708	4873
920.818	4717
920.928	4725
921.038	4949
921.148	4896
921.258	4656
921.368	4546
921.477	4489
921.587	4485
921.697	4383
921.806	4565
921.916	4497
922.025	4272
922.134	4246
922.244	4169
922.353	4303
922.462	4200
922.571	4120
922.68	3998
922.789	3949
922.898	3998
923.007	3983
923.116	4105
923.224	4032
923.333	4090
923.442	3998
923.55	3945
923.659	4010
923.767	4120
923.876	3983
923.984	4124
924.092	3979
924.201	4055
924.309	4082
924.417	4112
924.525	4086
924.633	4074
924.741	5067
924.849	3907
924.956	4147
925.064	3937
925.172	3937
925.279	3972
925.387	4044
925.494	4078
925.602	4169
925.709	4200
925.816	4071
925.924	4124
926.031	4192
926.138	4150
926.245	4207
926.352	4116
926.459	4196
926.566	4280
926.673	4166
926.779	4074
926.886	4109
926.993	3991
927.099	3956
927.206	3899
927.312	3983
927.419	4097
927.525	4010
927.631	4086
927.737	3983
927.843	3892
927.95	3850
928.056	4002
928.162	4010
928.267	4074
928.373	4653
928.479	4101
928.585	3896
928.69	4021
928.796	4055
928.901	3998
929.007	3789
929.112	4029
929.218	3994
929.323	3937
929.428	3937
929.533	4154
929.638	3918
929.743	3945
929.848	3994
929.953	4036
930.058	3918
930.163	3770
930.267	3846
930.372	3945
930.477	3800
930.581	4082
930.685	3880
930.79	3797
930.894	3846
930.998	3838
931.103	4025
931.207	3732
931.311	3690
931.415	3679
931.519	3488
931.623	3545
