Data from test_V78500241_1519.txt Node
Date: Fri Mar 25 16:59:33 CST 2022
User: usil
Spectrometer: V785-0024
Trigger mode: 0
Integration Time (sec): 4.000000E-1
Scans to average: 1
Nonlinearity correction enabled: false
Boxcar width: 0
Storing dark spectrum: false
XAxis mode: Wavelengths
Number of Pixels in Spectrum: 1024
>>>>>Begin Spectral Data<<<<<
801.071	7989
801.214	8077
801.356	7959
801.499	7875
801.641	7795
801.783	7780
801.926	7951
802.068	7879
802.211	8016
802.353	7959
802.496	7864
802.638	7875
802.78	7955
802.923	7913
803.065	7814
803.208	7860
803.35	7959
803.492	8077
803.635	8176
803.777	7974
803.919	8138
804.061	8396
804.204	8176
804.346	7982
804.488	7970
804.63	8111
804.773	8058
804.915	8195
805.057	8282
805.199	8164
805.341	8187
805.483	8301
805.626	8138
805.768	8142
805.91	8240
806.052	8180
806.194	8134
806.336	8305
806.478	8050
806.62	7978
806.762	8054
806.904	8256
807.046	8526
807.188	8374
807.33	8332
807.472	8275
807.614	8145
807.756	8115
807.898	7970
808.04	7879
808.182	7887
808.324	7879
808.465	7898
808.607	8024
808.749	8130
808.891	8271
809.033	8286
809.174	8161
809.316	8077
809.458	8107
809.6	7993
809.741	8065
809.883	8054
810.025	8069
810.166	8008
810.308	8008
810.45	8005
810.591	7822
810.733	7738
810.875	7662
811.016	7582
811.158	7499
811.299	7616
811.441	7746
811.582	7674
811.724	7529
811.865	7483
812.007	7548
812.148	7495
812.29	7609
812.431	7807
812.573	7887
812.714	7902
812.855	8081
812.997	8157
813.138	8301
813.279	8161
813.421	8115
813.562	8027
813.703	7841
813.845	7731
813.986	7438
814.127	7221
814.268	7190
814.41	7164
814.551	7160
814.692	7228
814.833	7110
814.974	7103
815.115	7126
815.256	6932
815.397	6924
815.539	6890
815.68	6779
815.821	6745
815.962	6852
816.103	6810
816.244	6642
816.385	6559
816.526	6559
816.666	6441
816.807	6235
816.948	6395
817.089	6437
817.23	6407
817.371	6380
817.512	6365
817.653	6391
817.793	6357
817.934	6376
818.075	6403
818.216	6369
818.356	6441
818.497	6171
818.638	6095
818.778	6171
818.919	6140
819.06	6117
819.2	6338
819.341	6353
819.481	6353
819.622	6509
819.762	6787
819.903	6669
820.043	6601
820.184	6551
820.324	6528
820.465	6665
820.605	6604
820.746	6677
820.886	6502
821.026	6616
821.167	6703
821.307	6768
821.447	6764
821.588	6711
821.728	6585
821.868	6498
822.008	6296
822.149	6270
822.289	6365
822.429	6209
822.569	6060
822.709	6068
822.849	5923
822.99	5889
823.13	5923
823.27	5901
823.41	5737
823.55	5771
823.69	5783
823.83	5729
823.97	5600
824.11	5528
824.25	5501
824.389	5604
824.529	5554
824.669	5505
824.809	5638
824.949	5581
825.089	5573
825.228	5562
825.368	5349
825.508	5322
825.648	5364
825.787	5353
825.927	5368
826.067	5299
826.206	5288
826.346	5402
826.485	5357
826.625	5414
826.765	5516
826.904	5436
827.044	5277
827.183	5170
827.323	5083
827.462	5220
827.601	5185
827.741	5143
827.88	5246
828.02	5170
828.159	5250
828.298	5315
828.437	5311
828.577	5250
828.716	5524
828.855	5353
828.994	5140
829.134	5170
829.273	5155
829.412	5121
829.551	5132
829.69	5128
829.829	5189
829.968	5353
830.107	5250
830.246	5280
830.385	5143
830.524	5113
830.663	5060
830.802	4957
830.941	4843
831.08	4881
831.219	4927
831.357	4976
831.496	5128
831.635	4953
831.774	4824
831.913	4889
832.051	4736
832.19	4805
832.329	4797
832.467	4664
832.606	4592
832.744	4729
832.883	4672
833.022	4729
833.16	4778
833.299	4816
833.437	4843
833.576	4850
833.714	4850
833.852	4820
833.991	4843
834.129	4919
834.267	4923
834.406	4915
834.544	4953
834.682	4968
834.821	4908
834.959	5113
835.097	4987
835.235	5162
835.373	5075
835.511	5079
835.65	4965
835.788	5010
835.926	4881
836.064	4854
836.202	4881
836.34	5204
836.478	5227
836.615	5052
836.753	5193
836.891	5239
837.029	5254
837.167	5223
837.305	5151
837.443	5132
837.58	5083
837.718	5197
837.856	5178
837.993	5147
838.131	5231
838.269	5185
838.406	5147
838.544	5204
838.681	5045
838.819	4972
838.956	4885
839.094	4881
839.231	4976
839.369	5090
839.506	5398
839.643	5258
839.781	5064
839.918	4976
840.055	5086
840.193	5060
840.33	5067
840.467	5109
840.604	5143
840.742	5410
840.879	5056
841.016	5094
841.153	5105
841.29	5372
841.427	5334
841.564	5303
841.701	5379
841.838	5254
841.975	5212
842.112	5250
842.249	5121
842.385	5113
842.522	5357
842.659	5204
842.796	5090
842.933	5121
843.069	5109
843.206	5159
843.343	5273
843.479	5181
843.616	5227
843.752	5006
843.889	5029
844.025	5204
844.162	5022
844.298	5212
844.435	5052
844.571	5006
844.708	5216
844.844	5265
844.98	5261
845.117	5277
845.253	5136
845.389	5083
845.525	5166
845.661	5140
845.798	4965
845.934	5155
846.07	5060
846.206	5216
846.342	5299
846.478	5220
846.614	5003
846.75	4904
846.886	4915
847.022	5140
847.158	5056
847.294	5060
847.429	5090
847.565	4999
847.701	5368
847.837	4843
847.972	4801
848.108	4927
848.244	4961
848.379	4812
848.515	4691
848.65	4744
848.786	4706
848.921	4763
849.057	4801
849.192	4873
849.328	4816
849.463	4850
849.598	4774
849.734	4752
849.869	4622
850.004	4607
850.14	4702
850.275	4626
850.41	4531
850.545	4538
850.68	4641
850.815	4584
850.95	4607
851.085	4820
851.22	4763
851.355	4679
851.49	4618
851.625	4573
851.76	4573
851.895	4584
852.03	4546
852.165	4592
852.299	4660
852.434	4782
852.569	4733
852.703	4710
852.838	4835
852.973	4904
853.107	4900
853.242	4744
853.376	4672
853.511	4538
853.645	4584
853.78	4790
853.914	4668
854.048	4687
854.183	4687
854.317	4736
854.451	4793
854.585	4702
854.72	4599
854.854	4752
854.988	4516
855.122	4656
855.256	4512
855.39	4630
855.524	4793
855.658	4755
855.792	4653
855.926	4725
856.06	4748
856.194	4782
856.327	4714
856.461	4565
856.595	4618
856.729	4618
856.862	4759
856.996	4656
857.13	4744
857.263	4812
857.397	4740
857.53	4653
857.664	4721
857.797	4774
857.931	4816
858.064	4656
858.197	4774
858.331	4599
858.464	4592
858.597	4512
858.731	4607
858.864	4626
858.997	4611
859.13	4672
859.263	4714
859.396	4717
859.529	4592
859.662	4577
859.795	4535
859.928	4622
860.061	4740
860.194	4748
860.327	4588
860.46	4554
860.592	4714
860.725	4694
860.858	4721
860.99	4558
861.123	4474
861.256	4462
861.388	4611
861.521	5299
861.653	4443
861.786	4405
861.918	4447
862.05	4512
862.183	4550
862.315	4599
862.447	4641
862.58	4535
862.712	4375
862.844	4291
862.976	4443
863.108	4451
863.24	4778
863.372	4310
863.504	4405
863.636	4383
863.768	4489
863.9	4417
864.032	4390
864.164	4386
864.296	4417
864.428	4596
864.559	4577
864.691	4500
864.823	4531
864.954	4478
865.086	4516
865.217	4459
865.349	4428
865.48	4459
865.612	4519
865.743	4584
865.875	4405
866.006	4356
866.137	4500
866.269	4402
866.4	4424
866.531	4360
866.662	4386
866.793	4413
866.924	4421
867.055	4451
867.186	4405
867.317	4424
867.448	4371
867.579	4402
867.71	4356
867.841	4341
867.972	4474
868.103	4440
868.233	4497
868.364	4440
868.495	4493
868.625	4694
868.756	4759
868.886	4523
869.017	4630
869.147	4733
869.278	4767
869.408	4626
869.539	4660
869.669	4698
869.799	4637
869.929	4763
870.06	4702
870.19	4976
870.32	4896
870.45	4949
870.58	4949
870.71	5045
870.84	5010
870.97	4949
871.1	4858
871.23	5105
871.36	5083
871.489	5037
871.619	5105
871.749	5071
871.879	5105
872.008	5166
872.138	5041
872.267	4949
872.397	4847
872.526	4812
872.656	4725
872.785	4752
872.915	4946
873.044	5014
873.173	4949
873.303	4991
873.432	4896
873.561	4987
873.69	4843
873.819	4812
873.948	4900
874.077	4771
874.206	4717
874.335	4778
874.464	4904
874.593	5060
874.722	4949
874.851	5086
874.979	5060
875.108	5018
875.237	4873
875.365	4870
875.494	4797
875.623	4980
875.751	4809
875.88	4835
876.008	4965
876.136	4991
876.265	5166
876.393	5322
876.521	5235
876.65	5261
876.778	5136
876.906	5033
877.034	4980
877.162	5037
877.29	4984
877.418	4999
877.546	5060
877.674	5025
877.802	5037
877.93	5010
878.058	4908
878.185	4858
878.313	4904
878.441	4919
878.568	4744
878.696	4858
878.824	4949
878.951	4961
879.079	5124
879.206	5288
879.333	5098
879.461	4980
879.588	5010
879.715	5025
879.842	5166
879.97	5052
880.097	4763
880.224	4664
880.351	4831
880.478	4816
880.605	4752
880.732	4771
880.859	5071
880.986	4839
881.112	4866
881.239	4729
881.366	4668
881.493	4611
881.619	4577
881.746	4618
881.872	4592
881.999	4611
882.125	4668
882.252	4744
882.378	4786
882.505	4995
882.631	4790
882.757	4660
882.883	4744
883.01	4714
883.136	4622
883.262	4558
883.388	4615
883.514	4839
883.64	4828
883.766	4812
883.892	4664
884.018	4706
884.143	4904
884.269	5006
884.395	4679
884.52	4588
884.646	4641
884.772	4554
884.897	4573
885.023	4618
885.148	4763
885.274	4847
885.399	4828
885.524	4710
885.65	4660
885.775	4691
885.9	4664
886.025	4805
886.15	4767
886.275	4744
886.4	4660
886.525	4653
886.65	4626
886.775	4679
886.9	4938
887.025	5014
887.149	4725
887.274	4668
887.399	4569
887.523	4573
887.648	4565
887.773	4577
887.897	4717
888.021	4786
888.146	4679
888.27	4820
888.395	4930
888.519	4812
888.643	4736
888.767	4847
888.891	4717
889.015	4626
889.139	4660
889.263	4622
889.387	4786
889.511	4870
889.635	4805
889.759	4584
889.883	4668
890.006	4694
890.13	4835
890.254	4664
890.377	4679
890.501	4573
890.624	4538
890.748	4664
890.871	4504
890.995	4455
891.118	4375
891.241	4584
891.364	4535
891.488	4645
891.611	4497
891.734	4596
891.857	4634
891.98	4577
892.103	4668
892.226	4599
892.349	4538
892.471	4436
892.594	4565
892.717	4580
892.839	4592
892.962	4626
893.085	4672
893.207	4637
893.33	4523
893.452	4538
893.575	4710
893.697	4645
893.819	4793
893.941	4881
894.064	4771
894.186	4634
894.308	4561
894.43	4752
894.552	4790
894.674	4809
894.796	4588
894.918	4630
895.04	4607
895.161	4672
895.283	4752
895.405	4611
895.526	4637
895.648	4736
895.769	4717
895.891	4793
896.012	4816
896.134	4755
896.255	4736
896.376	4660
896.498	4656
896.619	4763
896.74	4645
896.861	4660
896.982	4965
897.103	5090
897.224	4839
897.345	4759
897.466	4729
897.587	4774
897.708	4866
897.828	4850
897.949	4694
898.07	4592
898.19	4653
898.311	4877
898.431	4687
898.552	4729
898.672	4870
898.792	4820
898.913	4755
899.033	4637
899.153	4481
899.273	4481
899.393	4546
899.513	4592
899.633	4558
899.753	4554
899.873	4573
899.993	4599
900.113	4550
900.232	4599
900.352	4565
900.472	4542
900.591	4436
900.711	4523
900.83	4466
900.95	4603
901.069	4675
901.189	4584
901.308	4367
901.427	4383
901.546	4409
901.665	4489
901.784	4531
901.904	4451
902.023	4360
902.141	4200
902.26	4200
902.379	4318
902.498	4276
902.617	4192
902.735	4421
902.854	4386
902.973	4409
903.091	4230
903.21	4227
903.328	4329
903.446	4314
903.565	4314
903.683	4409
903.801	4272
903.919	4443
904.038	4455
904.156	4344
904.274	4432
904.392	4421
904.51	4428
904.627	4478
904.745	4588
904.863	4596
904.981	4443
905.098	4325
905.216	4363
905.334	4443
905.451	4478
905.569	4474
905.686	4580
905.803	4577
905.921	4428
906.038	4569
906.155	4508
906.272	4443
906.389	4481
906.506	4371
906.623	4383
906.74	4424
906.857	4322
906.974	4390
907.091	4573
907.208	4675
907.324	4618
907.441	4459
907.557	4306
907.674	4386
907.79	4268
907.907	4402
908.023	4489
908.139	4489
908.256	4417
908.372	4497
908.488	4516
908.604	4409
908.72	4325
908.836	4428
908.952	4386
909.068	4466
909.184	4584
909.3	4470
909.415	4596
909.531	4592
909.647	4356
909.762	4413
909.878	4394
909.993	4485
910.108	4440
910.224	4451
910.339	4580
910.454	4398
910.57	4371
910.685	4344
910.8	4664
910.915	4626
911.03	4527
911.145	4360
911.259	4375
911.374	4337
911.489	4367
911.604	4303
911.718	4192
911.833	4253
911.947	4154
912.062	4071
912.176	4238
912.291	4287
912.405	4268
912.519	4504
912.633	4546
912.748	4367
912.862	4322
912.976	4253
913.09	4128
913.204	4196
913.318	4280
913.431	4424
913.545	4417
913.659	4447
913.772	4424
913.886	4291
914	4204
914.113	4394
914.226	4455
914.34	4424
914.453	4215
914.566	4443
914.68	4322
914.793	4352
914.906	4169
915.019	4139
915.132	4067
915.245	4185
915.358	4261
915.47	4268
915.583	4337
915.696	4314
915.809	4417
915.921	4470
916.034	4303
916.146	4280
916.259	4253
916.371	4421
916.483	4371
916.595	4265
916.708	4352
916.82	4337
916.932	4310
917.044	4348
917.156	4337
917.268	4249
917.38	4284
917.491	4272
917.603	4367
917.715	4447
917.826	4470
917.938	4344
918.049	4219
918.161	4447
918.272	4580
918.384	4561
918.495	4436
918.606	4310
918.717	4276
918.828	4390
918.939	4398
919.05	4265
919.161	4386
919.272	4177
919.383	4291
919.494	4447
919.604	4649
919.715	4462
919.826	4375
919.936	4455
920.047	4558
920.157	4558
920.267	4683
920.378	4569
920.488	4592
920.598	4748
920.708	4930
920.818	4752
920.928	4778
921.038	4968
921.148	4896
921.258	4668
921.368	4558
921.477	4497
921.587	4493
921.697	4383
921.806	4546
921.916	4474
922.025	4299
922.134	4280
922.244	4230
922.353	4348
922.462	4207
922.571	4185
922.68	4021
922.789	4029
922.898	4032
923.007	4021
923.116	4124
923.224	4097
923.333	4116
923.442	3994
923.55	3975
923.659	4025
923.767	4082
923.876	4051
923.984	4162
924.092	3964
924.201	4135
924.309	4143
924.417	4158
924.525	4097
924.633	4131
924.741	4904
924.849	3953
924.956	4135
925.064	3926
925.172	3918
925.279	4029
925.387	4067
925.494	4086
925.602	4257
925.709	4192
925.816	4021
925.924	4147
926.031	4261
926.138	4169
926.245	4238
926.352	4093
926.459	4249
926.566	4344
926.673	4181
926.779	4120
926.886	4109
926.993	3949
927.099	3994
927.206	3956
927.312	3972
927.419	4093
927.525	4074
927.631	4093
927.737	4006
927.843	3964
927.95	3873
928.056	3987
928.162	4071
928.267	4082
928.373	4599
928.479	4124
928.585	3884
928.69	4074
928.796	4093
928.901	3998
929.007	3880
929.112	3998
929.218	4006
929.323	3941
929.428	3918
929.533	4109
929.638	3903
929.743	3998
929.848	3998
929.953	4017
930.058	3945
930.163	3800
930.267	3838
930.372	3994
930.477	3827
930.581	4097
930.685	3975
930.79	3854
930.894	3922
930.998	3831
931.103	4029
931.207	3724
931.311	3679
931.415	3690
931.519	3542
931.623	3587
