Data from test_V78500241_261.txt Node
Date: Fri Mar 25 16:50:49 CST 2022
User: usil
Spectrometer: V785-0024
Trigger mode: 0
Integration Time (sec): 4.000000E-1
Scans to average: 1
Nonlinearity correction enabled: false
Boxcar width: 0
Storing dark spectrum: false
XAxis mode: Wavelengths
Number of Pixels in Spectrum: 1024
>>>>>Begin Spectral Data<<<<<
801.071	8016
801.214	8020
801.356	7894
801.499	7856
801.641	7765
801.783	7769
801.926	8027
802.068	7993
802.211	8035
802.353	8084
802.496	7902
802.638	7928
802.78	7970
802.923	7871
803.065	7837
803.208	7875
803.35	8016
803.492	8119
803.635	8199
803.777	8031
803.919	8134
804.061	8427
804.204	8123
804.346	8035
804.488	7986
804.63	8088
804.773	8012
804.915	8058
805.057	8301
805.199	8225
805.341	8153
805.483	8233
805.626	8180
805.768	8100
805.91	8187
806.052	8176
806.194	8100
806.336	8339
806.478	8180
806.62	8187
806.762	8084
806.904	8275
807.046	8526
807.188	8396
807.33	8305
807.472	8324
807.614	8096
807.756	8077
807.898	7986
808.04	7894
808.182	7993
808.324	7978
808.465	8054
808.607	8126
808.749	8145
808.891	8199
809.033	8347
809.174	8229
809.316	8035
809.458	8115
809.6	7978
809.741	8031
809.883	8065
810.025	8111
810.166	8142
810.308	8065
810.45	8046
810.591	7959
810.733	7731
810.875	7693
811.016	7518
811.158	7594
811.299	7639
811.441	7757
811.582	7700
811.724	7594
811.865	7521
812.007	7674
812.148	7594
812.29	7738
812.431	7780
812.573	7909
812.714	8012
812.855	8183
812.997	8286
813.138	8339
813.279	8199
813.421	8126
813.562	8073
813.703	7936
813.845	7757
813.986	7529
814.127	7289
814.268	7270
814.41	7217
814.551	7156
814.692	7206
814.833	7114
814.974	7198
815.115	7114
815.256	6981
815.397	6973
815.539	6951
815.68	6821
815.821	6741
815.962	6875
816.103	6833
816.244	6764
816.385	6620
816.526	6650
816.666	6532
816.807	6441
816.948	6467
817.089	6502
817.23	6494
817.371	6384
817.512	6433
817.653	6365
817.793	6380
817.934	6388
818.075	6513
818.216	6433
818.356	6471
818.497	6247
818.638	6175
818.778	6159
818.919	6163
819.06	6171
819.2	6270
819.341	6361
819.481	6395
819.622	6509
819.762	6768
819.903	6738
820.043	6551
820.184	6669
820.324	6559
820.465	6635
820.605	6662
820.746	6703
820.886	6486
821.026	6612
821.167	6738
821.307	6833
821.447	6798
821.588	6684
821.728	6547
821.868	6536
822.008	6311
822.149	6361
822.289	6346
822.429	6182
822.569	6072
822.709	6167
822.849	5954
822.99	5912
823.13	5923
823.27	6011
823.41	5847
823.55	5813
823.69	5798
823.83	5794
823.97	5661
824.11	5543
824.25	5520
824.389	5554
824.529	5611
824.669	5524
824.809	5688
824.949	5630
825.089	5627
825.228	5543
825.368	5406
825.508	5402
825.648	5429
825.787	5436
825.927	5429
826.067	5296
826.206	5284
826.346	5387
826.485	5425
826.625	5452
826.765	5543
826.904	5490
827.044	5284
827.183	5254
827.323	5128
827.462	5277
827.601	5197
827.741	5193
827.88	5220
828.02	5136
828.159	5246
828.298	5349
828.437	5368
828.577	5318
828.716	5512
828.855	5334
828.994	5178
829.134	5212
829.273	5227
829.412	5189
829.551	5151
829.69	5197
829.829	5261
829.968	5421
830.107	5299
830.246	5269
830.385	5208
830.524	5189
830.663	5109
830.802	5006
830.941	4873
831.08	4919
831.219	5006
831.357	4987
831.496	5201
831.635	4961
831.774	4870
831.913	4877
832.051	4710
832.19	4740
832.329	4870
832.467	4774
832.606	4618
832.744	4729
832.883	4744
833.022	4774
833.16	4816
833.299	4870
833.437	4809
833.576	4908
833.714	4877
833.852	4919
833.991	4911
834.129	4991
834.267	5045
834.406	4942
834.544	5010
834.682	5025
834.821	4968
834.959	5143
835.097	5067
835.235	5185
835.373	5094
835.511	5102
835.65	5067
835.788	5052
835.926	4972
836.064	4904
836.202	4927
836.34	5208
836.478	5201
836.615	5132
836.753	5227
836.891	5284
837.029	5273
837.167	5265
837.305	5193
837.443	5140
837.58	5083
837.718	5288
837.856	5212
837.993	5216
838.131	5246
838.269	5258
838.406	5284
838.544	5231
838.681	5094
838.819	4995
838.956	4930
839.094	4942
839.231	5022
839.369	5143
839.506	5493
839.643	5311
839.781	5140
839.918	5033
840.055	5102
840.193	5185
840.33	5094
840.467	5140
840.604	5242
840.742	5444
840.879	5109
841.016	5102
841.153	5197
841.29	5436
841.427	5402
841.564	5398
841.701	5360
841.838	5326
841.975	5284
842.112	5292
842.249	5197
842.385	5128
842.522	5372
842.659	5166
842.796	5124
842.933	5162
843.069	5197
843.206	5121
843.343	5318
843.479	5254
843.616	5284
843.752	5117
843.889	5022
844.025	5231
844.162	5094
844.298	5231
844.435	5071
844.571	5052
844.708	5220
844.844	5330
844.98	5398
845.117	5307
845.253	5140
845.389	5136
845.525	5113
845.661	5159
845.798	5033
845.934	5212
846.07	5086
846.206	5269
846.342	5284
846.478	5185
846.614	5105
846.75	5025
846.886	4999
847.022	5159
847.158	5029
847.294	5052
847.429	5121
847.565	5048
847.701	5353
847.837	4831
847.972	4809
848.108	4965
848.244	4976
848.379	4831
848.515	4778
848.65	4763
848.786	4767
848.921	4774
849.057	4942
849.192	4900
849.328	4839
849.463	4866
849.598	4862
849.734	4801
849.869	4733
850.004	4615
850.14	4664
850.275	4653
850.41	4546
850.545	4611
850.68	4653
850.815	4656
850.95	4691
851.085	4862
851.22	4748
851.355	4668
851.49	4630
851.625	4653
851.76	4675
851.895	4618
852.03	4558
852.165	4672
852.299	4748
852.434	4824
852.569	4767
852.703	4774
852.838	4786
852.973	4949
853.107	4919
853.242	4736
853.376	4698
853.511	4577
853.645	4668
853.78	4809
853.914	4786
854.048	4721
854.183	4675
854.317	4733
854.451	4877
854.585	4664
854.72	4649
854.854	4816
854.988	4603
855.122	4672
855.256	4550
855.39	4683
855.524	4820
855.658	4801
855.792	4702
855.926	4710
856.06	4797
856.194	4835
856.327	4675
856.461	4649
856.595	4618
856.729	4615
856.862	4763
856.996	4725
857.13	4725
857.263	4786
857.397	4824
857.53	4717
857.664	4729
857.797	4752
857.931	4809
858.064	4710
858.197	4801
858.331	4668
858.464	4653
858.597	4527
858.731	4691
858.864	4683
858.997	4664
859.13	4706
859.263	4664
859.396	4717
859.529	4637
859.662	4630
859.795	4569
859.928	4641
860.061	4710
860.194	4801
860.327	4649
860.46	4577
860.592	4706
860.725	4740
860.858	4767
860.99	4607
861.123	4535
861.256	4531
861.388	4626
861.521	5433
861.653	4516
861.786	4474
861.918	4481
862.05	4542
862.183	4622
862.315	4592
862.447	4668
862.58	4554
862.712	4466
862.844	4341
862.976	4542
863.108	4485
863.24	4896
863.372	4356
863.504	4405
863.636	4386
863.768	4535
863.9	4440
864.032	4371
864.164	4443
864.296	4512
864.428	4546
864.559	4603
864.691	4558
864.823	4550
864.954	4531
865.086	4538
865.217	4462
865.349	4455
865.48	4500
865.612	4512
865.743	4615
865.875	4489
866.006	4440
866.137	4497
866.269	4500
866.4	4466
866.531	4402
866.662	4417
866.793	4390
866.924	4447
867.055	4504
867.186	4455
867.317	4413
867.448	4424
867.579	4398
867.71	4379
867.841	4375
867.972	4497
868.103	4455
868.233	4443
868.364	4451
868.495	4523
868.625	4664
868.756	4752
868.886	4542
869.017	4645
869.147	4786
869.278	4782
869.408	4649
869.539	4656
869.669	4725
869.799	4706
869.929	4805
870.06	4778
870.19	4968
870.32	4911
870.45	4953
870.58	5037
870.71	5079
870.84	5166
870.97	4999
871.1	4942
871.23	5174
871.36	5109
871.489	5060
871.619	5075
871.749	5102
871.879	5151
872.008	5208
872.138	5071
872.267	4999
872.397	4831
872.526	4812
872.656	4755
872.785	4835
872.915	4965
873.044	5041
873.173	4915
873.303	5003
873.432	4953
873.561	4949
873.69	4953
873.819	4854
873.948	4908
874.077	4812
874.206	4767
874.335	4809
874.464	4938
874.593	5071
874.722	4999
874.851	5117
874.979	5064
875.108	5014
875.237	4892
875.365	4911
875.494	4873
875.623	4961
875.751	4782
875.88	4892
876.008	4984
876.136	5037
876.265	5193
876.393	5318
876.521	5254
876.65	5261
876.778	5201
876.906	5052
877.034	4995
877.162	5037
877.29	4949
877.418	5045
877.546	5025
877.674	5052
877.802	5083
877.93	5037
878.058	4938
878.185	4900
878.313	4949
878.441	4980
878.568	4881
878.696	4892
878.824	5010
878.951	5045
879.079	5140
879.206	5269
879.333	5162
879.461	5006
879.588	5014
879.715	5208
879.842	5265
879.97	5048
880.097	4763
880.224	4771
880.351	4805
880.478	4881
880.605	4839
880.732	4805
880.859	5136
880.986	4904
881.112	4919
881.239	4816
881.366	4694
881.493	4691
881.619	4618
881.746	4679
881.872	4714
881.999	4687
882.125	4729
882.252	4847
882.378	4870
882.505	5033
882.631	4809
882.757	4767
882.883	4771
883.01	4767
883.136	4744
883.262	4634
883.388	4698
883.514	4850
883.64	4896
883.766	4793
883.892	4736
884.018	4786
884.143	4881
884.269	5048
884.395	4744
884.52	4721
884.646	4714
884.772	4630
884.897	4603
885.023	4759
885.148	4835
885.274	4938
885.399	4877
885.524	4782
885.65	4767
885.775	4759
885.9	4733
886.025	4877
886.15	4816
886.275	4771
886.4	4748
886.525	4755
886.65	4755
886.775	4790
886.9	4972
887.025	5109
887.149	4870
887.274	4687
887.399	4668
887.523	4641
887.648	4645
887.773	4622
887.897	4805
888.021	4873
888.146	4721
888.27	4904
888.395	4965
888.519	4809
888.643	4904
888.767	4843
888.891	4736
889.015	4672
889.139	4698
889.263	4675
889.387	4778
889.511	4911
889.635	4885
889.759	4694
889.883	4641
890.006	4797
890.13	4812
890.254	4679
890.377	4733
890.501	4592
890.624	4565
890.748	4675
890.871	4584
890.995	4489
891.118	4447
891.241	4554
891.364	4596
891.488	4691
891.611	4550
891.734	4588
891.857	4653
891.98	4599
892.103	4782
892.226	4607
892.349	4561
892.471	4424
892.594	4592
892.717	4679
892.839	4637
892.962	4618
893.085	4675
893.207	4626
893.33	4512
893.452	4577
893.575	4725
893.697	4607
893.819	4889
893.941	4839
894.064	4782
894.186	4649
894.308	4622
894.43	4805
894.552	4862
894.674	4835
894.796	4596
894.918	4687
895.04	4664
895.161	4771
895.283	4698
895.405	4626
895.526	4634
895.648	4736
895.769	4683
895.891	4774
896.012	4763
896.134	4782
896.255	4725
896.376	4634
896.498	4675
896.619	4717
896.74	4611
896.861	4736
896.982	5010
897.103	5140
897.224	4843
897.345	4767
897.466	4736
897.587	4778
897.708	4953
897.828	4858
897.949	4691
898.07	4565
898.19	4698
898.311	4900
898.431	4752
898.552	4755
898.672	4892
898.792	4870
898.913	4816
899.033	4706
899.153	4573
899.273	4508
899.393	4588
899.513	4622
899.633	4538
899.753	4588
899.873	4588
899.993	4664
900.113	4558
900.232	4634
900.352	4592
900.472	4531
900.591	4489
900.711	4538
900.83	4470
900.95	4637
901.069	4736
901.189	4538
901.308	4440
901.427	4344
901.546	4386
901.665	4500
901.784	4573
901.904	4459
902.023	4386
902.141	4246
902.26	4162
902.379	4383
902.498	4265
902.617	4291
902.735	4367
902.854	4462
902.973	4367
903.091	4272
903.21	4265
903.328	4329
903.446	4341
903.565	4291
903.683	4394
903.801	4360
903.919	4466
904.038	4474
904.156	4329
904.274	4493
904.392	4451
904.51	4512
904.627	4500
904.745	4603
904.863	4675
904.981	4443
905.098	4310
905.216	4493
905.334	4455
905.451	4466
905.569	4455
905.686	4603
905.803	4611
905.921	4417
906.038	4603
906.155	4519
906.272	4428
906.389	4527
906.506	4341
906.623	4417
906.74	4386
906.857	4367
906.974	4417
907.091	4615
907.208	4691
907.324	4599
907.441	4546
907.557	4360
907.674	4383
907.79	4360
907.907	4455
908.023	4485
908.139	4489
908.256	4497
908.372	4481
908.488	4516
908.604	4409
908.72	4325
908.836	4402
908.952	4421
909.068	4440
909.184	4645
909.3	4504
909.415	4596
909.531	4603
909.647	4402
909.762	4436
909.878	4348
909.993	4436
910.108	4459
910.224	4421
910.339	4546
910.454	4489
910.57	4379
910.685	4344
910.8	4687
910.915	4592
911.03	4512
911.145	4352
911.259	4360
911.374	4405
911.489	4363
911.604	4348
911.718	4200
911.833	4253
911.947	4116
912.062	4082
912.176	4215
912.291	4341
912.405	4242
912.519	4550
912.633	4516
912.748	4367
912.862	4329
912.976	4223
913.09	4143
913.204	4204
913.318	4318
913.431	4409
913.545	4428
913.659	4455
913.772	4402
913.886	4306
914	4253
914.113	4413
914.226	4485
914.34	4421
914.453	4265
914.566	4466
914.68	4367
914.793	4394
914.906	4181
915.019	4185
915.132	4082
915.245	4223
915.358	4242
915.47	4272
915.583	4276
915.696	4333
915.809	4428
915.921	4478
916.034	4295
916.146	4291
916.259	4242
916.371	4428
916.483	4371
916.595	4314
916.708	4348
916.82	4375
916.932	4325
917.044	4363
917.156	4333
917.268	4272
917.38	4303
917.491	4280
917.603	4375
917.715	4459
917.826	4459
917.938	4371
918.049	4257
918.161	4428
918.272	4584
918.384	4558
918.495	4485
918.606	4314
918.717	4261
918.828	4337
918.939	4421
919.05	4272
919.161	4314
919.272	4166
919.383	4242
919.494	4443
919.604	4645
919.715	4519
919.826	4436
919.936	4447
920.047	4592
920.157	4516
920.267	4759
920.378	4596
920.488	4516
920.598	4740
920.708	4900
920.818	4839
920.928	4786
921.038	4984
921.148	4957
921.258	4649
921.368	4580
921.477	4493
921.587	4474
921.697	4405
921.806	4546
921.916	4447
922.025	4314
922.134	4299
922.244	4268
922.353	4375
922.462	4173
922.571	4135
922.68	4006
922.789	4021
922.898	4048
923.007	4021
923.116	4124
923.224	4124
923.333	4124
923.442	4048
923.55	3998
923.659	4040
923.767	4109
923.876	4044
923.984	4135
924.092	4051
924.201	4093
924.309	4154
924.417	4139
924.525	4074
924.633	4150
924.741	5071
924.849	3922
924.956	4150
925.064	3991
925.172	3907
925.279	3998
925.387	4097
925.494	4097
925.602	4234
925.709	4192
925.816	4105
925.924	4109
926.031	4272
926.138	4143
926.245	4211
926.352	4120
926.459	4268
926.566	4318
926.673	4131
926.779	4082
926.886	4192
926.993	4040
927.099	3983
927.206	3979
927.312	3991
927.419	4063
927.525	4067
927.631	4078
927.737	3987
927.843	3983
927.95	3831
928.056	3979
928.162	4025
928.267	4093
928.373	4645
928.479	4090
928.585	3896
928.69	4036
928.796	4112
928.901	3949
929.007	3876
929.112	3994
929.218	3972
929.323	3956
929.428	3991
929.533	4143
929.638	3945
929.743	3918
929.848	4071
929.953	4021
930.058	3987
930.163	3812
930.267	3827
930.372	4029
930.477	3850
930.581	4093
930.685	3941
930.79	3869
930.894	3903
930.998	3869
931.103	4086
931.207	3789
931.311	3743
931.415	3701
931.519	3545
931.623	3587
