Data from test_V78500241_2277.txt Node
Date: Fri Mar 25 17:04:50 CST 2022
User: usil
Spectrometer: V785-0024
Trigger mode: 0
Integration Time (sec): 4.000000E-1
Scans to average: 1
Nonlinearity correction enabled: false
Boxcar width: 0
Storing dark spectrum: false
XAxis mode: Wavelengths
Number of Pixels in Spectrum: 1024
>>>>>Begin Spectral Data<<<<<
801.071	7963
801.214	7955
801.356	7879
801.499	7871
801.641	7792
801.783	7841
801.926	7925
802.068	7978
802.211	7989
802.353	7993
802.496	7852
802.638	7871
802.78	7902
802.923	7940
803.065	7788
803.208	7837
803.35	7989
803.492	8054
803.635	8161
803.777	8024
803.919	8142
804.061	8381
804.204	8103
804.346	8050
804.488	8065
804.63	8096
804.773	8016
804.915	8081
805.057	8233
805.199	8161
805.341	8252
805.483	8301
805.626	8248
805.768	8073
805.91	8145
806.052	8195
806.194	8149
806.336	8252
806.478	8081
806.62	8164
806.762	8157
806.904	8244
807.046	8476
807.188	8351
807.33	8259
807.472	8271
807.614	8199
807.756	8199
807.898	8024
808.04	7856
808.182	7879
808.324	7894
808.465	7940
808.607	8100
808.749	8107
808.891	8157
809.033	8294
809.174	8187
809.316	8088
809.458	8058
809.6	8046
809.741	8100
809.883	7993
810.025	8069
810.166	8016
810.308	8016
810.45	7989
810.591	7871
810.733	7731
810.875	7662
811.016	7476
811.158	7430
811.299	7548
811.441	7700
811.582	7674
811.724	7506
811.865	7544
812.007	7601
812.148	7616
812.29	7556
812.431	7822
812.573	7879
812.714	7967
812.855	8088
812.997	8180
813.138	8279
813.279	8092
813.421	7997
813.562	7963
813.703	7807
813.845	7685
813.986	7396
814.127	7274
814.268	7270
814.41	7183
814.551	7133
814.692	7232
814.833	7050
814.974	7095
815.115	7126
815.256	6977
815.397	6928
815.539	6943
815.68	6768
815.821	6795
815.962	6909
816.103	6772
816.244	6719
816.385	6646
816.526	6623
816.666	6570
816.807	6327
816.948	6471
817.089	6483
817.23	6399
817.371	6369
817.512	6388
817.653	6388
817.793	6365
817.934	6433
818.075	6486
818.216	6429
818.356	6448
818.497	6258
818.638	6129
818.778	6186
818.919	6152
819.06	6144
819.2	6353
819.341	6342
819.481	6346
819.622	6559
819.762	6696
819.903	6696
820.043	6551
820.184	6604
820.324	6616
820.465	6677
820.605	6692
820.746	6688
820.886	6521
821.026	6620
821.167	6696
821.307	6741
821.447	6795
821.588	6612
821.728	6574
821.868	6494
822.008	6300
822.149	6388
822.289	6323
822.429	6175
822.569	6114
822.709	6136
822.849	5935
822.99	5885
823.13	5965
823.27	5897
823.41	5805
823.55	5824
823.69	5737
823.83	5752
823.97	5684
824.11	5528
824.25	5463
824.389	5554
824.529	5543
824.669	5558
824.809	5581
824.949	5672
825.089	5668
825.228	5543
825.368	5417
825.508	5379
825.648	5322
825.787	5379
825.927	5402
826.067	5288
826.206	5326
826.346	5349
826.485	5395
826.625	5402
826.765	5554
826.904	5516
827.044	5273
827.183	5204
827.323	5109
827.462	5242
827.601	5159
827.741	5181
827.88	5223
828.02	5067
828.159	5181
828.298	5258
828.437	5391
828.577	5204
828.716	5444
828.855	5349
828.994	5170
829.134	5143
829.273	5155
829.412	5090
829.551	5121
829.69	5128
829.829	5212
829.968	5345
830.107	5269
830.246	5246
830.385	5181
830.524	5094
830.663	5067
830.802	4949
830.941	4915
831.08	4873
831.219	4953
831.357	4957
831.496	5162
831.635	4889
831.774	4854
831.913	4835
832.051	4725
832.19	4740
832.329	4843
832.467	4691
832.606	4691
832.744	4752
832.883	4702
833.022	4668
833.16	4782
833.299	4835
833.437	4786
833.576	4862
833.714	4812
833.852	4847
833.991	4862
834.129	4873
834.267	4938
834.406	4915
834.544	4995
834.682	5029
834.821	5018
834.959	5140
835.097	4995
835.235	5201
835.373	5079
835.511	5121
835.65	5075
835.788	4984
835.926	4835
836.064	4896
836.202	4942
836.34	5181
836.478	5239
836.615	5105
836.753	5201
836.891	5250
837.029	5201
837.167	5189
837.305	5136
837.443	5113
837.58	5022
837.718	5288
837.856	5166
837.993	5155
838.131	5212
838.269	5189
838.406	5242
838.544	5162
838.681	5079
838.819	5029
838.956	4889
839.094	4881
839.231	4946
839.369	5041
839.506	5402
839.643	5265
839.781	5025
839.918	5064
840.055	5079
840.193	5083
840.33	5117
840.467	5075
840.604	5208
840.742	5433
840.879	5102
841.016	5075
841.153	5132
841.29	5341
841.427	5376
841.564	5269
841.701	5349
841.838	5231
841.975	5193
842.112	5277
842.249	5098
842.385	5121
842.522	5326
842.659	5162
842.796	5124
842.933	5216
843.069	5132
843.206	5121
843.343	5265
843.479	5277
843.616	5208
843.752	5052
843.889	4991
844.025	5216
844.162	5056
844.298	5223
844.435	5067
844.571	5029
844.708	5201
844.844	5258
844.98	5330
845.117	5265
845.253	5094
845.389	5117
845.525	5159
845.661	5166
845.798	5029
845.934	5102
846.07	5033
846.206	5174
846.342	5280
846.478	5132
846.614	5052
846.75	4961
846.886	4968
847.022	5083
847.158	4999
847.294	5079
847.429	5113
847.565	5025
847.701	5357
847.837	4801
847.972	4793
848.108	4968
848.244	4946
848.379	4759
848.515	4694
848.65	4710
848.786	4725
848.921	4774
849.057	4828
849.192	4900
849.328	4809
849.463	4839
849.598	4809
849.734	4752
849.869	4622
850.004	4653
850.14	4611
850.275	4546
850.41	4512
850.545	4531
850.68	4596
850.815	4611
850.95	4622
851.085	4805
851.22	4774
851.355	4679
851.49	4607
851.625	4603
851.76	4615
851.895	4512
852.03	4531
852.165	4664
852.299	4710
852.434	4771
852.569	4778
852.703	4793
852.838	4831
852.973	4942
853.107	4923
853.242	4752
853.376	4691
853.511	4516
853.645	4603
853.78	4790
853.914	4649
854.048	4660
854.183	4668
854.317	4675
854.451	4866
854.585	4664
854.72	4603
854.854	4694
854.988	4588
855.122	4641
855.256	4500
855.39	4687
855.524	4790
855.658	4721
855.792	4653
855.926	4725
856.06	4755
856.194	4786
856.327	4649
856.461	4634
856.595	4558
856.729	4611
856.862	4767
856.996	4683
857.13	4740
857.263	4736
857.397	4782
857.53	4672
857.664	4691
857.797	4714
857.931	4812
858.064	4675
858.197	4691
858.331	4675
858.464	4603
858.597	4512
858.731	4630
858.864	4622
858.997	4596
859.13	4611
859.263	4660
859.396	4656
859.529	4588
859.662	4596
859.795	4527
859.928	4626
860.061	4740
860.194	4763
860.327	4622
860.46	4630
860.592	4675
860.725	4672
860.858	4664
860.99	4596
861.123	4512
861.256	4497
861.388	4577
861.521	5284
861.653	4504
861.786	4428
861.918	4462
862.05	4504
862.183	4577
862.315	4622
862.447	4622
862.58	4577
862.712	4398
862.844	4337
862.976	4493
863.108	4462
863.24	4885
863.372	4325
863.504	4390
863.636	4356
863.768	4504
863.9	4405
864.032	4383
864.164	4394
864.296	4440
864.428	4508
864.559	4542
864.691	4493
864.823	4527
864.954	4519
865.086	4516
865.217	4447
865.349	4436
865.48	4523
865.612	4478
865.743	4634
865.875	4417
866.006	4409
866.137	4466
866.269	4428
866.4	4417
866.531	4462
866.662	4398
866.793	4428
866.924	4421
867.055	4447
867.186	4459
867.317	4436
867.448	4375
867.579	4409
867.71	4363
867.841	4363
867.972	4489
868.103	4489
868.233	4447
868.364	4455
868.495	4436
868.625	4702
868.756	4752
868.886	4558
869.017	4649
869.147	4771
869.278	4786
869.408	4698
869.539	4645
869.669	4664
869.799	4675
869.929	4744
870.06	4736
870.19	4949
870.32	4904
870.45	4877
870.58	4984
870.71	5105
870.84	5094
870.97	4957
871.1	4908
871.23	5166
871.36	5113
871.489	5064
871.619	5060
871.749	5086
871.879	5159
872.008	5178
872.138	5052
872.267	4949
872.397	4866
872.526	4831
872.656	4721
872.785	4812
872.915	4968
873.044	5025
873.173	4991
873.303	4965
873.432	4946
873.561	4938
873.69	4900
873.819	4866
873.948	4923
874.077	4824
874.206	4771
874.335	4820
874.464	4900
874.593	5105
874.722	4919
874.851	5098
874.979	5071
875.108	5006
875.237	4942
875.365	4828
875.494	4919
875.623	4938
875.751	4843
875.88	4877
876.008	4938
876.136	5048
876.265	5178
876.393	5315
876.521	5239
876.65	5227
876.778	5132
876.906	5086
877.034	5025
877.162	5079
877.29	4965
877.418	5018
877.546	5045
877.674	4980
877.802	5018
877.93	4980
878.058	4889
878.185	4896
878.313	4957
878.441	4946
878.568	4835
878.696	4885
878.824	4976
878.951	5052
879.079	5117
879.206	5261
879.333	5109
879.461	4961
879.588	5003
879.715	5098
879.842	5242
879.97	4972
880.097	4778
880.224	4744
880.351	4805
880.478	4793
880.605	4816
880.732	4786
880.859	5071
880.986	4873
881.112	4900
881.239	4744
881.366	4668
881.493	4641
881.619	4573
881.746	4637
881.872	4664
881.999	4615
882.125	4641
882.252	4835
882.378	4828
882.505	4911
882.631	4801
882.757	4596
882.883	4729
883.01	4717
883.136	4634
883.262	4565
883.388	4588
883.514	4812
883.64	4923
883.766	4786
883.892	4691
884.018	4767
884.143	4885
884.269	4957
884.395	4668
884.52	4668
884.646	4637
884.772	4580
884.897	4504
885.023	4645
885.148	4786
885.274	4889
885.399	4771
885.524	4744
885.65	4714
885.775	4755
885.9	4691
886.025	4831
886.15	4839
886.275	4706
886.4	4626
886.525	4694
886.65	4725
886.775	4675
886.9	4923
887.025	5025
887.149	4801
887.274	4641
887.399	4577
887.523	4592
887.648	4592
887.773	4584
887.897	4782
888.021	4790
888.146	4710
888.27	4801
888.395	4889
888.519	4767
888.643	4831
888.767	4850
888.891	4660
889.015	4611
889.139	4656
889.263	4588
889.387	4774
889.511	4881
889.635	4847
889.759	4615
889.883	4634
890.006	4755
890.13	4831
890.254	4577
890.377	4714
890.501	4569
890.624	4493
890.748	4653
890.871	4470
890.995	4436
891.118	4390
891.241	4550
891.364	4542
891.488	4618
891.611	4478
891.734	4558
891.857	4611
891.98	4580
892.103	4649
892.226	4592
892.349	4527
892.471	4394
892.594	4546
892.717	4596
892.839	4561
892.962	4615
893.085	4702
893.207	4546
893.33	4424
893.452	4516
893.575	4637
893.697	4554
893.819	4733
893.941	4797
894.064	4748
894.186	4588
894.308	4580
894.43	4782
894.552	4782
894.674	4767
894.796	4565
894.918	4550
895.04	4580
895.161	4679
895.283	4634
895.405	4577
895.526	4649
895.648	4729
895.769	4687
895.891	4675
896.012	4755
896.134	4714
896.255	4656
896.376	4615
896.498	4618
896.619	4672
896.74	4577
896.861	4611
896.982	4900
897.103	5056
897.224	4790
897.345	4752
897.466	4626
897.587	4748
897.708	4873
897.828	4752
897.949	4660
898.07	4603
898.19	4618
898.311	4854
898.431	4656
898.552	4721
898.672	4786
898.792	4793
898.913	4748
899.033	4611
899.153	4508
899.273	4470
899.393	4478
899.513	4546
899.633	4523
899.753	4550
899.873	4470
899.993	4573
900.113	4516
900.232	4580
900.352	4542
900.472	4485
900.591	4352
900.711	4459
900.83	4447
900.95	4649
901.069	4672
901.189	4504
901.308	4379
901.427	4329
901.546	4379
901.665	4466
901.784	4550
901.904	4341
902.023	4352
902.141	4173
902.26	4181
902.379	4280
902.498	4257
902.617	4238
902.735	4371
902.854	4413
902.973	4375
903.091	4238
903.21	4249
903.328	4299
903.446	4276
903.565	4249
903.683	4333
903.801	4314
903.919	4367
904.038	4409
904.156	4348
904.274	4474
904.392	4379
904.51	4432
904.627	4470
904.745	4508
904.863	4618
904.981	4363
905.098	4287
905.216	4363
905.334	4432
905.451	4413
905.569	4451
905.686	4554
905.803	4558
905.921	4447
906.038	4542
906.155	4432
906.272	4413
906.389	4455
906.506	4333
906.623	4383
906.74	4409
906.857	4329
906.974	4405
907.091	4577
907.208	4645
907.324	4603
907.441	4516
907.557	4329
907.674	4363
907.79	4303
907.907	4402
908.023	4485
908.139	4462
908.256	4440
908.372	4478
908.488	4417
908.604	4337
908.72	4325
908.836	4421
908.952	4344
909.068	4455
909.184	4546
909.3	4500
909.415	4577
909.531	4577
909.647	4352
909.762	4375
909.878	4318
909.993	4432
910.108	4409
910.224	4367
910.339	4493
910.454	4394
910.57	4363
910.685	4363
910.8	4691
910.915	4607
911.03	4497
911.145	4341
911.259	4284
911.374	4398
911.489	4299
911.604	4303
911.718	4192
911.833	4223
911.947	4078
912.062	4032
912.176	4177
912.291	4188
912.405	4249
912.519	4474
912.633	4481
912.748	4360
912.862	4287
912.976	4249
913.09	4074
913.204	4192
913.318	4272
913.431	4363
913.545	4386
913.659	4443
913.772	4356
913.886	4276
914	4265
914.113	4386
914.226	4447
914.34	4398
914.453	4246
914.566	4424
914.68	4295
914.793	4284
914.906	4131
915.019	4116
915.132	4090
915.245	4181
915.358	4230
915.47	4204
915.583	4265
915.696	4280
915.809	4417
915.921	4371
916.034	4253
916.146	4265
916.259	4242
916.371	4383
916.483	4337
916.595	4242
916.708	4299
916.82	4352
916.932	4310
917.044	4337
917.156	4341
917.268	4215
917.38	4261
917.491	4261
917.603	4303
917.715	4375
917.826	4390
917.938	4322
918.049	4268
918.161	4398
918.272	4569
918.384	4542
918.495	4470
918.606	4261
918.717	4249
918.828	4318
918.939	4329
919.05	4303
919.161	4337
919.272	4150
919.383	4211
919.494	4424
919.604	4664
919.715	4413
919.826	4379
919.936	4409
920.047	4554
920.157	4508
920.267	4679
920.378	4459
920.488	4497
920.598	4721
920.708	4870
920.818	4763
920.928	4752
921.038	4938
921.148	4911
921.258	4649
921.368	4542
921.477	4459
921.587	4478
921.697	4371
921.806	4550
921.916	4440
922.025	4299
922.134	4253
922.244	4211
922.353	4405
922.462	4128
922.571	4086
922.68	4048
922.789	3987
922.898	3987
923.007	3998
923.116	4071
923.224	4010
923.333	4059
923.442	3926
923.55	3964
923.659	4032
923.767	4116
923.876	3960
923.984	4090
924.092	3994
924.201	4071
924.309	4097
924.417	4128
924.525	4021
924.633	4036
924.741	5094
924.849	3888
924.956	4139
925.064	3968
925.172	3888
925.279	3987
925.387	4048
925.494	4048
925.602	4192
925.709	4173
925.816	4071
925.924	4128
926.031	4230
926.138	4177
926.245	4200
926.352	4086
926.459	4223
926.566	4306
926.673	4086
926.779	4071
926.886	4082
926.993	3960
927.099	3918
927.206	3903
927.312	3934
927.419	4051
927.525	4063
927.631	4044
927.737	3972
927.843	3979
927.95	3838
928.056	3922
928.162	3968
928.267	4074
928.373	4668
928.479	4090
928.585	3873
928.69	4006
928.796	4071
928.901	3956
929.007	3827
929.112	3975
929.218	4006
929.323	3930
929.428	3930
929.533	4059
929.638	3884
929.743	3922
929.848	4071
929.953	3975
930.058	3892
930.163	3812
930.267	3793
930.372	3956
930.477	3819
930.581	4055
930.685	3949
930.79	3816
930.894	3880
930.998	3857
931.103	4074
931.207	3705
931.311	3667
931.415	3637
931.519	3538
931.623	3542
