Data from test_V78500241_2722.txt Node
Date: Fri Mar 25 17:07:55 CST 2022
User: usil
Spectrometer: V785-0024
Trigger mode: 0
Integration Time (sec): 4.000000E-1
Scans to average: 1
Nonlinearity correction enabled: false
Boxcar width: 0
Storing dark spectrum: false
XAxis mode: Wavelengths
Number of Pixels in Spectrum: 1024
>>>>>Begin Spectral Data<<<<<
801.071	7940
801.214	7970
801.356	7894
801.499	7913
801.641	7856
801.783	7902
801.926	7955
802.068	7989
802.211	8016
802.353	8031
802.496	7898
802.638	7917
802.78	7947
802.923	7894
803.065	7803
803.208	7864
803.35	7925
803.492	8081
803.635	8214
803.777	8054
803.919	8176
804.061	8469
804.204	8180
804.346	8054
804.488	8024
804.63	8081
804.773	7978
804.915	8187
805.057	8313
805.199	8180
805.341	8153
805.483	8271
805.626	8294
805.768	7978
805.91	8282
806.052	8153
806.194	8088
806.336	8317
806.478	8130
806.62	8027
806.762	8138
806.904	8263
807.046	8438
807.188	8412
807.33	8259
807.472	8355
807.614	8134
807.756	8210
807.898	7959
808.04	7856
808.182	7902
808.324	7967
808.465	7989
808.607	8062
808.749	8130
808.891	8225
809.033	8332
809.174	8210
809.316	8145
809.458	8134
809.6	8020
809.741	8008
809.883	8050
810.025	8183
810.166	8039
810.308	8027
810.45	7982
810.591	7871
810.733	7719
810.875	7643
811.016	7510
811.158	7529
811.299	7632
811.441	7780
811.582	7677
811.724	7632
811.865	7544
812.007	7639
812.148	7594
812.29	7616
812.431	7769
812.573	7970
812.714	8016
812.855	8187
812.997	8248
813.138	8313
813.279	8187
813.421	8081
813.562	7997
813.703	7898
813.845	7780
813.986	7415
814.127	7278
814.268	7289
814.41	7194
814.551	7183
814.692	7194
814.833	7137
814.974	7133
815.115	7145
815.256	6935
815.397	6913
815.539	6970
815.68	6783
815.821	6738
815.962	6875
816.103	6825
816.244	6696
816.385	6616
816.526	6654
816.666	6506
816.807	6281
816.948	6464
817.089	6471
817.23	6483
817.371	6410
817.512	6361
817.653	6388
817.793	6311
817.934	6418
818.075	6494
818.216	6483
818.356	6365
818.497	6228
818.638	6079
818.778	6148
818.919	6095
819.06	6182
819.2	6273
819.341	6304
819.481	6331
819.622	6544
819.762	6757
819.903	6673
820.043	6604
820.184	6597
820.324	6578
820.465	6696
820.605	6677
820.746	6662
820.886	6551
821.026	6669
821.167	6669
821.307	6806
821.447	6825
821.588	6620
821.728	6578
821.868	6506
822.008	6315
822.149	6384
822.289	6338
822.429	6213
822.569	6110
822.709	6216
822.849	5882
822.99	5942
823.13	5935
823.27	5897
823.41	5802
823.55	5813
823.69	5737
823.83	5798
823.97	5665
824.11	5493
824.25	5520
824.389	5573
824.529	5566
824.669	5524
824.809	5745
824.949	5661
825.089	5596
825.228	5627
825.368	5395
825.508	5345
825.648	5383
825.787	5417
825.927	5334
826.067	5273
826.206	5315
826.346	5334
826.485	5376
826.625	5417
826.765	5543
826.904	5463
827.044	5250
827.183	5143
827.323	5109
827.462	5239
827.601	5124
827.741	5143
827.88	5254
828.02	5151
828.159	5216
828.298	5326
828.437	5364
828.577	5299
828.716	5474
828.855	5330
828.994	5181
829.134	5170
829.273	5174
829.412	5151
829.551	5143
829.69	5117
829.829	5204
829.968	5387
830.107	5280
830.246	5299
830.385	5189
830.524	5105
830.663	5025
830.802	4965
830.941	4847
831.08	4858
831.219	4972
831.357	5025
831.496	5136
831.635	4968
831.774	4847
831.913	4835
832.051	4755
832.19	4725
832.329	4843
832.467	4683
832.606	4645
832.744	4729
832.883	4733
833.022	4721
833.16	4771
833.299	4793
833.437	4896
833.576	4850
833.714	4843
833.852	4889
833.991	4877
834.129	4961
834.267	4946
834.406	4919
834.544	4942
834.682	4949
834.821	4919
834.959	5147
835.097	5003
835.235	5140
835.373	5045
835.511	5140
835.65	5025
835.788	5048
835.926	4930
836.064	4896
836.202	4892
836.34	5132
836.478	5220
836.615	5113
836.753	5296
836.891	5280
837.029	5204
837.167	5181
837.305	5143
837.443	5201
837.58	5071
837.718	5181
837.856	5174
837.993	5109
838.131	5220
838.269	5181
838.406	5178
838.544	5170
838.681	5060
838.819	5029
838.956	4858
839.094	4866
839.231	4919
839.369	5010
839.506	5402
839.643	5216
839.781	5079
839.918	4991
840.055	5124
840.193	5083
840.33	5083
840.467	5075
840.604	5197
840.742	5455
840.879	5083
841.016	5094
841.153	5140
841.29	5315
841.427	5330
841.564	5299
841.701	5368
841.838	5258
841.975	5265
842.112	5269
842.249	5121
842.385	5102
842.522	5379
842.659	5132
842.796	5124
842.933	5216
843.069	5151
843.206	5121
843.343	5292
843.479	5193
843.616	5288
843.752	5022
843.889	5048
844.025	5174
844.162	5018
844.298	5185
844.435	5094
844.571	5064
844.708	5178
844.844	5322
844.98	5376
845.117	5292
845.253	5105
845.389	5094
845.525	5162
845.661	5151
845.798	5022
845.934	5113
846.07	5025
846.206	5189
846.342	5277
846.478	5220
846.614	5006
846.75	4911
846.886	4927
847.022	5113
847.158	5048
847.294	5094
847.429	5155
847.565	5079
847.701	5307
847.837	4854
847.972	4793
848.108	4965
848.244	4927
848.379	4782
848.515	4755
848.65	4744
848.786	4786
848.921	4752
849.057	4839
849.192	4881
849.328	4831
849.463	4854
849.598	4809
849.734	4778
849.869	4694
850.004	4664
850.14	4664
850.275	4584
850.41	4523
850.545	4569
850.68	4618
850.815	4641
850.95	4584
851.085	4809
851.22	4717
851.355	4660
851.49	4603
851.625	4630
851.76	4588
851.895	4519
852.03	4527
852.165	4687
852.299	4755
852.434	4752
852.569	4740
852.703	4782
852.838	4858
852.973	4934
853.107	4923
853.242	4752
853.376	4668
853.511	4542
853.645	4599
853.78	4771
853.914	4694
854.048	4622
854.183	4607
854.317	4698
854.451	4839
854.585	4637
854.72	4626
854.854	4698
854.988	4615
855.122	4618
855.256	4527
855.39	4641
855.524	4805
855.658	4755
855.792	4683
855.926	4702
856.06	4733
856.194	4809
856.327	4748
856.461	4630
856.595	4622
856.729	4592
856.862	4710
856.996	4744
857.13	4668
857.263	4736
857.397	4793
857.53	4679
857.664	4706
857.797	4786
857.931	4812
858.064	4717
858.197	4733
858.331	4622
858.464	4668
858.597	4558
858.731	4649
858.864	4641
858.997	4607
859.13	4603
859.263	4653
859.396	4687
859.529	4504
859.662	4603
859.795	4550
859.928	4569
860.061	4771
860.194	4774
860.327	4634
860.46	4542
860.592	4694
860.725	4725
860.858	4717
860.99	4561
861.123	4577
861.256	4527
861.388	4596
861.521	5334
861.653	4470
861.786	4481
861.918	4470
862.05	4500
862.183	4615
862.315	4607
862.447	4656
862.58	4542
862.712	4367
862.844	4329
862.976	4455
863.108	4436
863.24	4717
863.372	4306
863.504	4394
863.636	4417
863.768	4478
863.9	4409
864.032	4352
864.164	4405
864.296	4474
864.428	4531
864.559	4550
864.691	4550
864.823	4519
864.954	4481
865.086	4519
865.217	4485
865.349	4409
865.48	4436
865.612	4516
865.743	4649
865.875	4481
866.006	4428
866.137	4405
866.269	4409
866.4	4466
866.531	4383
866.662	4409
866.793	4390
866.924	4405
867.055	4535
867.186	4440
867.317	4398
867.448	4344
867.579	4390
867.71	4360
867.841	4383
867.972	4493
868.103	4474
868.233	4455
868.364	4409
868.495	4451
868.625	4641
868.756	4755
868.886	4580
869.017	4649
869.147	4740
869.278	4786
869.408	4668
869.539	4645
869.669	4702
869.799	4653
869.929	4740
870.06	4744
870.19	4968
870.32	4896
870.45	4927
870.58	5045
870.71	5056
870.84	5102
870.97	4984
871.1	4908
871.23	5132
871.36	5079
871.489	5014
871.619	5048
871.749	5079
871.879	5151
872.008	5181
872.138	5041
872.267	4995
872.397	4854
872.526	4797
872.656	4733
872.785	4778
872.915	4930
873.044	4991
873.173	4949
873.303	4938
873.432	4991
873.561	4877
873.69	4889
873.819	4862
873.948	4923
874.077	4824
874.206	4763
874.335	4805
874.464	4938
874.593	5094
874.722	4984
874.851	5075
874.979	5121
875.108	5041
875.237	4953
875.365	4831
875.494	4911
875.623	4968
875.751	4824
875.88	4892
876.008	5003
876.136	4976
876.265	5181
876.393	5337
876.521	5265
876.65	5166
876.778	5124
876.906	5124
877.034	4995
877.162	5045
877.29	4999
877.418	5048
877.546	5037
877.674	5014
877.802	5029
877.93	5029
878.058	4949
878.185	4835
878.313	4934
878.441	4987
878.568	4797
878.696	4866
878.824	4930
878.951	4976
879.079	5090
879.206	5273
879.333	5098
879.461	5006
879.588	5067
879.715	5102
879.842	5220
879.97	5018
880.097	4748
880.224	4714
880.351	4797
880.478	4812
880.605	4820
880.732	4767
880.859	5075
880.986	4900
881.112	4877
881.239	4793
881.366	4668
881.493	4618
881.619	4596
881.746	4577
881.872	4698
881.999	4645
882.125	4679
882.252	4759
882.378	4877
882.505	4946
882.631	4809
882.757	4698
882.883	4675
883.01	4740
883.136	4668
883.262	4596
883.388	4634
883.514	4816
883.64	4847
883.766	4755
883.892	4660
884.018	4782
884.143	4839
884.269	5010
884.395	4694
884.52	4615
884.646	4607
884.772	4599
884.897	4550
885.023	4675
885.148	4801
885.274	4854
885.399	4790
885.524	4679
885.65	4717
885.775	4774
885.9	4748
886.025	4870
886.15	4801
886.275	4706
886.4	4630
886.525	4694
886.65	4660
886.775	4664
886.9	4858
887.025	4968
887.149	4816
887.274	4626
887.399	4550
887.523	4588
887.648	4538
887.773	4558
887.897	4755
888.021	4786
888.146	4653
888.27	4816
888.395	4896
888.519	4793
888.643	4801
888.767	4759
888.891	4660
889.015	4637
889.139	4653
889.263	4626
889.387	4767
889.511	4812
889.635	4736
889.759	4660
889.883	4611
890.006	4733
890.13	4793
890.254	4626
890.377	4672
890.501	4538
890.624	4481
890.748	4649
890.871	4531
890.995	4447
891.118	4409
891.241	4500
891.364	4588
891.488	4656
891.611	4554
891.734	4561
891.857	4615
891.98	4546
892.103	4694
892.226	4607
892.349	4516
892.471	4432
892.594	4611
892.717	4607
892.839	4550
892.962	4634
893.085	4679
893.207	4573
893.33	4474
893.452	4538
893.575	4664
893.697	4611
893.819	4748
893.941	4854
894.064	4759
894.186	4573
894.308	4622
894.43	4763
894.552	4839
894.674	4809
894.796	4542
894.918	4615
895.04	4615
895.161	4778
895.283	4717
895.405	4634
895.526	4656
895.648	4702
895.769	4714
895.891	4763
896.012	4774
896.134	4782
896.255	4656
896.376	4687
896.498	4675
896.619	4744
896.74	4630
896.861	4668
896.982	4965
897.103	5124
897.224	4885
897.345	4801
897.466	4706
897.587	4759
897.708	4915
897.828	4805
897.949	4752
898.07	4611
898.19	4694
898.311	4881
898.431	4717
898.552	4763
898.672	4828
898.792	4767
898.913	4714
899.033	4656
899.153	4580
899.273	4478
899.393	4535
899.513	4516
899.633	4535
899.753	4626
899.873	4584
899.993	4607
900.113	4554
900.232	4668
900.352	4596
900.472	4481
900.591	4409
900.711	4523
900.83	4565
900.95	4653
901.069	4733
901.189	4561
901.308	4417
901.427	4337
901.546	4447
901.665	4474
901.784	4550
901.904	4417
902.023	4360
902.141	4261
902.26	4147
902.379	4371
902.498	4276
902.617	4291
902.735	4398
902.854	4428
902.973	4432
903.091	4234
903.21	4268
903.328	4348
903.446	4299
903.565	4333
903.683	4394
903.801	4352
903.919	4409
904.038	4462
904.156	4314
904.274	4478
904.392	4462
904.51	4421
904.627	4523
904.745	4580
904.863	4714
904.981	4440
905.098	4363
905.216	4360
905.334	4451
905.451	4485
905.569	4497
905.686	4577
905.803	4577
905.921	4462
906.038	4497
906.155	4497
906.272	4466
906.389	4481
906.506	4375
906.623	4379
906.74	4424
906.857	4348
906.974	4428
907.091	4592
907.208	4710
907.324	4630
907.441	4493
907.557	4371
907.674	4356
907.79	4314
907.907	4394
908.023	4527
908.139	4519
908.256	4466
908.372	4512
908.488	4493
908.604	4379
908.72	4322
908.836	4417
908.952	4379
909.068	4440
909.184	4615
909.3	4481
909.415	4554
909.531	4523
909.647	4383
909.762	4455
909.878	4413
909.993	4497
910.108	4447
910.224	4459
910.339	4531
910.454	4459
910.57	4360
910.685	4352
910.8	4660
910.915	4672
911.03	4481
911.145	4379
911.259	4371
911.374	4398
911.489	4344
911.604	4322
911.718	4204
911.833	4215
911.947	4116
912.062	4063
912.176	4223
912.291	4207
912.405	4265
912.519	4497
912.633	4485
912.748	4436
912.862	4325
912.976	4261
913.09	4120
913.204	4249
913.318	4268
913.431	4390
913.545	4363
913.659	4470
913.772	4398
913.886	4295
914	4227
914.113	4375
914.226	4436
914.34	4428
914.453	4253
914.566	4466
914.68	4341
914.793	4329
914.906	4173
915.019	4185
915.132	4158
915.245	4154
915.358	4200
915.47	4223
915.583	4329
915.696	4348
915.809	4470
915.921	4481
916.034	4280
916.146	4268
916.259	4249
916.371	4367
916.483	4383
916.595	4310
916.708	4329
916.82	4337
916.932	4333
917.044	4371
917.156	4344
917.268	4261
917.38	4291
917.491	4322
917.603	4367
917.715	4424
917.826	4466
917.938	4356
918.049	4253
918.161	4386
918.272	4599
918.384	4611
918.495	4474
918.606	4291
918.717	4280
918.828	4379
918.939	4356
919.05	4337
919.161	4333
919.272	4131
919.383	4257
919.494	4497
919.604	4683
919.715	4474
919.826	4405
919.936	4413
920.047	4554
920.157	4565
920.267	4714
920.378	4569
920.488	4538
920.598	4752
920.708	4870
920.818	4790
920.928	4790
921.038	4980
921.148	4953
921.258	4679
921.368	4592
921.477	4561
921.587	4451
921.697	4375
921.806	4584
921.916	4508
922.025	4287
922.134	4306
922.244	4268
922.353	4363
922.462	4173
922.571	4181
922.68	4002
922.789	4063
922.898	4063
923.007	4013
923.116	4143
923.224	4101
923.333	4071
923.442	4044
923.55	4010
923.659	4055
923.767	4150
923.876	4040
923.984	4169
924.092	3994
924.201	4105
924.309	4093
924.417	4139
924.525	4124
924.633	4181
924.741	5102
924.849	3903
924.956	4112
925.064	4006
925.172	3915
925.279	3934
925.387	4097
925.494	4067
925.602	4188
925.709	4196
925.816	4059
925.924	4097
926.031	4200
926.138	4223
926.245	4268
926.352	4116
926.459	4246
926.566	4375
926.673	4196
926.779	4082
926.886	4101
926.993	4013
927.099	4006
927.206	3926
927.312	3941
927.419	4067
927.525	4017
927.631	4135
927.737	3994
927.843	4002
927.95	3888
928.056	3979
928.162	4032
928.267	4135
928.373	4637
928.479	4150
928.585	3888
928.69	4032
928.796	4063
928.901	4032
929.007	3827
929.112	4010
929.218	4029
929.323	3998
929.428	3987
929.533	4139
929.638	3960
929.743	4017
929.848	4067
929.953	4036
930.058	3983
930.163	3800
930.267	3873
930.372	4040
930.477	3869
930.581	4105
930.685	4006
930.79	3861
930.894	3934
930.998	3835
931.103	4067
931.207	3762
931.311	3724
931.415	3709
931.519	3553
931.623	3572
