Data from test_V78500241_18.txt Node
Date: Fri Mar 25 16:49:07 CST 2022
User: usil
Spectrometer: V785-0024
Trigger mode: 0
Integration Time (sec): 4.000000E-1
Scans to average: 1
Nonlinearity correction enabled: false
Boxcar width: 0
Storing dark spectrum: false
XAxis mode: Wavelengths
Number of Pixels in Spectrum: 1024
>>>>>Begin Spectral Data<<<<<
801.071	8073
801.214	8103
801.356	7974
801.499	8054
801.641	7871
801.783	7871
801.926	8012
802.068	8024
802.211	8046
802.353	8115
802.496	7898
802.638	8043
802.78	8024
802.923	7986
803.065	7849
803.208	7841
803.35	8081
803.492	8077
803.635	8134
803.777	8035
803.919	8058
804.061	8480
804.204	8183
804.346	8130
804.488	8005
804.63	8168
804.773	8077
804.915	8092
805.057	8317
805.199	8161
805.341	8313
805.483	8328
805.626	8275
805.768	8180
805.91	8214
806.052	8271
806.194	8096
806.336	8237
806.478	8210
806.62	8107
806.762	8161
806.904	8271
807.046	8465
807.188	8446
807.33	8309
807.472	8381
807.614	8180
807.756	8115
807.898	8005
808.04	7928
808.182	7989
808.324	7921
808.465	7898
808.607	8069
808.749	8111
808.891	8240
809.033	8256
809.174	8214
809.316	8103
809.458	8107
809.6	7986
809.741	8024
809.883	8062
810.025	8107
810.166	8084
810.308	8058
810.45	8046
810.591	7894
810.733	7807
810.875	7719
811.016	7620
811.158	7491
811.299	7677
811.441	7822
811.582	7757
811.724	7632
811.865	7594
812.007	7655
812.148	7693
812.29	7658
812.431	7780
812.573	7909
812.714	8069
812.855	8149
812.997	8187
813.138	8343
813.279	8199
813.421	8126
813.562	8054
813.703	7951
813.845	7776
813.986	7525
814.127	7331
814.268	7305
814.41	7270
814.551	7221
814.692	7270
814.833	7046
814.974	7187
815.115	7103
815.256	6951
815.397	6993
815.539	6962
815.68	6867
815.821	6791
815.962	6852
816.103	6905
816.244	6806
816.385	6627
816.526	6627
816.666	6540
816.807	6376
816.948	6426
817.089	6490
817.23	6456
817.371	6391
817.512	6391
817.653	6426
817.793	6365
817.934	6403
818.075	6486
818.216	6517
818.356	6475
818.497	6292
818.638	6178
818.778	6232
818.919	6232
819.06	6220
819.2	6289
819.341	6422
819.481	6494
819.622	6585
819.762	6768
819.903	6783
820.043	6650
820.184	6650
820.324	6711
820.465	6764
820.605	6696
820.746	6722
820.886	6597
821.026	6692
821.167	6810
821.307	6798
821.447	6856
821.588	6715
821.728	6608
821.868	6506
822.008	6327
822.149	6433
822.289	6418
822.429	6228
822.569	6171
822.709	6178
822.849	6003
822.99	5965
823.13	5980
823.27	5939
823.41	5832
823.55	5824
823.69	5859
823.83	5844
823.97	5741
824.11	5680
824.25	5600
824.389	5573
824.529	5619
824.669	5596
824.809	5661
824.949	5764
825.089	5646
825.228	5634
825.368	5448
825.508	5402
825.648	5364
825.787	5436
825.927	5395
826.067	5322
826.206	5364
826.346	5387
826.485	5436
826.625	5440
826.765	5638
826.904	5623
827.044	5322
827.183	5277
827.323	5178
827.462	5299
827.601	5261
827.741	5258
827.88	5299
828.02	5113
828.159	5299
828.298	5330
828.437	5398
828.577	5326
828.716	5554
828.855	5337
828.994	5201
829.134	5178
829.273	5231
829.412	5162
829.551	5239
829.69	5181
829.829	5303
829.968	5421
830.107	5292
830.246	5318
830.385	5181
830.524	5170
830.663	5178
830.802	4949
830.941	4972
831.08	4968
831.219	5003
831.357	4972
831.496	5258
831.635	4946
831.774	4892
831.913	4904
832.051	4748
832.19	4790
832.329	4927
832.467	4740
832.606	4611
832.744	4774
832.883	4725
833.022	4763
833.16	4771
833.299	4843
833.437	4877
833.576	4831
833.714	4858
833.852	4873
833.991	4949
834.129	5075
834.267	5003
834.406	4915
834.544	5045
834.682	5048
834.821	5006
834.959	5193
835.097	5037
835.235	5162
835.373	5170
835.511	5086
835.65	5033
835.788	5071
835.926	4938
836.064	4892
836.202	4965
836.34	5223
836.478	5284
836.615	5155
836.753	5227
836.891	5337
837.029	5307
837.167	5231
837.305	5178
837.443	5178
837.58	5117
837.718	5364
837.856	5216
837.993	5239
838.131	5239
838.269	5250
838.406	5227
838.544	5246
838.681	5140
838.819	5052
838.956	4946
839.094	4972
839.231	5056
839.369	5109
839.506	5421
839.643	5299
839.781	5105
839.918	5041
840.055	5128
840.193	5124
840.33	5166
840.467	5151
840.604	5250
840.742	5535
840.879	5121
841.016	5121
841.153	5166
841.29	5436
841.427	5357
841.564	5368
841.701	5429
841.838	5296
841.975	5223
842.112	5322
842.249	5162
842.385	5151
842.522	5372
842.659	5185
842.796	5223
842.933	5181
843.069	5197
843.206	5170
843.343	5349
843.479	5315
843.616	5277
843.752	5098
843.889	5045
844.025	5296
844.162	5037
844.298	5250
844.435	5113
844.571	5147
844.708	5273
844.844	5364
844.98	5383
845.117	5322
845.253	5178
845.389	5128
845.525	5193
845.661	5181
845.798	5029
845.934	5231
846.07	5071
846.206	5265
846.342	5379
846.478	5265
846.614	5041
846.75	5045
846.886	4999
847.022	5174
847.158	5105
847.294	5102
847.429	5181
847.565	5056
847.701	5398
847.837	4915
847.972	4866
848.108	5018
848.244	4946
848.379	4809
848.515	4820
848.65	4778
848.786	4782
848.921	4816
849.057	4949
849.192	4946
849.328	4900
849.463	4885
849.598	4866
849.734	4801
849.869	4790
850.004	4672
850.14	4698
850.275	4714
850.41	4641
850.545	4592
850.68	4668
850.815	4672
850.95	4679
851.085	4980
851.22	4828
851.355	4691
851.49	4675
851.625	4744
851.76	4721
851.895	4626
852.03	4577
852.165	4691
852.299	4752
852.434	4767
852.569	4782
852.703	4816
852.838	4885
852.973	4953
853.107	4984
853.242	4778
853.376	4748
853.511	4622
853.645	4626
853.78	4854
853.914	4759
854.048	4790
854.183	4672
854.317	4702
854.451	4984
854.585	4679
854.72	4694
854.854	4793
854.988	4622
855.122	4706
855.256	4592
855.39	4672
855.524	4839
855.658	4790
855.792	4771
855.926	4820
856.06	4812
856.194	4843
856.327	4729
856.461	4668
856.595	4672
856.729	4672
856.862	4812
856.996	4729
857.13	4755
857.263	4793
857.397	4877
857.53	4721
857.664	4763
857.797	4809
857.931	4850
858.064	4763
858.197	4801
858.331	4702
858.464	4664
858.597	4569
858.731	4675
858.864	4622
858.997	4649
859.13	4717
859.263	4729
859.396	4729
859.529	4607
859.662	4607
859.795	4611
859.928	4660
860.061	4767
860.194	4828
860.327	4656
860.46	4618
860.592	4767
860.725	4782
860.858	4736
860.99	4618
861.123	4558
861.256	4580
861.388	4637
861.521	5463
861.653	4519
861.786	4519
861.918	4516
862.05	4561
862.183	4622
862.315	4618
862.447	4679
862.58	4561
862.712	4436
862.844	4360
862.976	4519
863.108	4516
863.24	4957
863.372	4390
863.504	4470
863.636	4413
863.768	4554
863.9	4478
864.032	4424
864.164	4443
864.296	4493
864.428	4603
864.559	4630
864.691	4630
864.823	4611
864.954	4523
865.086	4573
865.217	4485
865.349	4413
865.48	4565
865.612	4569
865.743	4691
865.875	4478
866.006	4462
866.137	4474
866.269	4512
866.4	4504
866.531	4451
866.662	4451
866.793	4466
866.924	4489
867.055	4527
867.186	4519
867.317	4447
867.448	4409
867.579	4447
867.71	4440
867.841	4443
867.972	4489
868.103	4558
868.233	4474
868.364	4474
868.495	4512
868.625	4683
868.756	4870
868.886	4615
869.017	4645
869.147	4824
869.278	4805
869.408	4706
869.539	4694
869.669	4752
869.799	4740
869.929	4805
870.06	4778
870.19	4995
870.32	5006
870.45	4946
870.58	5086
870.71	5128
870.84	5178
870.97	4961
871.1	4942
871.23	5193
871.36	5189
871.489	5071
871.619	5128
871.749	5162
871.879	5136
872.008	5250
872.138	5094
872.267	4972
872.397	4927
872.526	4870
872.656	4752
872.785	4854
872.915	4942
873.044	5056
873.173	5003
873.303	5003
873.432	4984
873.561	5037
873.69	4881
873.819	4915
873.948	4972
874.077	4877
874.206	4755
874.335	4793
874.464	4957
874.593	5071
874.722	5037
874.851	5147
874.979	5132
875.108	5117
875.237	5014
875.365	4930
875.494	4938
875.623	5060
875.751	4831
875.88	4953
876.008	5003
876.136	5083
876.265	5254
876.393	5455
876.521	5269
876.65	5254
876.778	5223
876.906	5178
877.034	5010
877.162	5109
877.29	5041
877.418	5083
877.546	5090
877.674	5048
877.802	5067
877.93	5006
878.058	5014
878.185	4946
878.313	4980
878.441	4968
878.568	4866
878.696	4957
878.824	4995
878.951	5045
879.079	5174
879.206	5372
879.333	5159
879.461	5029
879.588	5048
879.715	5121
879.842	5231
879.97	4999
880.097	4805
880.224	4793
880.351	4877
880.478	4904
880.605	4873
880.732	4816
880.859	5121
880.986	4938
881.112	4965
881.239	4847
881.366	4725
881.493	4634
881.619	4603
881.746	4664
881.872	4687
881.999	4679
882.125	4774
882.252	4778
882.378	4877
882.505	5048
882.631	4885
882.757	4744
882.883	4733
883.01	4755
883.136	4744
883.262	4672
883.388	4656
883.514	4881
883.64	4900
883.766	4854
883.892	4706
884.018	4809
884.143	4934
884.269	5045
884.395	4725
884.52	4653
884.646	4672
884.772	4615
884.897	4603
885.023	4702
885.148	4805
885.274	4904
885.399	4831
885.524	4755
885.65	4752
885.775	4744
885.9	4725
886.025	4904
886.15	4847
886.275	4809
886.4	4725
886.525	4801
886.65	4774
886.775	4748
886.9	4900
887.025	5117
887.149	4850
887.274	4694
887.399	4622
887.523	4679
887.648	4634
887.773	4656
887.897	4805
888.021	4831
888.146	4706
888.27	4850
888.395	4942
888.519	4839
888.643	4847
888.767	4877
888.891	4736
889.015	4702
889.139	4668
889.263	4694
889.387	4771
889.511	4942
889.635	4892
889.759	4687
889.883	4683
890.006	4759
890.13	4904
890.254	4694
890.377	4710
890.501	4565
890.624	4542
890.748	4694
890.871	4535
890.995	4470
891.118	4424
891.241	4584
891.364	4569
891.488	4683
891.611	4535
891.734	4592
891.857	4641
891.98	4596
892.103	4710
892.226	4607
892.349	4615
892.471	4474
892.594	4584
892.717	4645
892.839	4599
892.962	4668
893.085	4717
893.207	4668
893.33	4535
893.452	4538
893.575	4687
893.697	4645
893.819	4831
893.941	4870
894.064	4771
894.186	4622
894.308	4611
894.43	4820
894.552	4877
894.674	4755
894.796	4569
894.918	4668
895.04	4615
895.161	4740
895.283	4721
895.405	4668
895.526	4691
895.648	4778
895.769	4782
895.891	4763
896.012	4793
896.134	4790
896.255	4717
896.376	4691
896.498	4645
896.619	4714
896.74	4626
896.861	4748
896.982	4949
897.103	5083
897.224	4870
897.345	4778
897.466	4729
897.587	4824
897.708	4889
897.828	4809
897.949	4729
898.07	4611
898.19	4691
898.311	4850
898.431	4717
898.552	4809
898.672	4881
898.792	4858
898.913	4786
899.033	4660
899.153	4550
899.273	4466
899.393	4527
899.513	4561
899.633	4565
899.753	4603
899.873	4527
899.993	4626
900.113	4565
900.232	4622
900.352	4607
900.472	4523
900.591	4417
900.711	4527
900.83	4485
900.95	4645
901.069	4664
901.189	4596
901.308	4409
901.427	4379
901.546	4421
901.665	4538
901.784	4550
901.904	4386
902.023	4341
902.141	4234
902.26	4242
902.379	4348
902.498	4284
902.617	4287
902.735	4424
902.854	4440
902.973	4436
903.091	4219
903.21	4257
903.328	4341
903.446	4284
903.565	4325
903.683	4405
903.801	4360
903.919	4436
904.038	4443
904.156	4341
904.274	4466
904.392	4428
904.51	4485
904.627	4519
904.745	4637
904.863	4664
904.981	4424
905.098	4383
905.216	4421
905.334	4493
905.451	4489
905.569	4500
905.686	4622
905.803	4607
905.921	4497
906.038	4607
906.155	4550
906.272	4478
906.389	4542
906.506	4352
906.623	4455
906.74	4451
906.857	4344
906.974	4417
907.091	4615
907.208	4717
907.324	4618
907.441	4588
907.557	4451
907.674	4363
907.79	4367
907.907	4478
908.023	4481
908.139	4565
908.256	4500
908.372	4500
908.488	4523
908.604	4383
908.72	4386
908.836	4421
908.952	4405
909.068	4516
909.184	4683
909.3	4497
909.415	4664
909.531	4637
909.647	4421
909.762	4421
909.878	4379
909.993	4508
910.108	4462
910.224	4417
910.339	4535
910.454	4440
910.57	4451
910.685	4363
910.8	4679
910.915	4694
911.03	4527
911.145	4417
911.259	4371
911.374	4440
911.489	4356
911.604	4314
911.718	4188
911.833	4234
911.947	4147
912.062	4044
912.176	4253
912.291	4257
912.405	4329
912.519	4493
912.633	4580
912.748	4383
912.862	4375
912.976	4265
913.09	4135
913.204	4207
913.318	4314
913.431	4447
913.545	4466
913.659	4485
913.772	4428
913.886	4280
914	4329
914.113	4394
914.226	4459
914.34	4413
914.453	4261
914.566	4447
914.68	4363
914.793	4363
914.906	4185
915.019	4219
915.132	4139
915.245	4227
915.358	4223
915.47	4276
915.583	4337
915.696	4360
915.809	4443
915.921	4466
916.034	4341
916.146	4280
916.259	4276
916.371	4428
916.483	4417
916.595	4314
916.708	4394
916.82	4352
916.932	4348
917.044	4405
917.156	4314
917.268	4287
917.38	4348
917.491	4329
917.603	4360
917.715	4504
917.826	4512
917.938	4402
918.049	4306
918.161	4417
918.272	4615
918.384	4630
918.495	4535
918.606	4341
918.717	4287
918.828	4371
918.939	4424
919.05	4234
919.161	4352
919.272	4128
919.383	4265
919.494	4508
919.604	4664
919.715	4504
919.826	4432
919.936	4417
920.047	4584
920.157	4569
920.267	4774
920.378	4607
920.488	4550
920.598	4752
920.708	4919
920.818	4755
920.928	4797
921.038	5037
921.148	4987
921.258	4687
921.368	4637
921.477	4527
921.587	4440
921.697	4409
921.806	4626
921.916	4459
922.025	4310
922.134	4299
922.244	4261
922.353	4383
922.462	4196
922.571	4192
922.68	4055
922.789	3991
922.898	4097
923.007	4055
923.116	4166
923.224	4078
923.333	4109
923.442	4021
923.55	3998
923.659	4063
923.767	4154
923.876	4021
923.984	4124
924.092	4017
924.201	4120
924.309	4150
924.417	4139
924.525	4120
924.633	4131
924.741	5094
924.849	3983
924.956	4177
925.064	4029
925.172	3915
925.279	4036
925.387	4120
925.494	4150
925.602	4253
925.709	4169
925.816	4105
925.924	4204
926.031	4287
926.138	4230
926.245	4188
926.352	4150
926.459	4329
926.566	4306
926.673	4169
926.779	4128
926.886	4147
926.993	4059
927.099	3983
927.206	3930
927.312	4040
927.419	4116
927.525	4086
927.631	4124
927.737	4006
927.843	3964
927.95	3911
928.056	3979
928.162	4051
928.267	4090
928.373	4797
928.479	4135
928.585	3941
928.69	4021
928.796	4143
928.901	4032
929.007	3896
929.112	4093
929.218	4059
929.323	3949
929.428	4010
929.533	4116
929.638	3930
929.743	3994
929.848	4074
929.953	4044
930.058	3991
930.163	3842
930.267	3873
930.372	4029
930.477	3857
930.581	4147
930.685	3994
930.79	3865
930.894	3922
930.998	3945
931.103	4074
931.207	3743
931.311	3800
931.415	3740
931.519	3576
931.623	3595
