Data from test_V78500241_1505.txt Node
Date: Fri Mar 25 16:59:27 CST 2022
User: usil
Spectrometer: V785-0024
Trigger mode: 0
Integration Time (sec): 4.000000E-1
Scans to average: 1
Nonlinearity correction enabled: false
Boxcar width: 0
Storing dark spectrum: false
XAxis mode: Wavelengths
Number of Pixels in Spectrum: 1024
>>>>>Begin Spectral Data<<<<<
801.071	8012
801.214	7982
801.356	7944
801.499	7830
801.641	7818
801.783	7830
801.926	7864
802.068	7906
802.211	7928
802.353	8039
802.496	7822
802.638	7822
802.78	7860
802.923	7917
803.065	7902
803.208	7841
803.35	7986
803.492	8043
803.635	8195
803.777	8027
803.919	8100
804.061	8396
804.204	8123
804.346	8046
804.488	8001
804.63	8081
804.773	8008
804.915	8164
805.057	8267
805.199	8161
805.341	8187
805.483	8263
805.626	8168
805.768	8107
805.91	8168
806.052	8191
806.194	8111
806.336	8294
806.478	8153
806.62	8046
806.762	8100
806.904	8343
807.046	8438
807.188	8332
807.33	8320
807.472	8240
807.614	8142
807.756	8126
807.898	8001
808.04	7887
808.182	7864
808.324	7856
808.465	7947
808.607	8069
808.749	8084
808.891	8142
809.033	8252
809.174	8134
809.316	8046
809.458	7970
809.6	7940
809.741	7978
809.883	8020
810.025	8092
810.166	8043
810.308	7986
810.45	7989
810.591	7871
810.733	7704
810.875	7624
811.016	7514
811.158	7464
811.299	7601
811.441	7757
811.582	7624
811.724	7521
811.865	7559
812.007	7563
812.148	7563
812.29	7628
812.431	7723
812.573	7917
812.714	8016
812.855	8115
812.997	8221
813.138	8313
813.279	8206
813.421	8046
813.562	8001
813.703	7852
813.845	7719
813.986	7487
814.127	7217
814.268	7217
814.41	7175
814.551	7149
814.692	7209
814.833	7156
814.974	7107
815.115	7069
815.256	6962
815.397	6924
815.539	6920
815.68	6852
815.821	6776
815.962	6802
816.103	6768
816.244	6696
816.385	6658
816.526	6578
816.666	6452
816.807	6319
816.948	6391
817.089	6479
817.23	6399
817.371	6391
817.512	6338
817.653	6380
817.793	6365
817.934	6365
818.075	6433
818.216	6403
818.356	6384
818.497	6201
818.638	6076
818.778	6110
818.919	6121
819.06	6106
819.2	6346
819.341	6273
819.481	6300
819.622	6528
819.762	6772
819.903	6730
820.043	6574
820.184	6555
820.324	6498
820.465	6696
820.605	6681
820.746	6604
820.886	6490
821.026	6650
821.167	6734
821.307	6795
821.447	6783
821.588	6677
821.728	6547
821.868	6475
822.008	6334
822.149	6327
822.289	6342
822.429	6148
822.569	6098
822.709	6114
822.849	5904
822.99	5908
823.13	5866
823.27	5920
823.41	5790
823.55	5821
823.69	5737
823.83	5745
823.97	5642
824.11	5520
824.25	5497
824.389	5535
824.529	5570
824.669	5520
824.809	5615
824.949	5646
825.089	5596
825.228	5551
825.368	5357
825.508	5337
825.648	5318
825.787	5379
825.927	5379
826.067	5326
826.206	5273
826.346	5364
826.485	5349
826.625	5398
826.765	5558
826.904	5528
827.044	5254
827.183	5193
827.323	5189
827.462	5227
827.601	5143
827.741	5155
827.88	5220
828.02	5098
828.159	5204
828.298	5277
828.437	5337
828.577	5239
828.716	5463
828.855	5296
828.994	5151
829.134	5151
829.273	5166
829.412	5105
829.551	5151
829.69	5113
829.829	5250
829.968	5315
830.107	5239
830.246	5227
830.385	5181
830.524	5162
830.663	5029
830.802	4968
830.941	4904
831.08	4881
831.219	4980
831.357	4961
831.496	5193
831.635	4938
831.774	4812
831.913	4820
832.051	4691
832.19	4736
832.329	4793
832.467	4656
832.606	4672
832.744	4637
832.883	4687
833.022	4714
833.16	4786
833.299	4797
833.437	4828
833.576	4828
833.714	4805
833.852	4877
833.991	4904
834.129	4911
834.267	4915
834.406	4843
834.544	4938
834.682	4915
834.821	4961
834.959	5083
835.097	5003
835.235	5140
835.373	5033
835.511	5056
835.65	4976
835.788	5056
835.926	4900
836.064	4809
836.202	4904
836.34	5132
836.478	5246
836.615	5140
836.753	5204
836.891	5303
837.029	5227
837.167	5201
837.305	5155
837.443	5197
837.58	5128
837.718	5220
837.856	5212
837.993	5113
838.131	5216
838.269	5204
838.406	5193
838.544	5178
838.681	5025
838.819	4995
838.956	4915
839.094	4911
839.231	5003
839.369	5045
839.506	5379
839.643	5269
839.781	5010
839.918	4995
840.055	5090
840.193	5045
840.33	5105
840.467	5136
840.604	5178
840.742	5414
840.879	5121
841.016	5083
841.153	5159
841.29	5299
841.427	5334
841.564	5288
841.701	5334
841.838	5284
841.975	5220
842.112	5239
842.249	5113
842.385	5151
842.522	5360
842.659	5159
842.796	5128
842.933	5159
843.069	5143
843.206	5132
843.343	5311
843.479	5250
843.616	5193
843.752	5037
843.889	4953
844.025	5189
844.162	4995
844.298	5261
844.435	5105
844.571	5064
844.708	5204
844.844	5296
844.98	5357
845.117	5353
845.253	5136
845.389	5060
845.525	5136
845.661	5071
845.798	5025
845.934	5128
846.07	5025
846.206	5132
846.342	5216
846.478	5155
846.614	4999
846.75	4961
846.886	4953
847.022	5136
847.158	5048
847.294	5052
847.429	5056
847.565	5056
847.701	5246
847.837	4877
847.972	4824
848.108	4961
848.244	4946
848.379	4752
848.515	4744
848.65	4706
848.786	4721
848.921	4752
849.057	4854
849.192	4854
849.328	4801
849.463	4847
849.598	4752
849.734	4736
849.869	4740
850.004	4573
850.14	4641
850.275	4584
850.41	4573
850.545	4550
850.68	4592
850.815	4622
850.95	4660
851.085	4831
851.22	4714
851.355	4683
851.49	4611
851.625	4641
851.76	4596
851.895	4573
852.03	4512
852.165	4679
852.299	4706
852.434	4748
852.569	4748
852.703	4782
852.838	4831
852.973	4934
853.107	4911
853.242	4725
853.376	4675
853.511	4512
853.645	4653
853.78	4828
853.914	4675
854.048	4672
854.183	4615
854.317	4675
854.451	4847
854.585	4672
854.72	4664
854.854	4706
854.988	4504
855.122	4618
855.256	4493
855.39	4645
855.524	4801
855.658	4683
855.792	4672
855.926	4733
856.06	4740
856.194	4790
856.327	4714
856.461	4599
856.595	4618
856.729	4660
856.862	4778
856.996	4668
857.13	4721
857.263	4759
857.397	4755
857.53	4675
857.664	4706
857.797	4748
857.931	4759
858.064	4637
858.197	4717
858.331	4675
858.464	4603
858.597	4561
858.731	4611
858.864	4630
858.997	4592
859.13	4653
859.263	4649
859.396	4725
859.529	4588
859.662	4542
859.795	4535
859.928	4596
860.061	4733
860.194	4736
860.327	4577
860.46	4531
860.592	4687
860.725	4702
860.858	4717
860.99	4565
861.123	4500
861.256	4493
861.388	4599
861.521	5220
861.653	4504
861.786	4402
861.918	4481
862.05	4497
862.183	4516
862.315	4565
862.447	4615
862.58	4535
862.712	4424
862.844	4356
862.976	4459
863.108	4455
863.24	4767
863.372	4314
863.504	4436
863.636	4360
863.768	4497
863.9	4390
864.032	4352
864.164	4394
864.296	4466
864.428	4527
864.559	4596
864.691	4508
864.823	4512
864.954	4535
865.086	4459
865.217	4443
865.349	4386
865.48	4440
865.612	4531
865.743	4599
865.875	4447
866.006	4375
866.137	4413
866.269	4443
866.4	4436
866.531	4409
866.662	4356
866.793	4394
866.924	4424
867.055	4519
867.186	4443
867.317	4424
867.448	4295
867.579	4363
867.71	4329
867.841	4318
867.972	4470
868.103	4485
868.233	4485
868.364	4432
868.495	4451
868.625	4664
868.756	4771
868.886	4546
869.017	4599
869.147	4793
869.278	4736
869.408	4656
869.539	4630
869.669	4729
869.799	4672
869.929	4755
870.06	4736
870.19	4942
870.32	4908
870.45	4911
870.58	5029
870.71	5075
870.84	5083
870.97	4942
871.1	4900
871.23	5143
871.36	5143
871.489	4984
871.619	5094
871.749	5067
871.879	5060
872.008	5189
872.138	5022
872.267	5010
872.397	4828
872.526	4831
872.656	4714
872.785	4824
872.915	4919
873.044	5003
873.173	4915
873.303	4961
873.432	4968
873.561	4957
873.69	4930
873.819	4873
873.948	4847
874.077	4774
874.206	4755
874.335	4828
874.464	4930
874.593	5056
874.722	4965
874.851	4987
874.979	5048
875.108	5048
875.237	4885
875.365	4839
875.494	4862
875.623	5003
875.751	4790
875.88	4835
876.008	5010
876.136	4965
876.265	5170
876.393	5318
876.521	5265
876.65	5143
876.778	5143
876.906	5064
877.034	5025
877.162	5029
877.29	5006
877.418	5075
877.546	5056
877.674	5067
877.802	5025
877.93	5022
878.058	4919
878.185	4892
878.313	4987
878.441	4930
878.568	4774
878.696	4889
878.824	4957
878.951	4984
879.079	5181
879.206	5242
879.333	5075
879.461	4934
879.588	4980
879.715	5117
879.842	5212
879.97	4991
880.097	4831
880.224	4790
880.351	4782
880.478	4812
880.605	4801
880.732	4786
880.859	5079
880.986	4885
881.112	4915
881.239	4801
881.366	4679
881.493	4615
881.619	4573
881.746	4645
881.872	4622
881.999	4554
882.125	4668
882.252	4698
882.378	4820
882.505	4961
882.631	4824
882.757	4672
882.883	4721
883.01	4744
883.136	4748
883.262	4660
883.388	4634
883.514	4843
883.64	4831
883.766	4797
883.892	4622
884.018	4672
884.143	4896
884.269	5010
884.395	4679
884.52	4630
884.646	4603
884.772	4550
884.897	4508
885.023	4672
885.148	4771
885.274	4809
885.399	4805
885.524	4675
885.65	4721
885.775	4759
885.9	4672
886.025	4896
886.15	4778
886.275	4710
886.4	4683
886.525	4725
886.65	4683
886.775	4687
886.9	4930
887.025	5029
887.149	4748
887.274	4672
887.399	4569
887.523	4569
887.648	4634
887.773	4599
887.897	4763
888.021	4824
888.146	4679
888.27	4801
888.395	4892
888.519	4812
888.643	4820
888.767	4782
888.891	4691
889.015	4611
889.139	4615
889.263	4561
889.387	4759
889.511	4847
889.635	4767
889.759	4645
889.883	4637
890.006	4714
890.13	4774
890.254	4596
890.377	4675
890.501	4538
890.624	4508
890.748	4607
890.871	4500
890.995	4386
891.118	4398
891.241	4500
891.364	4512
891.488	4637
891.611	4466
891.734	4466
891.857	4603
891.98	4573
892.103	4603
892.226	4554
892.349	4500
892.471	4432
892.594	4554
892.717	4538
892.839	4626
892.962	4561
893.085	4649
893.207	4580
893.33	4478
893.452	4508
893.575	4683
893.697	4516
893.819	4744
893.941	4812
894.064	4790
894.186	4546
894.308	4561
894.43	4740
894.552	4812
894.674	4721
894.796	4535
894.918	4592
895.04	4611
895.161	4691
895.283	4618
895.405	4573
895.526	4675
895.648	4679
895.769	4664
895.891	4736
896.012	4755
896.134	4706
896.255	4641
896.376	4615
896.498	4630
896.619	4755
896.74	4626
896.861	4641
896.982	4854
897.103	5067
897.224	4820
897.345	4717
897.466	4702
897.587	4729
897.708	4862
897.828	4744
897.949	4702
898.07	4588
898.19	4596
898.311	4835
898.431	4687
898.552	4744
898.672	4835
898.792	4767
898.913	4752
899.033	4584
899.153	4508
899.273	4443
899.393	4497
899.513	4512
899.633	4546
899.753	4550
899.873	4516
899.993	4603
900.113	4577
900.232	4596
900.352	4481
900.472	4470
900.591	4428
900.711	4497
900.83	4474
900.95	4584
901.069	4691
901.189	4580
901.308	4363
901.427	4348
901.546	4371
901.665	4478
901.784	4504
901.904	4375
902.023	4276
902.141	4200
902.26	4185
902.379	4314
902.498	4207
902.617	4246
902.735	4352
902.854	4436
902.973	4337
903.091	4211
903.21	4246
903.328	4310
903.446	4242
903.565	4272
903.683	4341
903.801	4295
903.919	4360
904.038	4402
904.156	4344
904.274	4432
904.392	4436
904.51	4424
904.627	4489
904.745	4588
904.863	4607
904.981	4409
905.098	4265
905.216	4337
905.334	4379
905.451	4436
905.569	4436
905.686	4558
905.803	4542
905.921	4432
906.038	4580
906.155	4493
906.272	4360
906.389	4459
906.506	4333
906.623	4363
906.74	4375
906.857	4337
906.974	4398
907.091	4554
907.208	4641
907.324	4573
907.441	4481
907.557	4265
907.674	4325
907.79	4314
907.907	4367
908.023	4489
908.139	4493
908.256	4440
908.372	4440
908.488	4413
908.604	4352
908.72	4295
908.836	4402
908.952	4352
909.068	4443
909.184	4599
909.3	4481
909.415	4550
909.531	4550
909.647	4375
909.762	4386
909.878	4348
909.993	4379
910.108	4386
910.224	4402
910.339	4489
910.454	4390
910.57	4367
910.685	4295
910.8	4618
910.915	4596
911.03	4470
911.145	4383
911.259	4337
911.374	4383
911.489	4348
911.604	4314
911.718	4124
911.833	4185
911.947	4055
912.062	4017
912.176	4192
912.291	4246
912.405	4234
912.519	4443
912.633	4459
912.748	4363
912.862	4284
912.976	4169
913.09	4128
913.204	4150
913.318	4280
913.431	4352
913.545	4344
913.659	4428
913.772	4367
913.886	4196
914	4204
914.113	4348
914.226	4417
914.34	4390
914.453	4280
914.566	4424
914.68	4341
914.793	4291
914.906	4173
915.019	4112
915.132	4067
915.245	4173
915.358	4211
915.47	4204
915.583	4272
915.696	4272
915.809	4367
915.921	4428
916.034	4284
916.146	4246
916.259	4204
916.371	4325
916.483	4303
916.595	4295
916.708	4344
916.82	4284
916.932	4344
917.044	4272
917.156	4303
917.268	4249
917.38	4287
917.491	4227
917.603	4295
917.715	4405
917.826	4481
917.938	4379
918.049	4238
918.161	4363
918.272	4538
918.384	4550
918.495	4417
918.606	4249
918.717	4257
918.828	4306
918.939	4356
919.05	4242
919.161	4375
919.272	4135
919.383	4215
919.494	4405
919.604	4634
919.715	4432
919.826	4371
919.936	4421
920.047	4489
920.157	4485
920.267	4706
920.378	4573
920.488	4504
920.598	4694
920.708	4896
920.818	4725
920.928	4725
921.038	4889
921.148	4908
921.258	4603
921.368	4554
921.477	4512
921.587	4466
921.697	4352
921.806	4546
921.916	4436
922.025	4242
922.134	4272
922.244	4227
922.353	4348
922.462	4181
922.571	4188
922.68	4025
922.789	3941
922.898	4017
923.007	3956
923.116	4086
923.224	4071
923.333	4021
923.442	4017
923.55	3987
923.659	3979
923.767	4078
923.876	3956
923.984	4093
924.092	3945
924.201	4086
924.309	4082
924.417	4120
924.525	4032
924.633	4131
924.741	4820
924.849	3884
924.956	4147
925.064	3918
925.172	3907
925.279	3930
925.387	4029
925.494	4059
925.602	4204
925.709	4173
925.816	4013
925.924	4105
926.031	4242
926.138	4192
926.245	4219
926.352	4063
926.459	4276
926.566	4310
926.673	4147
926.779	4059
926.886	4051
926.993	3987
927.099	3949
927.206	3911
927.312	3964
927.419	4071
927.525	4025
927.631	4048
927.737	4002
927.843	3945
927.95	3827
928.056	3926
928.162	3991
928.267	4021
928.373	4580
928.479	4105
928.585	3857
928.69	4025
928.796	4040
928.901	3903
929.007	3808
929.112	4002
929.218	3968
929.323	3903
929.428	3915
929.533	4097
929.638	3953
929.743	3956
929.848	4044
929.953	3975
930.058	3956
930.163	3705
930.267	3854
930.372	3949
930.477	3812
930.581	4074
930.685	3915
930.79	3812
930.894	3884
930.998	3876
931.103	3983
931.207	3675
931.311	3690
931.415	3705
931.519	3515
931.623	3511
