Data from test_V78500241_2389.txt Node
Date: Fri Mar 25 17:05:36 CST 2022
User: usil
Spectrometer: V785-0024
Trigger mode: 0
Integration Time (sec): 4.000000E-1
Scans to average: 1
Nonlinearity correction enabled: false
Boxcar width: 0
Storing dark spectrum: false
XAxis mode: Wavelengths
Number of Pixels in Spectrum: 1024
>>>>>Begin Spectral Data<<<<<
801.071	8065
801.214	8024
801.356	7868
801.499	7864
801.641	7837
801.783	7807
801.926	7940
802.068	8001
802.211	8043
802.353	8027
802.496	7845
802.638	7894
802.78	7883
802.923	7944
803.065	7833
803.208	7864
803.35	8020
803.492	8161
803.635	8180
803.777	7959
803.919	8100
804.061	8495
804.204	8202
804.346	8115
804.488	7982
804.63	8103
804.773	7970
804.915	8164
805.057	8332
805.199	8172
805.341	8336
805.483	8237
805.626	8195
805.768	8157
805.91	8252
806.052	8275
806.194	8183
806.336	8305
806.478	8123
806.62	8046
806.762	8145
806.904	8199
807.046	8450
807.188	8298
807.33	8332
807.472	8400
807.614	8183
807.756	8123
807.898	8020
808.04	7822
808.182	7852
808.324	7845
808.465	7963
808.607	8134
808.749	8149
808.891	8275
809.033	8358
809.174	8282
809.316	8069
809.458	8062
809.6	8081
809.741	8073
809.883	8115
810.025	8138
810.166	8092
810.308	8092
810.45	7997
810.591	7868
810.733	7727
810.875	7757
811.016	7556
811.158	7506
811.299	7597
811.441	7761
811.582	7685
811.724	7609
811.865	7578
812.007	7620
812.148	7601
812.29	7571
812.431	7727
812.573	7830
812.714	7982
812.855	8096
812.997	8248
813.138	8275
813.279	8142
813.421	8046
813.562	7967
813.703	7772
813.845	7738
813.986	7430
814.127	7247
814.268	7183
814.41	7190
814.551	7202
814.692	7240
814.833	7099
814.974	7137
815.115	7088
815.256	7019
815.397	6985
815.539	6966
815.68	6776
815.821	6749
815.962	6837
816.103	6882
816.244	6696
816.385	6597
816.526	6631
816.666	6498
816.807	6361
816.948	6475
817.089	6475
817.23	6483
817.371	6441
817.512	6460
817.653	6391
817.793	6350
817.934	6380
818.075	6494
818.216	6426
818.356	6414
818.497	6224
818.638	6163
818.778	6136
818.919	6159
819.06	6133
819.2	6361
819.341	6334
819.481	6376
819.622	6563
819.762	6795
819.903	6662
820.043	6620
820.184	6623
820.324	6570
820.465	6726
820.605	6662
820.746	6646
820.886	6582
821.026	6669
821.167	6779
821.307	6825
821.447	6798
821.588	6627
821.728	6612
821.868	6532
822.008	6350
822.149	6399
822.289	6361
822.429	6182
822.569	6155
822.709	6163
822.849	5908
822.99	5977
823.13	5988
823.27	5939
823.41	5824
823.55	5783
823.69	5798
823.83	5748
823.97	5699
824.11	5566
824.25	5532
824.389	5501
824.529	5554
824.669	5501
824.809	5688
824.949	5634
825.089	5611
825.228	5554
825.368	5463
825.508	5395
825.648	5398
825.787	5406
825.927	5410
826.067	5288
826.206	5284
826.346	5379
826.485	5402
826.625	5417
826.765	5532
826.904	5471
827.044	5303
827.183	5254
827.323	5162
827.462	5242
827.601	5201
827.741	5181
827.88	5242
828.02	5121
828.159	5299
828.298	5326
828.437	5379
828.577	5296
828.716	5482
828.855	5334
828.994	5117
829.134	5166
829.273	5174
829.412	5143
829.551	5121
829.69	5159
829.829	5273
829.968	5372
830.107	5258
830.246	5273
830.385	5151
830.524	5132
830.663	5071
830.802	5025
830.941	4923
831.08	4843
831.219	5006
831.357	5014
831.496	5094
831.635	4915
831.774	4839
831.913	4900
832.051	4744
832.19	4755
832.329	4870
832.467	4687
832.606	4679
832.744	4691
832.883	4736
833.022	4698
833.16	4809
833.299	4809
833.437	4812
833.576	4835
833.714	4858
833.852	4877
833.991	4873
834.129	4957
834.267	4957
834.406	4908
834.544	4968
834.682	5003
834.821	5014
834.959	5170
835.097	4984
835.235	5174
835.373	5109
835.511	5109
835.65	5060
835.788	5033
835.926	4896
836.064	4809
836.202	4949
836.34	5223
836.478	5189
836.615	5151
836.753	5250
836.891	5231
837.029	5258
837.167	5197
837.305	5159
837.443	5155
837.58	5094
837.718	5265
837.856	5159
837.993	5212
838.131	5227
838.269	5197
838.406	5235
838.544	5174
838.681	5067
838.819	5010
838.956	4927
839.094	4900
839.231	4976
839.369	5060
839.506	5459
839.643	5265
839.781	5025
839.918	5029
840.055	5132
840.193	5060
840.33	5124
840.467	5121
840.604	5223
840.742	5452
840.879	5094
841.016	5067
841.153	5170
841.29	5406
841.427	5364
841.564	5261
841.701	5345
841.838	5269
841.975	5223
842.112	5254
842.249	5117
842.385	5124
842.522	5334
842.659	5201
842.796	5193
842.933	5201
843.069	5155
843.206	5105
843.343	5345
843.479	5239
843.616	5246
843.752	5048
843.889	4987
844.025	5246
844.162	5003
844.298	5193
844.435	5086
844.571	4995
844.708	5151
844.844	5322
844.98	5318
845.117	5284
845.253	5174
845.389	5075
845.525	5193
845.661	5136
845.798	5094
845.934	5181
846.07	5121
846.206	5212
846.342	5261
846.478	5231
846.614	5045
846.75	4957
846.886	4961
847.022	5117
847.158	5018
847.294	5056
847.429	5105
847.565	5067
847.701	5330
847.837	4820
847.972	4778
848.108	4961
848.244	4923
848.379	4843
848.515	4710
848.65	4744
848.786	4717
848.921	4767
849.057	4885
849.192	4896
849.328	4831
849.463	4858
849.598	4793
849.734	4767
849.869	4752
850.004	4622
850.14	4656
850.275	4592
850.41	4519
850.545	4596
850.68	4588
850.815	4641
850.95	4626
851.085	4839
851.22	4694
851.355	4672
851.49	4630
851.625	4603
851.76	4637
851.895	4554
852.03	4603
852.165	4649
852.299	4721
852.434	4755
852.569	4752
852.703	4763
852.838	4835
852.973	4938
853.107	4904
853.242	4740
853.376	4649
853.511	4580
853.645	4618
853.78	4812
853.914	4675
854.048	4687
854.183	4645
854.317	4675
854.451	4835
854.585	4687
854.72	4694
854.854	4736
854.988	4588
855.122	4630
855.256	4478
855.39	4653
855.524	4771
855.658	4736
855.792	4675
855.926	4763
856.06	4733
856.194	4790
856.327	4675
856.461	4649
856.595	4668
856.729	4630
856.862	4774
856.996	4668
857.13	4710
857.263	4729
857.397	4831
857.53	4618
857.664	4729
857.797	4767
857.931	4736
858.064	4683
858.197	4763
858.331	4675
858.464	4634
858.597	4508
858.731	4607
858.864	4637
858.997	4538
859.13	4656
859.263	4679
859.396	4694
859.529	4561
859.662	4580
859.795	4546
859.928	4664
860.061	4748
860.194	4790
860.327	4618
860.46	4580
860.592	4679
860.725	4748
860.858	4748
860.99	4596
861.123	4512
861.256	4462
861.388	4611
861.521	5345
861.653	4394
861.786	4459
861.918	4462
862.05	4531
862.183	4527
862.315	4611
862.447	4645
862.58	4573
862.712	4417
862.844	4379
862.976	4474
863.108	4443
863.24	4736
863.372	4333
863.504	4394
863.636	4421
863.768	4512
863.9	4443
864.032	4398
864.164	4413
864.296	4447
864.428	4512
864.559	4523
864.691	4550
864.823	4523
864.954	4500
865.086	4497
865.217	4485
865.349	4383
865.48	4455
865.612	4508
865.743	4588
865.875	4489
866.006	4424
866.137	4432
866.269	4489
866.4	4405
866.531	4470
866.662	4375
866.793	4417
866.924	4386
867.055	4485
867.186	4447
867.317	4421
867.448	4360
867.579	4383
867.71	4386
867.841	4348
867.972	4474
868.103	4443
868.233	4436
868.364	4440
868.495	4489
868.625	4672
868.756	4774
868.886	4561
869.017	4649
869.147	4763
869.278	4759
869.408	4637
869.539	4599
869.669	4706
869.799	4626
869.929	4778
870.06	4721
870.19	4953
870.32	4911
870.45	4919
870.58	4980
870.71	5079
870.84	5109
870.97	4934
871.1	4870
871.23	5121
871.36	5140
871.489	5029
871.619	5151
871.749	5117
871.879	5124
872.008	5212
872.138	5071
872.267	4999
872.397	4881
872.526	4786
872.656	4729
872.785	4778
872.915	4957
873.044	5006
873.173	4923
873.303	4972
873.432	4957
873.561	4957
873.69	4896
873.819	4854
873.948	4900
874.077	4778
874.206	4782
874.335	4790
874.464	4934
874.593	5079
874.722	4987
874.851	5109
874.979	5094
875.108	5006
875.237	4930
875.365	4881
875.494	4885
875.623	5067
875.751	4828
875.88	4862
876.008	4934
876.136	5029
876.265	5193
876.393	5349
876.521	5231
876.65	5189
876.778	5140
876.906	5056
877.034	5029
877.162	5064
877.29	4968
877.418	5075
877.546	5086
877.674	5098
877.802	5025
877.93	4991
878.058	4911
878.185	4873
878.313	4957
878.441	4942
878.568	4812
878.696	4881
878.824	4968
878.951	5052
879.079	5170
879.206	5273
879.333	5105
879.461	4987
879.588	4953
879.715	5140
879.842	5220
879.97	4995
880.097	4828
880.224	4767
880.351	4786
880.478	4790
880.605	4797
880.732	4755
880.859	5086
880.986	4919
881.112	4927
881.239	4759
881.366	4683
881.493	4615
881.619	4611
881.746	4649
881.872	4660
881.999	4641
882.125	4702
882.252	4786
882.378	4824
882.505	4961
882.631	4786
882.757	4668
882.883	4725
883.01	4748
883.136	4675
883.262	4569
883.388	4637
883.514	4790
883.64	4824
883.766	4771
883.892	4668
884.018	4702
884.143	4911
884.269	5060
884.395	4637
884.52	4675
884.646	4694
884.772	4615
884.897	4580
885.023	4683
885.148	4729
885.274	4858
885.399	4839
885.524	4679
885.65	4714
885.775	4733
885.9	4733
886.025	4850
886.15	4805
886.275	4698
886.4	4645
886.525	4710
886.65	4702
886.775	4675
886.9	4908
887.025	5010
887.149	4805
887.274	4645
887.399	4592
887.523	4569
887.648	4573
887.773	4569
887.897	4759
888.021	4755
888.146	4675
888.27	4786
888.395	4911
888.519	4767
888.643	4809
888.767	4831
888.891	4672
889.015	4618
889.139	4653
889.263	4577
889.387	4771
889.511	4858
889.635	4778
889.759	4645
889.883	4649
890.006	4687
890.13	4858
890.254	4626
890.377	4641
890.501	4538
890.624	4527
890.748	4649
890.871	4519
890.995	4417
891.118	4363
891.241	4527
891.364	4599
891.488	4675
891.611	4500
891.734	4497
891.857	4622
891.98	4542
892.103	4675
892.226	4634
892.349	4580
892.471	4428
892.594	4527
892.717	4584
892.839	4554
892.962	4615
893.085	4675
893.207	4580
893.33	4466
893.452	4535
893.575	4668
893.697	4615
893.819	4812
893.941	4873
894.064	4721
894.186	4535
894.308	4546
894.43	4725
894.552	4782
894.674	4710
894.796	4550
894.918	4580
895.04	4561
895.161	4687
895.283	4626
895.405	4588
895.526	4607
895.648	4626
895.769	4675
895.891	4649
896.012	4759
896.134	4786
896.255	4664
896.376	4630
896.498	4630
896.619	4698
896.74	4664
896.861	4649
896.982	4930
897.103	5052
897.224	4835
897.345	4729
897.466	4615
897.587	4767
897.708	4831
897.828	4797
897.949	4668
898.07	4561
898.19	4634
898.311	4843
898.431	4615
898.552	4774
898.672	4820
898.792	4771
898.913	4694
899.033	4580
899.153	4485
899.273	4432
899.393	4451
899.513	4489
899.633	4531
899.753	4558
899.873	4508
899.993	4607
900.113	4542
900.232	4565
900.352	4512
900.472	4451
900.591	4413
900.711	4497
900.83	4455
900.95	4599
901.069	4714
901.189	4516
901.308	4375
901.427	4325
901.546	4390
901.665	4440
901.784	4493
901.904	4405
902.023	4291
902.141	4188
902.26	4169
902.379	4314
902.498	4234
902.617	4230
902.735	4375
902.854	4398
902.973	4341
903.091	4230
903.21	4223
903.328	4280
903.446	4234
903.565	4287
903.683	4299
903.801	4287
903.919	4428
904.038	4451
904.156	4268
904.274	4413
904.392	4371
904.51	4413
904.627	4489
904.745	4558
904.863	4607
904.981	4379
905.098	4303
905.216	4360
905.334	4451
905.451	4367
905.569	4405
905.686	4516
905.803	4580
905.921	4421
906.038	4519
906.155	4432
906.272	4383
906.389	4478
906.506	4360
906.623	4363
906.74	4432
906.857	4284
906.974	4352
907.091	4550
907.208	4641
907.324	4580
907.441	4474
907.557	4325
907.674	4318
907.79	4344
907.907	4409
908.023	4531
908.139	4421
908.256	4405
908.372	4459
908.488	4466
908.604	4367
908.72	4329
908.836	4375
908.952	4386
909.068	4352
909.184	4577
909.3	4478
909.415	4599
909.531	4527
909.647	4318
909.762	4352
909.878	4371
909.993	4443
910.108	4398
910.224	4455
910.339	4470
910.454	4455
910.57	4363
910.685	4337
910.8	4698
910.915	4607
911.03	4497
911.145	4314
911.259	4333
911.374	4394
911.489	4299
911.604	4253
911.718	4177
911.833	4249
911.947	4074
912.062	3998
912.176	4276
912.291	4253
912.405	4280
912.519	4443
912.633	4538
912.748	4371
912.862	4337
912.976	4185
913.09	4105
913.204	4185
913.318	4215
913.431	4379
913.545	4375
913.659	4417
913.772	4363
913.886	4268
914	4223
914.113	4375
914.226	4424
914.34	4375
914.453	4242
914.566	4398
914.68	4348
914.793	4314
914.906	4185
915.019	4105
915.132	4048
915.245	4166
915.358	4192
915.47	4223
915.583	4310
915.696	4329
915.809	4424
915.921	4432
916.034	4268
916.146	4249
916.259	4219
916.371	4375
916.483	4352
916.595	4295
916.708	4337
916.82	4337
916.932	4337
917.044	4287
917.156	4303
917.268	4238
917.38	4306
917.491	4272
917.603	4352
917.715	4409
917.826	4462
917.938	4329
918.049	4234
918.161	4371
918.272	4531
918.384	4550
918.495	4462
918.606	4284
918.717	4257
918.828	4318
918.939	4333
919.05	4230
919.161	4344
919.272	4101
919.383	4238
919.494	4409
919.604	4618
919.715	4424
919.826	4341
919.936	4417
920.047	4485
920.157	4489
920.267	4748
920.378	4558
920.488	4500
920.598	4729
920.708	4911
920.818	4717
920.928	4793
921.038	4946
921.148	4866
921.258	4637
921.368	4584
921.477	4519
921.587	4417
921.697	4383
921.806	4531
921.916	4421
922.025	4257
922.134	4276
922.244	4211
922.353	4329
922.462	4188
922.571	4135
922.68	4002
922.789	3975
922.898	4013
923.007	4010
923.116	4128
923.224	4040
923.333	4090
923.442	3994
923.55	3975
923.659	4040
923.767	4101
923.876	3972
923.984	4105
924.092	3922
924.201	4074
924.309	4112
924.417	4120
924.525	4059
924.633	4124
924.741	5052
924.849	3937
924.956	4105
925.064	3945
925.172	3934
925.279	3949
925.387	4048
925.494	4101
925.602	4181
925.709	4204
925.816	4048
925.924	4112
926.031	4234
926.138	4158
926.245	4154
926.352	4101
926.459	4268
926.566	4291
926.673	4150
926.779	4071
926.886	4082
926.993	3987
927.099	4006
927.206	3930
927.312	3945
927.419	4086
927.525	4071
927.631	4078
927.737	3960
927.843	3945
927.95	3911
928.056	3956
928.162	3972
928.267	4029
928.373	4656
928.479	4105
928.585	3857
928.69	4032
928.796	4101
928.901	3964
929.007	3827
929.112	4013
929.218	3922
929.323	3915
929.428	3934
929.533	4093
929.638	3915
929.743	4013
929.848	4063
929.953	4002
930.058	3888
930.163	3793
930.267	3827
930.372	3998
930.477	3804
930.581	4101
930.685	3930
930.79	3823
930.894	3899
930.998	3827
931.103	4025
931.207	3732
931.311	3701
931.415	3671
931.519	3507
931.623	3534
