Data from test_V78500241_1729.txt Node
Date: Fri Mar 25 17:01:01 CST 2022
User: usil
Spectrometer: V785-0024
Trigger mode: 0
Integration Time (sec): 4.000000E-1
Scans to average: 1
Nonlinearity correction enabled: false
Boxcar width: 0
Storing dark spectrum: false
XAxis mode: Wavelengths
Number of Pixels in Spectrum: 1024
>>>>>Begin Spectral Data<<<<<
801.071	8001
801.214	7940
801.356	7890
801.499	7826
801.641	7792
801.783	7807
801.926	7875
802.068	7898
802.211	7913
802.353	7959
802.496	7776
802.638	7879
802.78	7887
802.923	7928
803.065	7845
803.208	7871
803.35	7883
803.492	8001
803.635	8081
803.777	7947
803.919	8115
804.061	8393
804.204	8168
804.346	8035
804.488	7928
804.63	8073
804.773	8027
804.915	8081
805.057	8317
805.199	8176
805.341	8161
805.483	8221
805.626	8145
805.768	8103
805.91	8168
806.052	8225
806.194	8100
806.336	8351
806.478	8065
806.62	8069
806.762	8164
806.904	8256
807.046	8480
807.188	8328
807.33	8309
807.472	8389
807.614	8126
807.756	8107
807.898	7982
808.04	7875
808.182	7906
808.324	7833
808.465	7928
808.607	8031
808.749	8065
808.891	8191
809.033	8301
809.174	8199
809.316	8069
809.458	8081
809.6	7967
809.741	8005
809.883	8043
810.025	8157
810.166	8073
810.308	8054
810.45	7963
810.591	7875
810.733	7719
810.875	7723
811.016	7480
811.158	7476
811.299	7567
811.441	7651
811.582	7655
811.724	7544
811.865	7518
812.007	7571
812.148	7582
812.29	7636
812.431	7814
812.573	7913
812.714	8027
812.855	8119
812.997	8240
813.138	8317
813.279	8142
813.421	8157
813.562	7947
813.703	7845
813.845	7674
813.986	7415
814.127	7221
814.268	7141
814.41	7225
814.551	7137
814.692	7206
814.833	7114
814.974	7053
815.115	7129
815.256	6958
815.397	6867
815.539	6886
815.68	6802
815.821	6677
815.962	6802
816.103	6818
816.244	6707
816.385	6593
816.526	6585
816.666	6429
816.807	6300
816.948	6448
817.089	6475
817.23	6448
817.371	6384
817.512	6353
817.653	6365
817.793	6365
817.934	6403
818.075	6483
818.216	6410
818.356	6346
818.497	6205
818.638	6098
818.778	6121
818.919	6125
819.06	6133
819.2	6311
819.341	6296
819.481	6357
819.622	6490
819.762	6673
819.903	6715
820.043	6585
820.184	6574
820.324	6601
820.465	6730
820.605	6665
820.746	6612
820.886	6528
821.026	6650
821.167	6703
821.307	6768
821.447	6715
821.588	6681
821.728	6559
821.868	6490
822.008	6266
822.149	6353
822.289	6311
822.429	6178
822.569	6053
822.709	6068
822.849	5931
822.99	5859
823.13	5939
823.27	5946
823.41	5726
823.55	5718
823.69	5733
823.83	5821
823.97	5684
824.11	5471
824.25	5467
824.389	5558
824.529	5615
824.669	5482
824.809	5600
824.949	5615
825.089	5676
825.228	5520
825.368	5372
825.508	5379
825.648	5398
825.787	5376
825.927	5311
826.067	5273
826.206	5273
826.346	5353
826.485	5357
826.625	5436
826.765	5528
826.904	5467
827.044	5246
827.183	5242
827.323	5117
827.462	5189
827.601	5170
827.741	5223
827.88	5170
828.02	5124
828.159	5197
828.298	5284
828.437	5322
828.577	5235
828.716	5459
828.855	5360
828.994	5155
829.134	5128
829.273	5208
829.412	5045
829.551	5170
829.69	5147
829.829	5189
829.968	5334
830.107	5261
830.246	5345
830.385	5147
830.524	5132
830.663	5075
830.802	4976
830.941	4850
831.08	4847
831.219	4968
831.357	4976
831.496	5128
831.635	4923
831.774	4820
831.913	4828
832.051	4752
832.19	4790
832.329	4824
832.467	4706
832.606	4622
832.744	4714
832.883	4698
833.022	4679
833.16	4748
833.299	4752
833.437	4828
833.576	4828
833.714	4809
833.852	4809
833.991	4854
834.129	4892
834.267	4953
834.406	4885
834.544	4984
834.682	4911
834.821	4900
834.959	5193
835.097	5003
835.235	5132
835.373	5086
835.511	5083
835.65	5014
835.788	5003
835.926	4915
836.064	4843
836.202	4881
836.34	5124
836.478	5223
836.615	5155
836.753	5216
836.891	5303
837.029	5204
837.167	5216
837.305	5155
837.443	5086
837.58	5045
837.718	5231
837.856	5105
837.993	5155
838.131	5201
838.269	5178
838.406	5193
838.544	5128
838.681	5060
838.819	5014
838.956	4881
839.094	4896
839.231	4949
839.369	5113
839.506	5402
839.643	5204
839.781	5079
839.918	4999
840.055	5094
840.193	5064
840.33	5090
840.467	5143
840.604	5178
840.742	5417
840.879	5056
841.016	5105
841.153	5132
841.29	5307
841.427	5360
841.564	5292
841.701	5353
841.838	5273
841.975	5197
842.112	5280
842.249	5124
842.385	5060
842.522	5292
842.659	5147
842.796	5159
842.933	5193
843.069	5159
843.206	5155
843.343	5273
843.479	5254
843.616	5223
843.752	5006
843.889	4976
844.025	5197
844.162	4976
844.298	5170
844.435	5060
844.571	5045
844.708	5136
844.844	5280
844.98	5318
845.117	5280
845.253	5136
845.389	5060
845.525	5143
845.661	5151
845.798	5010
845.934	5166
846.07	5098
846.206	5178
846.342	5277
846.478	5178
846.614	5033
846.75	4991
846.886	4919
847.022	5128
847.158	5018
847.294	5052
847.429	5071
847.565	5037
847.701	5326
847.837	4873
847.972	4793
848.108	4938
848.244	4919
848.379	4755
848.515	4744
848.65	4698
848.786	4717
848.921	4835
849.057	4873
849.192	4896
849.328	4767
849.463	4854
849.598	4797
849.734	4725
849.869	4717
850.004	4588
850.14	4679
850.275	4653
850.41	4516
850.545	4569
850.68	4603
850.815	4607
850.95	4580
851.085	4801
851.22	4702
851.355	4656
851.49	4622
851.625	4626
851.76	4664
851.895	4580
852.03	4546
852.165	4645
852.299	4668
852.434	4733
852.569	4702
852.703	4721
852.838	4774
852.973	4919
853.107	4889
853.242	4683
853.376	4679
853.511	4550
853.645	4630
853.78	4801
853.914	4649
854.048	4660
854.183	4656
854.317	4691
854.451	4835
854.585	4599
854.72	4611
854.854	4710
854.988	4535
855.122	4607
855.256	4519
855.39	4622
855.524	4733
855.658	4672
855.792	4668
855.926	4714
856.06	4771
856.194	4774
856.327	4721
856.461	4611
856.595	4596
856.729	4599
856.862	4702
856.996	4679
857.13	4725
857.263	4748
857.397	4801
857.53	4675
857.664	4733
857.797	4771
857.931	4778
858.064	4736
858.197	4721
858.331	4698
858.464	4618
858.597	4561
858.731	4641
858.864	4649
858.997	4592
859.13	4645
859.263	4675
859.396	4687
859.529	4611
859.662	4630
859.795	4535
859.928	4706
860.061	4797
860.194	4809
860.327	4630
860.46	4611
860.592	4793
860.725	4717
860.858	4736
860.99	4607
861.123	4588
861.256	4542
861.388	4672
861.521	5277
861.653	4493
861.786	4466
861.918	4516
862.05	4580
862.183	4577
862.315	4660
862.447	4683
862.58	4577
862.712	4451
862.844	4344
862.976	4519
863.108	4512
863.24	4900
863.372	4356
863.504	4421
863.636	4417
863.768	4493
863.9	4436
864.032	4421
864.164	4432
864.296	4554
864.428	4577
864.559	4622
864.691	4565
864.823	4573
864.954	4523
865.086	4573
865.217	4516
865.349	4413
865.48	4474
865.612	4565
865.743	4687
865.875	4447
866.006	4421
866.137	4512
866.269	4436
866.4	4459
866.531	4485
866.662	4455
866.793	4497
866.924	4421
867.055	4542
867.186	4516
867.317	4447
867.448	4443
867.579	4398
867.71	4417
867.841	4402
867.972	4481
868.103	4512
868.233	4485
868.364	4535
868.495	4508
868.625	4683
868.756	4733
868.886	4637
869.017	4683
869.147	4820
869.278	4816
869.408	4702
869.539	4740
869.669	4714
869.799	4687
869.929	4786
870.06	4793
870.19	5003
870.32	4957
870.45	5033
870.58	4980
870.71	5086
870.84	5147
870.97	4961
871.1	4946
871.23	5155
871.36	5174
871.489	5086
871.619	5105
871.749	5140
871.879	5155
872.008	5227
872.138	5060
872.267	4999
872.397	4801
872.526	4847
872.656	4797
872.785	4828
872.915	4968
873.044	5060
873.173	4987
873.303	4987
873.432	4957
873.561	4957
873.69	4892
873.819	4881
873.948	4965
874.077	4820
874.206	4793
874.335	4870
874.464	4976
874.593	5079
874.722	4980
874.851	5105
874.979	5128
875.108	5064
875.237	4957
875.365	4866
875.494	4858
875.623	4991
875.751	4866
875.88	4923
876.008	4999
876.136	5033
876.265	5220
876.393	5364
876.521	5239
876.65	5261
876.778	5208
876.906	5041
877.034	5086
877.162	5071
877.29	4953
877.418	5060
877.546	5090
877.674	5056
877.802	5033
877.93	4976
878.058	4965
878.185	4908
878.313	4984
878.441	4972
878.568	4805
878.696	4877
878.824	5006
878.951	5003
879.079	5140
879.206	5345
879.333	5128
879.461	4995
879.588	5022
879.715	5128
879.842	5261
879.97	5052
880.097	4774
880.224	4801
880.351	4812
880.478	4843
880.605	4736
880.732	4809
880.859	5128
880.986	4911
881.112	4938
881.239	4790
881.366	4649
881.493	4637
881.619	4630
881.746	4637
881.872	4656
881.999	4645
882.125	4714
882.252	4854
882.378	4877
882.505	4991
882.631	4831
882.757	4721
882.883	4729
883.01	4714
883.136	4721
883.262	4645
883.388	4672
883.514	4835
883.64	4896
883.766	4824
883.892	4675
884.018	4755
884.143	4946
884.269	5056
884.395	4698
884.52	4675
884.646	4691
884.772	4664
884.897	4599
885.023	4691
885.148	4828
885.274	4889
885.399	4831
885.524	4767
885.65	4744
885.775	4820
885.9	4740
886.025	4858
886.15	4870
886.275	4778
886.4	4672
886.525	4828
886.65	4717
886.775	4721
886.9	4946
887.025	5041
887.149	4873
887.274	4694
887.399	4626
887.523	4641
887.648	4592
887.773	4626
887.897	4752
888.021	4820
888.146	4691
888.27	4805
888.395	4911
888.519	4797
888.643	4824
888.767	4850
888.891	4694
889.015	4630
889.139	4664
889.263	4599
889.387	4774
889.511	4927
889.635	4771
889.759	4675
889.883	4645
890.006	4767
890.13	4831
890.254	4691
890.377	4710
890.501	4500
890.624	4500
890.748	4672
890.871	4542
890.995	4432
891.118	4478
891.241	4558
891.364	4565
891.488	4634
891.611	4531
891.734	4592
891.857	4580
891.98	4588
892.103	4729
892.226	4630
892.349	4527
892.471	4424
892.594	4599
892.717	4615
892.839	4573
892.962	4615
893.085	4740
893.207	4656
893.33	4485
893.452	4565
893.575	4668
893.697	4554
893.819	4797
893.941	4831
894.064	4809
894.186	4607
894.308	4584
894.43	4763
894.552	4809
894.674	4778
894.796	4611
894.918	4596
895.04	4565
895.161	4725
895.283	4702
895.405	4596
895.526	4649
895.648	4694
895.769	4752
895.891	4736
896.012	4740
896.134	4710
896.255	4714
896.376	4603
896.498	4615
896.619	4660
896.74	4630
896.861	4733
896.982	4934
897.103	5113
897.224	4847
897.345	4778
897.466	4679
897.587	4710
897.708	4854
897.828	4763
897.949	4733
898.07	4607
898.19	4675
898.311	4862
898.431	4714
898.552	4714
898.672	4862
898.792	4828
898.913	4771
899.033	4679
899.153	4497
899.273	4447
899.393	4508
899.513	4565
899.633	4512
899.753	4592
899.873	4565
899.993	4603
900.113	4565
900.232	4599
900.352	4535
900.472	4550
900.591	4443
900.711	4493
900.83	4417
900.95	4615
901.069	4694
901.189	4550
901.308	4383
901.427	4314
901.546	4394
901.665	4489
901.784	4527
901.904	4413
902.023	4314
902.141	4227
902.26	4185
902.379	4333
902.498	4230
902.617	4253
902.735	4386
902.854	4367
902.973	4436
903.091	4230
903.21	4173
903.328	4306
903.446	4268
903.565	4291
903.683	4383
903.801	4310
903.919	4432
904.038	4421
904.156	4344
904.274	4451
904.392	4455
904.51	4432
904.627	4455
904.745	4565
904.863	4672
904.981	4462
905.098	4314
905.216	4371
905.334	4470
905.451	4489
905.569	4413
905.686	4577
905.803	4645
905.921	4504
906.038	4577
906.155	4489
906.272	4421
906.389	4504
906.506	4394
906.623	4394
906.74	4417
906.857	4356
906.974	4386
907.091	4584
907.208	4706
907.324	4592
907.441	4519
907.557	4344
907.674	4371
907.79	4322
907.907	4386
908.023	4535
908.139	4485
908.256	4440
908.372	4527
908.488	4462
908.604	4405
908.72	4379
908.836	4356
908.952	4352
909.068	4386
909.184	4565
909.3	4489
909.415	4592
909.531	4569
909.647	4371
909.762	4440
909.878	4337
909.993	4455
910.108	4421
910.224	4451
910.339	4447
910.454	4398
910.57	4413
910.685	4284
910.8	4687
910.915	4641
911.03	4481
911.145	4318
911.259	4322
911.374	4394
911.489	4261
911.604	4310
911.718	4177
911.833	4238
911.947	4063
912.062	4067
912.176	4227
912.291	4227
912.405	4238
912.519	4478
912.633	4519
912.748	4421
912.862	4386
912.976	4177
913.09	4150
913.204	4215
913.318	4253
913.431	4409
913.545	4428
913.659	4451
913.772	4348
913.886	4295
914	4227
914.113	4383
914.226	4485
914.34	4447
914.453	4227
914.566	4383
914.68	4344
914.793	4344
914.906	4181
915.019	4162
915.132	4101
915.245	4192
915.358	4234
915.47	4257
915.583	4257
915.696	4306
915.809	4447
915.921	4405
916.034	4242
916.146	4284
916.259	4284
916.371	4367
916.483	4371
916.595	4310
916.708	4329
916.82	4284
916.932	4405
917.044	4348
917.156	4325
917.268	4249
917.38	4352
917.491	4287
917.603	4356
917.715	4443
917.826	4451
917.938	4360
918.049	4299
918.161	4413
918.272	4516
918.384	4542
918.495	4424
918.606	4268
918.717	4253
918.828	4306
918.939	4344
919.05	4287
919.161	4379
919.272	4166
919.383	4242
919.494	4455
919.604	4622
919.715	4436
919.826	4371
919.936	4424
920.047	4542
920.157	4546
920.267	4698
920.378	4519
920.488	4508
920.598	4744
920.708	4927
920.818	4778
920.928	4752
921.038	4995
921.148	4900
921.258	4637
921.368	4592
921.477	4523
921.587	4451
921.697	4379
921.806	4573
921.916	4417
922.025	4268
922.134	4261
922.244	4181
922.353	4325
922.462	4162
922.571	4135
922.68	4051
922.789	3968
922.898	4036
923.007	3983
923.116	4074
923.224	4025
923.333	4082
923.442	4017
923.55	3972
923.659	4067
923.767	4147
923.876	4017
923.984	4116
924.092	3994
924.201	4082
924.309	4074
924.417	4124
924.525	4082
924.633	4139
924.741	4896
924.849	3945
924.956	4147
925.064	4021
925.172	3941
925.279	3983
925.387	4074
925.494	4074
925.602	4223
925.709	4223
925.816	4101
925.924	4147
926.031	4227
926.138	4211
926.245	4223
926.352	4143
926.459	4287
926.566	4310
926.673	4192
926.779	4188
926.886	4090
926.993	4051
927.099	4032
927.206	4025
927.312	3994
927.419	4097
927.525	4048
927.631	4128
927.737	4017
927.843	4006
927.95	3876
928.056	4036
928.162	4048
928.267	4048
928.373	4740
928.479	4181
928.585	3949
928.69	4048
928.796	4120
928.901	4021
929.007	3846
929.112	4025
929.218	4013
929.323	4006
929.428	3937
929.533	4139
929.638	3972
929.743	4032
929.848	4090
929.953	3994
930.058	3972
930.163	3823
930.267	3903
930.372	4040
930.477	3857
930.581	4154
930.685	3998
930.79	3854
930.894	3941
930.998	3918
931.103	4120
931.207	3751
931.311	3770
931.415	3690
931.519	3584
931.623	3587
