Data from test_V78500241_1759.txt Node
Date: Fri Mar 25 17:01:13 CST 2022
User: usil
Spectrometer: V785-0024
Trigger mode: 0
Integration Time (sec): 4.000000E-1
Scans to average: 1
Nonlinearity correction enabled: false
Boxcar width: 0
Storing dark spectrum: false
XAxis mode: Wavelengths
Number of Pixels in Spectrum: 1024
>>>>>Begin Spectral Data<<<<<
801.071	8024
801.214	8035
801.356	7818
801.499	7784
801.641	7780
801.783	7753
801.926	7963
802.068	7925
802.211	7982
802.353	7989
802.496	7826
802.638	7814
802.78	7909
802.923	7925
803.065	7879
803.208	7898
803.35	7887
803.492	8081
803.635	8180
803.777	7970
803.919	8168
804.061	8473
804.204	8153
804.346	7997
804.488	7944
804.63	8107
804.773	7993
804.915	8123
805.057	8252
805.199	8161
805.341	8164
805.483	8233
805.626	8126
805.768	8153
805.91	8164
806.052	8218
806.194	8149
806.336	8282
806.478	8164
806.62	8119
806.762	8138
806.904	8240
807.046	8518
807.188	8393
807.33	8294
807.472	8412
807.614	8157
807.756	8142
807.898	8008
808.04	7868
808.182	7894
808.324	7860
808.465	7879
808.607	8039
808.749	8100
808.891	8221
809.033	8240
809.174	8153
809.316	8096
809.458	8031
809.6	7989
809.741	8031
809.883	7978
810.025	8088
810.166	8035
810.308	8008
810.45	7978
810.591	7879
810.733	7769
810.875	7605
811.016	7506
811.158	7521
811.299	7563
811.441	7677
811.582	7689
811.724	7552
811.865	7537
812.007	7620
812.148	7540
812.29	7601
812.431	7772
812.573	7906
812.714	7955
812.855	8153
812.997	8229
813.138	8301
813.279	8176
813.421	8100
813.562	7921
813.703	7776
813.845	7750
813.986	7445
814.127	7232
814.268	7168
814.41	7187
814.551	7175
814.692	7232
814.833	7107
814.974	7118
815.115	7110
815.256	6894
815.397	6951
815.539	6977
815.68	6764
815.821	6795
815.962	6844
816.103	6768
816.244	6673
816.385	6627
816.526	6604
816.666	6460
816.807	6296
816.948	6391
817.089	6498
817.23	6403
817.371	6388
817.512	6319
817.653	6346
817.793	6338
817.934	6426
818.075	6445
818.216	6369
818.356	6346
818.497	6228
818.638	6121
818.778	6136
818.919	6144
819.06	6133
819.2	6327
819.341	6292
819.481	6384
819.622	6536
819.762	6681
819.903	6738
820.043	6563
820.184	6604
820.324	6589
820.465	6696
820.605	6631
820.746	6673
820.886	6460
821.026	6696
821.167	6677
821.307	6772
821.447	6776
821.588	6654
821.728	6593
821.868	6437
822.008	6292
822.149	6429
822.289	6376
822.429	6182
822.569	6110
822.709	6083
822.849	5893
822.99	5882
823.13	5908
823.27	5927
823.41	5771
823.55	5786
823.69	5733
823.83	5794
823.97	5684
824.11	5547
824.25	5490
824.389	5581
824.529	5551
824.669	5505
824.809	5623
824.949	5680
825.089	5619
825.228	5600
825.368	5360
825.508	5410
825.648	5387
825.787	5440
825.927	5414
826.067	5326
826.206	5288
826.346	5433
826.485	5429
826.625	5425
826.765	5608
826.904	5520
827.044	5318
827.183	5185
827.323	5159
827.462	5288
827.601	5185
827.741	5208
827.88	5242
828.02	5136
828.159	5280
828.298	5284
828.437	5406
828.577	5273
828.716	5524
828.855	5341
828.994	5185
829.134	5235
829.273	5220
829.412	5162
829.551	5185
829.69	5147
829.829	5292
829.968	5360
830.107	5292
830.246	5288
830.385	5235
830.524	5181
830.663	5121
830.802	5025
830.941	4919
831.08	4938
831.219	5014
831.357	4980
831.496	5193
831.635	4953
831.774	4900
831.913	4850
832.051	4767
832.19	4774
832.329	4873
832.467	4748
832.606	4687
832.744	4755
832.883	4755
833.022	4763
833.16	4812
833.299	4847
833.437	4904
833.576	4835
833.714	4911
833.852	4919
833.991	4866
834.129	4980
834.267	4953
834.406	4968
834.544	4995
834.682	4991
834.821	4995
834.959	5239
835.097	5094
835.235	5189
835.373	5079
835.511	5166
835.65	5075
835.788	5067
835.926	4927
836.064	4892
836.202	4873
836.34	5212
836.478	5235
836.615	5151
836.753	5250
836.891	5353
837.029	5303
837.167	5231
837.305	5220
837.443	5204
837.58	5113
837.718	5288
837.856	5242
837.993	5227
838.131	5273
838.269	5269
838.406	5265
838.544	5193
838.681	5045
838.819	5083
838.956	4923
839.094	4942
839.231	5056
839.369	5094
839.506	5433
839.643	5292
839.781	5052
839.918	5090
840.055	5162
840.193	5162
840.33	5140
840.467	5155
840.604	5265
840.742	5455
840.879	5208
841.016	5147
841.153	5159
841.29	5387
841.427	5395
841.564	5341
841.701	5315
841.838	5269
841.975	5246
842.112	5334
842.249	5170
842.385	5151
842.522	5334
842.659	5227
842.796	5185
842.933	5242
843.069	5132
843.206	5185
843.343	5337
843.479	5288
843.616	5315
843.752	5029
843.889	5025
844.025	5277
844.162	5006
844.298	5250
844.435	5083
844.571	5090
844.708	5208
844.844	5376
844.98	5391
845.117	5334
845.253	5147
845.389	5090
845.525	5193
845.661	5124
845.798	5071
845.934	5162
846.07	5025
846.206	5242
846.342	5318
846.478	5216
846.614	5029
846.75	5025
846.886	4984
847.022	5166
847.158	5083
847.294	5090
847.429	5105
847.565	5067
847.701	5330
847.837	4896
847.972	4824
848.108	5037
848.244	5014
848.379	4843
848.515	4744
848.65	4725
848.786	4797
848.921	4797
849.057	4938
849.192	4923
849.328	4790
849.463	4889
849.598	4793
849.734	4774
849.869	4698
850.004	4630
850.14	4694
850.275	4660
850.41	4554
850.545	4611
850.68	4641
850.815	4641
850.95	4626
851.085	4835
851.22	4786
851.355	4691
851.49	4683
851.625	4637
851.76	4687
851.895	4558
852.03	4573
852.165	4714
852.299	4778
852.434	4786
852.569	4793
852.703	4774
852.838	4866
852.973	4949
853.107	4946
853.242	4740
853.376	4725
853.511	4599
853.645	4653
853.78	4858
853.914	4710
854.048	4733
854.183	4653
854.317	4714
854.451	4862
854.585	4733
854.72	4729
854.854	4812
854.988	4596
855.122	4683
855.256	4531
855.39	4714
855.524	4786
855.658	4805
855.792	4729
855.926	4759
856.06	4771
856.194	4831
856.327	4717
856.461	4634
856.595	4641
856.729	4630
856.862	4790
856.996	4721
857.13	4767
857.263	4767
857.397	4847
857.53	4691
857.664	4740
857.797	4812
857.931	4812
858.064	4694
858.197	4767
858.331	4694
858.464	4630
858.597	4531
858.731	4641
858.864	4645
858.997	4653
859.13	4687
859.263	4679
859.396	4702
859.529	4580
859.662	4580
859.795	4565
859.928	4649
860.061	4824
860.194	4767
860.327	4615
860.46	4596
860.592	4767
860.725	4740
860.858	4736
860.99	4596
861.123	4546
861.256	4569
861.388	4668
861.521	5345
861.653	4493
861.786	4478
861.918	4466
862.05	4565
862.183	4577
862.315	4573
862.447	4645
862.58	4596
862.712	4462
862.844	4337
862.976	4519
863.108	4447
863.24	4911
863.372	4348
863.504	4474
863.636	4409
863.768	4470
863.9	4428
864.032	4375
864.164	4383
864.296	4451
864.428	4599
864.559	4573
864.691	4580
864.823	4569
864.954	4497
865.086	4538
865.217	4455
865.349	4451
865.48	4500
865.612	4523
865.743	4630
865.875	4478
866.006	4428
866.137	4493
866.269	4470
866.4	4455
866.531	4417
866.662	4462
866.793	4443
866.924	4443
867.055	4523
867.186	4470
867.317	4440
867.448	4405
867.579	4421
867.71	4405
867.841	4375
867.972	4478
868.103	4440
868.233	4478
868.364	4436
868.495	4512
868.625	4717
868.756	4809
868.886	4615
869.017	4637
869.147	4782
869.278	4755
869.408	4714
869.539	4645
869.669	4725
869.799	4683
869.929	4831
870.06	4714
870.19	4942
870.32	4919
870.45	4942
870.58	5064
870.71	5117
870.84	5109
870.97	4942
871.1	4900
871.23	5151
871.36	5117
871.489	5048
871.619	5090
871.749	5086
871.879	5151
872.008	5185
872.138	5105
872.267	4972
872.397	4843
872.526	4854
872.656	4755
872.785	4858
872.915	4961
873.044	5045
873.173	4934
873.303	4972
873.432	5033
873.561	4972
873.69	4881
873.819	4908
873.948	4919
874.077	4843
874.206	4824
874.335	4790
874.464	5006
874.593	5090
874.722	5003
874.851	5109
874.979	5102
875.108	5045
875.237	4923
875.365	4873
875.494	4866
875.623	4972
875.751	4858
875.88	4919
876.008	4987
876.136	5064
876.265	5185
876.393	5334
876.521	5261
876.65	5231
876.778	5193
876.906	5113
877.034	5033
877.162	5086
877.29	5025
877.418	5083
877.546	5064
877.674	5071
877.802	5060
877.93	5052
878.058	4953
878.185	4904
878.313	4934
878.441	4911
878.568	4831
878.696	4881
878.824	4961
878.951	4984
879.079	5117
879.206	5307
879.333	5140
879.461	4999
879.588	5048
879.715	5147
879.842	5261
879.97	5064
880.097	4831
880.224	4786
880.351	4793
880.478	4805
880.605	4831
880.732	4805
880.859	5151
880.986	4900
881.112	4889
881.239	4774
881.366	4664
881.493	4622
881.619	4649
881.746	4645
881.872	4637
881.999	4630
882.125	4710
882.252	4828
882.378	4873
882.505	5003
882.631	4824
882.757	4729
882.883	4725
883.01	4763
883.136	4656
883.262	4626
883.388	4653
883.514	4835
883.64	4828
883.766	4797
883.892	4702
884.018	4721
884.143	4919
884.269	5022
884.395	4675
884.52	4668
884.646	4641
884.772	4569
884.897	4527
885.023	4691
885.148	4812
885.274	4900
885.399	4835
885.524	4710
885.65	4675
885.775	4778
885.9	4740
886.025	4843
886.15	4805
886.275	4733
886.4	4645
886.525	4706
886.65	4714
886.775	4752
886.9	4904
887.025	5086
887.149	4828
887.274	4698
887.399	4569
887.523	4596
887.648	4599
887.773	4592
887.897	4744
888.021	4748
888.146	4679
888.27	4828
888.395	4911
888.519	4831
888.643	4812
888.767	4843
888.891	4691
889.015	4641
889.139	4675
889.263	4615
889.387	4797
889.511	4892
889.635	4847
889.759	4649
889.883	4649
890.006	4736
890.13	4862
890.254	4637
890.377	4664
890.501	4565
890.624	4546
890.748	4649
890.871	4508
890.995	4421
891.118	4379
891.241	4535
891.364	4554
891.488	4641
891.611	4527
891.734	4561
891.857	4615
891.98	4535
892.103	4668
892.226	4618
892.349	4550
892.471	4428
892.594	4542
892.717	4588
892.839	4546
892.962	4603
893.085	4660
893.207	4618
893.33	4493
893.452	4538
893.575	4691
893.697	4550
893.819	4793
893.941	4820
894.064	4786
894.186	4584
894.308	4592
894.43	4710
894.552	4729
894.674	4790
894.796	4577
894.918	4554
895.04	4577
895.161	4691
895.283	4694
895.405	4634
895.526	4653
895.648	4683
895.769	4675
895.891	4782
896.012	4710
896.134	4748
896.255	4660
896.376	4668
896.498	4618
896.619	4641
896.74	4649
896.861	4706
896.982	4946
897.103	5094
897.224	4866
897.345	4755
897.466	4714
897.587	4725
897.708	4843
897.828	4778
897.949	4694
898.07	4538
898.19	4683
898.311	4858
898.431	4740
898.552	4733
898.672	4839
898.792	4790
898.913	4797
899.033	4664
899.153	4497
899.273	4440
899.393	4546
899.513	4577
899.633	4485
899.753	4508
899.873	4481
899.993	4599
900.113	4546
900.232	4603
900.352	4485
900.472	4489
900.591	4421
900.711	4481
900.83	4443
900.95	4607
901.069	4672
901.189	4561
901.308	4348
901.427	4314
901.546	4375
901.665	4451
901.784	4489
901.904	4367
902.023	4310
902.141	4223
902.26	4185
902.379	4322
902.498	4257
902.617	4204
902.735	4348
902.854	4394
902.973	4383
903.091	4227
903.21	4272
903.328	4322
903.446	4276
903.565	4276
903.683	4398
903.801	4295
903.919	4394
904.038	4424
904.156	4394
904.274	4451
904.392	4428
904.51	4432
904.627	4466
904.745	4577
904.863	4683
904.981	4390
905.098	4295
905.216	4371
905.334	4413
905.451	4466
905.569	4470
905.686	4493
905.803	4546
905.921	4386
906.038	4558
906.155	4497
906.272	4417
906.389	4459
906.506	4409
906.623	4413
906.74	4413
906.857	4299
906.974	4333
907.091	4558
907.208	4664
907.324	4592
907.441	4535
907.557	4333
907.674	4390
907.79	4310
907.907	4386
908.023	4500
908.139	4443
908.256	4421
908.372	4493
908.488	4440
908.604	4360
908.72	4352
908.836	4348
908.952	4375
909.068	4462
909.184	4558
909.3	4440
909.415	4546
909.531	4519
909.647	4337
909.762	4409
909.878	4337
909.993	4447
910.108	4440
910.224	4386
910.339	4474
910.454	4402
910.57	4360
910.685	4322
910.8	4649
910.915	4630
911.03	4500
911.145	4310
911.259	4337
911.374	4383
911.489	4246
911.604	4291
911.718	4177
911.833	4219
911.947	4128
912.062	4067
912.176	4230
912.291	4238
912.405	4253
912.519	4481
912.633	4500
912.748	4383
912.862	4367
912.976	4276
913.09	4124
913.204	4150
913.318	4238
913.431	4360
913.545	4386
913.659	4462
913.772	4375
913.886	4276
914	4253
914.113	4375
914.226	4455
914.34	4417
914.453	4246
914.566	4432
914.68	4272
914.793	4310
914.906	4166
915.019	4116
915.132	4078
915.245	4181
915.358	4219
915.47	4246
915.583	4295
915.696	4348
915.809	4390
915.921	4417
916.034	4230
916.146	4215
916.259	4249
916.371	4409
916.483	4344
916.595	4249
916.708	4295
916.82	4356
916.932	4306
917.044	4287
917.156	4310
917.268	4223
917.38	4257
917.491	4299
917.603	4337
917.715	4402
917.826	4417
917.938	4341
918.049	4207
918.161	4428
918.272	4512
918.384	4535
918.495	4432
918.606	4333
918.717	4234
918.828	4299
918.939	4363
919.05	4249
919.161	4303
919.272	4147
919.383	4242
919.494	4455
919.604	4660
919.715	4466
919.826	4325
919.936	4402
920.047	4489
920.157	4451
920.267	4668
920.378	4535
920.488	4493
920.598	4729
920.708	4866
920.818	4774
920.928	4748
921.038	4927
921.148	4946
921.258	4634
921.368	4546
921.477	4493
921.587	4470
921.697	4375
921.806	4596
921.916	4436
922.025	4299
922.134	4238
922.244	4242
922.353	4333
922.462	4150
922.571	4158
922.68	4025
922.789	3987
922.898	3987
923.007	3994
923.116	4093
923.224	4051
923.333	4074
923.442	3998
923.55	3983
923.659	4036
923.767	4093
923.876	4010
923.984	4101
924.092	3987
924.201	4074
924.309	4093
924.417	4131
924.525	4036
924.633	4105
924.741	5048
924.849	3884
924.956	4112
925.064	3949
925.172	3907
925.279	3953
925.387	4067
925.494	4067
925.602	4211
925.709	4188
925.816	4071
925.924	4135
926.031	4207
926.138	4192
926.245	4223
926.352	4105
926.459	4299
926.566	4333
926.673	4207
926.779	4101
926.886	4071
926.993	3949
927.099	3896
927.206	3975
927.312	3911
927.419	4074
927.525	3964
927.631	4109
927.737	3953
927.843	3941
927.95	3888
928.056	4002
928.162	4006
928.267	4074
928.373	4645
928.479	4097
928.585	3903
928.69	3975
928.796	4059
928.901	3979
929.007	3857
929.112	3998
929.218	3998
929.323	3918
929.428	3903
929.533	4131
929.638	3918
929.743	3956
929.848	4078
929.953	3975
930.058	3945
930.163	3812
930.267	3827
930.372	3998
930.477	3778
930.581	4109
930.685	3983
930.79	3816
930.894	3869
930.998	3861
931.103	4044
931.207	3705
931.311	3698
931.415	3701
931.519	3519
931.623	3538
