Data from test_V78500241_413.txt Node
Date: Fri Mar 25 16:51:52 CST 2022
User: usil
Spectrometer: V785-0024
Trigger mode: 0
Integration Time (sec): 4.000000E-1
Scans to average: 1
Nonlinearity correction enabled: false
Boxcar width: 0
Storing dark spectrum: false
XAxis mode: Wavelengths
Number of Pixels in Spectrum: 1024
>>>>>Begin Spectral Data<<<<<
801.071	7997
801.214	7963
801.356	7871
801.499	7887
801.641	7807
801.783	7890
801.926	8062
802.068	7974
802.211	8027
802.353	7951
802.496	7868
802.638	7890
802.78	7917
802.923	7925
803.065	7909
803.208	7849
803.35	7940
803.492	8062
803.635	8157
803.777	8008
803.919	8138
804.061	8431
804.204	8187
804.346	8050
804.488	7909
804.63	8046
804.773	7967
804.915	8092
805.057	8271
805.199	8279
805.341	8240
805.483	8214
805.626	8237
805.768	8035
805.91	8130
806.052	8229
806.194	8161
806.336	8294
806.478	8187
806.62	8107
806.762	8210
806.904	8244
807.046	8526
807.188	8343
807.33	8317
807.472	8271
807.614	8130
807.756	8157
807.898	8039
808.04	7837
808.182	8012
808.324	7906
808.465	7989
808.607	8020
808.749	8058
808.891	8168
809.033	8267
809.174	8176
809.316	8035
809.458	8134
809.6	8024
809.741	8058
809.883	7921
810.025	8081
810.166	8134
810.308	8043
810.45	8001
810.591	7799
810.733	7803
810.875	7674
811.016	7548
811.158	7613
811.299	7685
811.441	7814
811.582	7742
811.724	7628
811.865	7609
812.007	7632
812.148	7563
812.29	7613
812.431	7807
812.573	7963
812.714	8024
812.855	8180
812.997	8301
813.138	8324
813.279	8183
813.421	8145
813.562	8077
813.703	7921
813.845	7864
813.986	7518
814.127	7343
814.268	7335
814.41	7274
814.551	7247
814.692	7183
814.833	7069
814.974	7122
815.115	7126
815.256	7012
815.397	6970
815.539	6916
815.68	6802
815.821	6829
815.962	6844
816.103	6894
816.244	6802
816.385	6707
816.526	6593
816.666	6540
816.807	6342
816.948	6479
817.089	6551
817.23	6380
817.371	6384
817.512	6407
817.653	6399
817.793	6384
817.934	6361
818.075	6426
818.216	6399
818.356	6388
818.497	6285
818.638	6148
818.778	6213
818.919	6182
819.06	6175
819.2	6300
819.341	6258
819.481	6384
819.622	6506
819.762	6821
819.903	6730
820.043	6662
820.184	6604
820.324	6585
820.465	6662
820.605	6711
820.746	6669
820.886	6490
821.026	6684
821.167	6722
821.307	6814
821.447	6734
821.588	6677
821.728	6601
821.868	6460
822.008	6292
822.149	6372
822.289	6384
822.429	6163
822.569	6060
822.709	6155
822.849	5946
822.99	5923
823.13	5965
823.27	6019
823.41	5836
823.55	5802
823.69	5779
823.83	5802
823.97	5699
824.11	5554
824.25	5570
824.389	5543
824.529	5684
824.669	5516
824.809	5585
824.949	5668
825.089	5589
825.228	5573
825.368	5402
825.508	5349
825.648	5345
825.787	5368
825.927	5372
826.067	5307
826.206	5303
826.346	5368
826.485	5410
826.625	5387
826.765	5581
826.904	5528
827.044	5288
827.183	5201
827.323	5155
827.462	5246
827.601	5155
827.741	5220
827.88	5216
828.02	5151
828.159	5220
828.298	5307
828.437	5364
828.577	5311
828.716	5467
828.855	5296
828.994	5166
829.134	5159
829.273	5193
829.412	5113
829.551	5109
829.69	5166
829.829	5220
829.968	5357
830.107	5299
830.246	5250
830.385	5201
830.524	5109
830.663	5067
830.802	4972
830.941	4927
831.08	4877
831.219	4930
831.357	4984
831.496	5147
831.635	4957
831.774	4843
831.913	4828
832.051	4725
832.19	4714
832.329	4809
832.467	4672
832.606	4649
832.744	4759
832.883	4786
833.022	4717
833.16	4831
833.299	4793
833.437	4839
833.576	4847
833.714	4873
833.852	4873
833.991	4896
834.129	4984
834.267	4942
834.406	4919
834.544	4980
834.682	4972
834.821	4972
834.959	5174
835.097	4980
835.235	5212
835.373	5079
835.511	5113
835.65	4995
835.788	5086
835.926	4900
836.064	4877
836.202	4927
836.34	5189
836.478	5220
836.615	5147
836.753	5208
836.891	5261
837.029	5242
837.167	5189
837.305	5181
837.443	5174
837.58	5060
837.718	5280
837.856	5197
837.993	5140
838.131	5204
838.269	5212
838.406	5162
838.544	5193
838.681	5018
838.819	5037
838.956	4892
839.094	4885
839.231	4991
839.369	5113
839.506	5387
839.643	5258
839.781	5045
839.918	5018
840.055	5060
840.193	5128
840.33	5132
840.467	5105
840.604	5159
840.742	5463
840.879	5006
841.016	5090
841.153	5121
841.29	5414
841.427	5337
841.564	5334
841.701	5341
841.838	5296
841.975	5258
842.112	5303
842.249	5151
842.385	5052
842.522	5330
842.659	5185
842.796	5189
842.933	5174
843.069	5128
843.206	5178
843.343	5261
843.479	5250
843.616	5261
843.752	5075
843.889	4980
844.025	5235
844.162	5029
844.298	5242
844.435	5094
844.571	5037
844.708	5193
844.844	5265
844.98	5296
845.117	5288
845.253	5147
845.389	5124
845.525	5128
845.661	5136
845.798	5037
845.934	5140
846.07	5052
846.206	5151
846.342	5326
846.478	5193
846.614	5033
846.75	4965
846.886	4915
847.022	5094
847.158	5014
847.294	5045
847.429	5048
847.565	5048
847.701	5296
847.837	4889
847.972	4748
848.108	4953
848.244	4965
848.379	4790
848.515	4755
848.65	4694
848.786	4774
848.921	4797
849.057	4850
849.192	4934
849.328	4820
849.463	4835
849.598	4816
849.734	4782
849.869	4687
850.004	4656
850.14	4694
850.275	4599
850.41	4599
850.545	4554
850.68	4656
850.815	4615
850.95	4580
851.085	4885
851.22	4767
851.355	4675
851.49	4653
851.625	4637
851.76	4668
851.895	4531
852.03	4569
852.165	4630
852.299	4748
852.434	4797
852.569	4755
852.703	4744
852.838	4843
852.973	4953
853.107	4900
853.242	4752
853.376	4679
853.511	4497
853.645	4615
853.78	4801
853.914	4717
854.048	4721
854.183	4645
854.317	4656
854.451	4850
854.585	4679
854.72	4645
854.854	4767
854.988	4607
855.122	4622
855.256	4558
855.39	4649
855.524	4778
855.658	4748
855.792	4691
855.926	4725
856.06	4740
856.194	4805
856.327	4721
856.461	4577
856.595	4649
856.729	4607
856.862	4805
856.996	4694
857.13	4717
857.263	4786
857.397	4793
857.53	4611
857.664	4710
857.797	4759
857.931	4752
858.064	4660
858.197	4767
858.331	4637
858.464	4615
858.597	4573
858.731	4660
858.864	4641
858.997	4599
859.13	4679
859.263	4691
859.396	4729
859.529	4584
859.662	4584
859.795	4561
859.928	4656
860.061	4702
860.194	4721
860.327	4607
860.46	4592
860.592	4687
860.725	4733
860.858	4744
860.99	4630
861.123	4538
861.256	4580
861.388	4599
861.521	5440
861.653	4489
861.786	4409
861.918	4432
862.05	4569
862.183	4565
862.315	4622
862.447	4687
862.58	4569
862.712	4394
862.844	4284
862.976	4500
863.108	4440
863.24	4778
863.372	4329
863.504	4474
863.636	4402
863.768	4497
863.9	4455
864.032	4413
864.164	4424
864.296	4493
864.428	4558
864.559	4554
864.691	4531
864.823	4527
864.954	4478
865.086	4478
865.217	4466
865.349	4436
865.48	4504
865.612	4485
865.743	4668
865.875	4474
866.006	4436
866.137	4512
866.269	4432
866.4	4440
866.531	4409
866.662	4405
866.793	4413
866.924	4436
867.055	4531
867.186	4443
867.317	4428
867.448	4390
867.579	4360
867.71	4352
867.841	4386
867.972	4481
868.103	4432
868.233	4474
868.364	4455
868.495	4500
868.625	4672
868.756	4763
868.886	4607
869.017	4656
869.147	4759
869.278	4790
869.408	4660
869.539	4660
869.669	4744
869.799	4626
869.929	4774
870.06	4694
870.19	4972
870.32	4927
870.45	4942
870.58	5067
870.71	5098
870.84	5105
870.97	4934
871.1	4877
871.23	5155
871.36	5151
871.489	5067
871.619	5094
871.749	5143
871.879	5140
872.008	5162
872.138	5048
872.267	4976
872.397	4835
872.526	4835
872.656	4778
872.785	4816
872.915	4961
873.044	5029
873.173	4938
873.303	4961
873.432	4957
873.561	4965
873.69	4915
873.819	4889
873.948	4892
874.077	4812
874.206	4767
874.335	4759
874.464	4904
874.593	5064
874.722	4991
874.851	5109
874.979	5060
875.108	5037
875.237	4908
875.365	4919
875.494	4858
875.623	5037
875.751	4809
875.88	4885
876.008	4995
876.136	4991
876.265	5170
876.393	5334
876.521	5273
876.65	5201
876.778	5155
876.906	5033
877.034	5048
877.162	5029
877.29	4965
877.418	5075
877.546	5075
877.674	5060
877.802	4980
877.93	5037
878.058	4965
878.185	4839
878.313	4934
878.441	4976
878.568	4771
878.696	4847
878.824	4972
878.951	5056
879.079	5117
879.206	5296
879.333	5140
879.461	5018
879.588	4984
879.715	5151
879.842	5204
879.97	5003
880.097	4809
880.224	4797
880.351	4774
880.478	4805
880.605	4820
880.732	4767
880.859	5121
880.986	4892
881.112	4919
881.239	4793
881.366	4634
881.493	4603
881.619	4611
881.746	4656
881.872	4668
881.999	4653
882.125	4717
882.252	4850
882.378	4812
882.505	4991
882.631	4850
882.757	4653
882.883	4721
883.01	4675
883.136	4653
883.262	4618
883.388	4649
883.514	4820
883.64	4862
883.766	4824
883.892	4717
884.018	4725
884.143	4881
884.269	4995
884.395	4702
884.52	4607
884.646	4664
884.772	4561
884.897	4615
885.023	4675
885.148	4782
885.274	4828
885.399	4828
885.524	4790
885.65	4702
885.775	4763
885.9	4740
886.025	4866
886.15	4793
886.275	4672
886.4	4668
886.525	4736
886.65	4679
886.775	4733
886.9	4942
887.025	5037
887.149	4824
887.274	4656
887.399	4588
887.523	4611
887.648	4630
887.773	4618
887.897	4710
888.021	4797
888.146	4714
888.27	4835
888.395	4919
888.519	4824
888.643	4816
888.767	4816
888.891	4721
889.015	4569
889.139	4664
889.263	4580
889.387	4755
889.511	4885
889.635	4797
889.759	4653
889.883	4668
890.006	4721
890.13	4862
890.254	4611
890.377	4653
890.501	4550
890.624	4489
890.748	4615
890.871	4497
890.995	4424
891.118	4360
891.241	4504
891.364	4527
891.488	4645
891.611	4466
891.734	4588
891.857	4550
891.98	4577
892.103	4634
892.226	4603
892.349	4565
892.471	4451
892.594	4500
892.717	4580
892.839	4546
892.962	4607
893.085	4668
893.207	4577
893.33	4443
893.452	4508
893.575	4691
893.697	4584
893.819	4850
893.941	4839
894.064	4744
894.186	4573
894.308	4558
894.43	4721
894.552	4847
894.674	4752
894.796	4565
894.918	4618
895.04	4592
895.161	4702
895.283	4675
895.405	4592
895.526	4626
895.648	4672
895.769	4679
895.891	4683
896.012	4717
896.134	4683
896.255	4664
896.376	4687
896.498	4596
896.619	4694
896.74	4618
896.861	4656
896.982	4866
897.103	5083
897.224	4877
897.345	4755
897.466	4649
897.587	4755
897.708	4831
897.828	4759
897.949	4603
898.07	4554
898.19	4626
898.311	4752
898.431	4656
898.552	4748
898.672	4812
898.792	4790
898.913	4748
899.033	4653
899.153	4519
899.273	4405
899.393	4535
899.513	4466
899.633	4519
899.753	4538
899.873	4504
899.993	4523
900.113	4573
900.232	4561
900.352	4558
900.472	4485
900.591	4394
900.711	4421
900.83	4424
900.95	4641
901.069	4733
901.189	4573
901.308	4394
901.427	4341
901.546	4367
901.665	4432
901.784	4550
901.904	4371
902.023	4333
902.141	4188
902.26	4207
902.379	4329
902.498	4230
902.617	4204
902.735	4409
902.854	4398
902.973	4356
903.091	4200
903.21	4272
903.328	4295
903.446	4287
903.565	4246
903.683	4356
903.801	4287
903.919	4363
904.038	4417
904.156	4322
904.274	4428
904.392	4409
904.51	4424
904.627	4531
904.745	4588
904.863	4618
904.981	4413
905.098	4348
905.216	4379
905.334	4474
905.451	4436
905.569	4440
905.686	4565
905.803	4577
905.921	4417
906.038	4561
906.155	4485
906.272	4360
906.389	4443
906.506	4367
906.623	4390
906.74	4394
906.857	4333
906.974	4363
907.091	4584
907.208	4683
907.324	4565
907.441	4550
907.557	4318
907.674	4310
907.79	4333
907.907	4432
908.023	4493
908.139	4462
908.256	4455
908.372	4440
908.488	4436
908.604	4341
908.72	4325
908.836	4398
908.952	4383
909.068	4447
909.184	4519
909.3	4497
909.415	4535
909.531	4584
909.647	4344
909.762	4363
909.878	4306
909.993	4424
910.108	4367
910.224	4402
910.339	4512
910.454	4371
910.57	4371
910.685	4295
910.8	4656
910.915	4599
911.03	4489
911.145	4329
911.259	4310
911.374	4405
911.489	4261
911.604	4268
911.718	4185
911.833	4177
911.947	4093
912.062	4032
912.176	4230
912.291	4249
912.405	4242
912.519	4440
912.633	4497
912.748	4371
912.862	4299
912.976	4200
913.09	4074
913.204	4150
913.318	4234
913.431	4333
913.545	4394
913.659	4462
913.772	4303
913.886	4215
914	4223
914.113	4413
914.226	4455
914.34	4386
914.453	4211
914.566	4462
914.68	4306
914.793	4299
914.906	4158
915.019	4150
915.132	4116
915.245	4162
915.358	4215
915.47	4249
915.583	4272
915.696	4280
915.809	4417
915.921	4375
916.034	4265
916.146	4265
916.259	4204
916.371	4367
916.483	4341
916.595	4249
916.708	4287
916.82	4287
916.932	4295
917.044	4325
917.156	4325
917.268	4192
917.38	4230
917.491	4242
917.603	4303
917.715	4383
917.826	4451
917.938	4314
918.049	4246
918.161	4337
918.272	4523
918.384	4519
918.495	4459
918.606	4318
918.717	4276
918.828	4318
918.939	4379
919.05	4249
919.161	4356
919.272	4158
919.383	4192
919.494	4398
919.604	4607
919.715	4447
919.826	4417
919.936	4413
920.047	4504
920.157	4485
920.267	4694
920.378	4542
920.488	4508
920.598	4767
920.708	4904
920.818	4774
920.928	4782
921.038	4946
921.148	4953
921.258	4596
921.368	4558
921.477	4527
921.587	4474
921.697	4367
921.806	4573
921.916	4485
922.025	4284
922.134	4268
922.244	4242
922.353	4360
922.462	4162
922.571	4150
922.68	4078
922.789	4021
922.898	4093
923.007	4017
923.116	4158
923.224	4116
923.333	4090
923.442	4055
923.55	4025
923.659	4086
923.767	4154
923.876	4093
923.984	4173
924.092	4021
924.201	4131
924.309	4158
924.417	4154
924.525	4086
924.633	4150
924.741	5124
924.849	3953
924.956	4200
925.064	3991
925.172	3941
925.279	3975
925.387	4109
925.494	4131
925.602	4310
925.709	4246
925.816	4055
925.924	4135
926.031	4261
926.138	4181
926.245	4295
926.352	4116
926.459	4265
926.566	4337
926.673	4185
926.779	4139
926.886	4078
926.993	4029
927.099	4006
927.206	3979
927.312	3994
927.419	4128
927.525	4128
927.631	4200
927.737	3983
927.843	4032
927.95	3896
928.056	4002
928.162	4059
928.267	4112
928.373	4778
928.479	4120
928.585	3907
928.69	4093
928.796	4074
928.901	4086
929.007	3884
929.112	4063
929.218	4002
929.323	3941
929.428	3968
929.533	4181
929.638	3945
929.743	4006
929.848	4090
929.953	4082
930.058	3991
930.163	3800
930.267	3865
930.372	4029
930.477	3838
930.581	4109
930.685	4025
930.79	3865
930.894	3987
930.998	3922
931.103	4063
931.207	3728
931.311	3759
931.415	3701
931.519	3591
931.623	3610
