Data from test_V78500241_600.txt Node
Date: Fri Mar 25 16:53:10 CST 2022
User: usil
Spectrometer: V785-0024
Trigger mode: 0
Integration Time (sec): 4.000000E-1
Scans to average: 1
Nonlinearity correction enabled: false
Boxcar width: 0
Storing dark spectrum: false
XAxis mode: Wavelengths
Number of Pixels in Spectrum: 1024
>>>>>Begin Spectral Data<<<<<
801.071	8031
801.214	8027
801.356	7917
801.499	7849
801.641	7769
801.783	7902
801.926	7997
802.068	8027
802.211	7974
802.353	8020
802.496	7883
802.638	7955
802.78	7860
802.923	7932
803.065	7875
803.208	7803
803.35	7993
803.492	8043
803.635	8103
803.777	8039
803.919	8142
804.061	8381
804.204	8123
804.346	8039
804.488	7944
804.63	8145
804.773	7970
804.915	8103
805.057	8229
805.199	8202
805.341	8282
805.483	8279
805.626	8206
805.768	8153
805.91	8221
806.052	8149
806.194	8073
806.336	8294
806.478	8084
806.62	8069
806.762	8111
806.904	8279
807.046	8503
807.188	8377
807.33	8305
807.472	8313
807.614	8138
807.756	8107
807.898	8035
808.04	7868
808.182	7947
808.324	7890
808.465	7932
808.607	8001
808.749	8081
808.891	8202
809.033	8332
809.174	8145
809.316	8024
809.458	8027
809.6	7970
809.741	7883
809.883	8065
810.025	8073
810.166	8054
810.308	7955
810.45	7982
810.591	7887
810.733	7708
810.875	7662
811.016	7559
811.158	7502
811.299	7586
811.441	7712
811.582	7651
811.724	7590
811.865	7544
812.007	7521
812.148	7601
812.29	7620
812.431	7674
812.573	7849
812.714	8020
812.855	8161
812.997	8187
813.138	8279
813.279	8256
813.421	8111
813.562	7978
813.703	7951
813.845	7780
813.986	7480
814.127	7384
814.268	7293
814.41	7190
814.551	7179
814.692	7145
814.833	7034
814.974	7050
815.115	7034
815.256	7034
815.397	6947
815.539	6973
815.68	6840
815.821	6810
815.962	6897
816.103	6798
816.244	6745
816.385	6635
816.526	6665
816.666	6521
816.807	6300
816.948	6433
817.089	6460
817.23	6448
817.371	6388
817.512	6372
817.653	6388
817.793	6319
817.934	6429
818.075	6426
818.216	6410
818.356	6422
818.497	6228
818.638	6098
818.778	6133
818.919	6148
819.06	6171
819.2	6357
819.341	6281
819.481	6372
819.622	6456
819.762	6734
819.903	6719
820.043	6604
820.184	6532
820.324	6544
820.465	6627
820.605	6593
820.746	6616
820.886	6490
821.026	6662
821.167	6662
821.307	6734
821.447	6768
821.588	6642
821.728	6471
821.868	6483
822.008	6281
822.149	6334
822.289	6380
822.429	6133
822.569	6038
822.709	6155
822.849	5912
822.99	5863
823.13	5931
823.27	5851
823.41	5779
823.55	5756
823.69	5729
823.83	5775
823.97	5688
824.11	5558
824.25	5482
824.389	5532
824.529	5585
824.669	5486
824.809	5630
824.949	5642
825.089	5661
825.228	5585
825.368	5368
825.508	5326
825.648	5345
825.787	5395
825.927	5364
826.067	5307
826.206	5307
826.346	5395
826.485	5410
826.625	5376
826.765	5497
826.904	5455
827.044	5269
827.183	5220
827.323	5094
827.462	5231
827.601	5185
827.741	5231
827.88	5223
828.02	5075
828.159	5280
828.298	5216
828.437	5376
828.577	5265
828.716	5463
828.855	5292
828.994	5147
829.134	5155
829.273	5185
829.412	5143
829.551	5094
829.69	5201
829.829	5265
829.968	5307
830.107	5265
830.246	5296
830.385	5193
830.524	5155
830.663	5056
830.802	5006
830.941	4889
831.08	4904
831.219	5022
831.357	4972
831.496	5124
831.635	4927
831.774	4831
831.913	4831
832.051	4729
832.19	4774
832.329	4828
832.467	4733
832.606	4660
832.744	4744
832.883	4721
833.022	4664
833.16	4786
833.299	4797
833.437	4752
833.576	4816
833.714	4850
833.852	4919
833.991	4908
834.129	4961
834.267	4995
834.406	4892
834.544	4949
834.682	4968
834.821	4942
834.959	5121
835.097	5014
835.235	5121
835.373	5071
835.511	5079
835.65	5041
835.788	4987
835.926	4892
836.064	4923
836.202	4862
836.34	5170
836.478	5204
836.615	5090
836.753	5223
836.891	5258
837.029	5254
837.167	5201
837.305	5105
837.443	5136
837.58	5010
837.718	5235
837.856	5140
837.993	5102
838.131	5258
838.269	5258
838.406	5181
838.544	5136
838.681	5018
838.819	4984
838.956	4866
839.094	4915
839.231	4987
839.369	5056
839.506	5410
839.643	5288
839.781	5064
839.918	4991
840.055	5090
840.193	5113
840.33	5079
840.467	5151
840.604	5109
840.742	5406
840.879	5045
841.016	5102
841.153	5105
841.29	5379
841.427	5376
841.564	5326
841.701	5395
841.838	5269
841.975	5250
842.112	5250
842.249	5155
842.385	5102
842.522	5337
842.659	5128
842.796	5159
842.933	5227
843.069	5140
843.206	5159
843.343	5273
843.479	5239
843.616	5242
843.752	5037
843.889	4980
844.025	5189
844.162	5018
844.298	5189
844.435	5102
844.571	5045
844.708	5208
844.844	5296
844.98	5315
845.117	5220
845.253	5136
845.389	5045
845.525	5109
845.661	5162
845.798	5018
845.934	5079
846.07	5006
846.206	5132
846.342	5288
846.478	5197
846.614	5003
846.75	4953
846.886	4961
847.022	5102
847.158	4984
847.294	5094
847.429	5071
847.565	5086
847.701	5349
847.837	4824
847.972	4820
848.108	4934
848.244	4927
848.379	4763
848.515	4733
848.65	4687
848.786	4771
848.921	4809
849.057	4862
849.192	4930
849.328	4797
849.463	4843
849.598	4793
849.734	4778
849.869	4698
850.004	4611
850.14	4687
850.275	4607
850.41	4531
850.545	4565
850.68	4634
850.815	4641
850.95	4660
851.085	4854
851.22	4694
851.355	4664
851.49	4637
851.625	4626
851.76	4626
851.895	4550
852.03	4523
852.165	4649
852.299	4714
852.434	4793
852.569	4698
852.703	4801
852.838	4816
852.973	4873
853.107	4904
853.242	4702
853.376	4622
853.511	4523
853.645	4584
853.78	4774
853.914	4656
854.048	4664
854.183	4615
854.317	4691
854.451	4843
854.585	4668
854.72	4641
854.854	4809
854.988	4565
855.122	4649
855.256	4512
855.39	4717
855.524	4763
855.658	4694
855.792	4710
855.926	4733
856.06	4691
856.194	4793
856.327	4687
856.461	4615
856.595	4630
856.729	4630
856.862	4793
856.996	4691
857.13	4755
857.263	4717
857.397	4763
857.53	4645
857.664	4710
857.797	4752
857.931	4755
858.064	4679
858.197	4740
858.331	4637
858.464	4588
858.597	4565
858.731	4615
858.864	4660
858.997	4580
859.13	4630
859.263	4622
859.396	4721
859.529	4588
859.662	4565
859.795	4512
859.928	4649
860.061	4778
860.194	4778
860.327	4577
860.46	4561
860.592	4714
860.725	4763
860.858	4755
860.99	4580
861.123	4500
861.256	4516
861.388	4603
861.521	5414
861.653	4485
861.786	4432
861.918	4428
862.05	4542
862.183	4569
862.315	4542
862.447	4672
862.58	4550
862.712	4390
862.844	4257
862.976	4493
863.108	4462
863.24	4854
863.372	4314
863.504	4409
863.636	4386
863.768	4440
863.9	4424
864.032	4352
864.164	4367
864.296	4443
864.428	4538
864.559	4561
864.691	4516
864.823	4538
864.954	4512
865.086	4489
865.217	4443
865.349	4398
865.48	4474
865.612	4421
865.743	4584
865.875	4455
866.006	4394
866.137	4497
866.269	4455
866.4	4432
866.531	4390
866.662	4417
866.793	4432
866.924	4428
867.055	4508
867.186	4432
867.317	4390
867.448	4424
867.579	4375
867.71	4421
867.841	4383
867.972	4478
868.103	4466
868.233	4428
868.364	4447
868.495	4497
868.625	4653
868.756	4721
868.886	4558
869.017	4637
869.147	4774
869.278	4729
869.408	4672
869.539	4637
869.669	4656
869.799	4603
869.929	4729
870.06	4740
870.19	4953
870.32	4942
870.45	4965
870.58	5010
870.71	5075
870.84	5121
870.97	4946
871.1	4896
871.23	5136
871.36	5124
871.489	5018
871.619	5060
871.749	5094
871.879	5170
872.008	5159
872.138	5052
872.267	5029
872.397	4828
872.526	4782
872.656	4752
872.785	4778
872.915	4942
873.044	4995
873.173	4946
873.303	4968
873.432	4957
873.561	4927
873.69	4870
873.819	4790
873.948	4930
874.077	4801
874.206	4740
874.335	4801
874.464	4900
874.593	5014
874.722	4999
874.851	5083
874.979	5025
875.108	5037
875.237	4873
875.365	4870
875.494	4889
875.623	4972
875.751	4797
875.88	4854
876.008	4984
876.136	4999
876.265	5162
876.393	5299
876.521	5201
876.65	5223
876.778	5098
876.906	5052
877.034	5014
877.162	5010
877.29	4984
877.418	5064
877.546	5067
877.674	5033
877.802	4999
877.93	4995
878.058	4949
878.185	4900
878.313	4938
878.441	4896
878.568	4824
878.696	4847
878.824	4949
878.951	5003
879.079	5083
879.206	5303
879.333	5117
879.461	4976
879.588	4995
879.715	5124
879.842	5231
879.97	4999
880.097	4790
880.224	4729
880.351	4843
880.478	4820
880.605	4786
880.732	4835
880.859	5083
880.986	4900
881.112	4835
881.239	4744
881.366	4706
881.493	4500
881.619	4558
881.746	4580
881.872	4634
881.999	4588
882.125	4679
882.252	4759
882.378	4812
882.505	4953
882.631	4805
882.757	4641
882.883	4733
883.01	4736
883.136	4656
883.262	4588
883.388	4607
883.514	4816
883.64	4854
883.766	4714
883.892	4649
884.018	4687
884.143	4873
884.269	4987
884.395	4691
884.52	4603
884.646	4626
884.772	4538
884.897	4523
885.023	4656
885.148	4725
885.274	4889
885.399	4797
885.524	4710
885.65	4679
885.775	4717
885.9	4691
886.025	4828
886.15	4729
886.275	4679
886.4	4615
886.525	4694
886.65	4691
886.775	4710
886.9	4980
887.025	5022
887.149	4767
887.274	4626
887.399	4565
887.523	4580
887.648	4596
887.773	4569
887.897	4755
888.021	4786
888.146	4706
888.27	4797
888.395	4927
888.519	4839
888.643	4870
888.767	4847
888.891	4675
889.015	4645
889.139	4656
889.263	4630
889.387	4763
889.511	4889
889.635	4831
889.759	4641
889.883	4706
890.006	4740
890.13	4839
890.254	4641
890.377	4694
890.501	4550
890.624	4580
890.748	4634
890.871	4565
890.995	4436
891.118	4394
891.241	4588
891.364	4577
891.488	4687
891.611	4546
891.734	4561
891.857	4694
891.98	4573
892.103	4717
892.226	4645
892.349	4584
892.471	4470
892.594	4550
892.717	4630
892.839	4573
892.962	4592
893.085	4691
893.207	4649
893.33	4531
893.452	4577
893.575	4702
893.697	4558
893.819	4824
893.941	4839
894.064	4812
894.186	4622
894.308	4615
894.43	4755
894.552	4862
894.674	4858
894.796	4596
894.918	4618
895.04	4622
895.161	4763
895.283	4744
895.405	4611
895.526	4679
895.648	4744
895.769	4717
895.891	4763
896.012	4778
896.134	4778
896.255	4736
896.376	4691
896.498	4630
896.619	4752
896.74	4702
896.861	4714
896.982	4984
897.103	5102
897.224	4866
897.345	4774
897.466	4691
897.587	4831
897.708	4866
897.828	4790
897.949	4706
898.07	4611
898.19	4717
898.311	4881
898.431	4759
898.552	4733
898.672	4805
898.792	4873
898.913	4782
899.033	4675
899.153	4512
899.273	4455
899.393	4531
899.513	4546
899.633	4561
899.753	4603
899.873	4569
899.993	4634
900.113	4542
900.232	4569
900.352	4618
900.472	4500
900.591	4440
900.711	4519
900.83	4474
900.95	4668
901.069	4733
901.189	4588
901.308	4421
901.427	4337
901.546	4402
901.665	4519
901.784	4516
901.904	4436
902.023	4337
902.141	4188
902.26	4246
902.379	4394
902.498	4280
902.617	4249
902.735	4386
902.854	4462
902.973	4337
903.091	4265
903.21	4261
903.328	4337
903.446	4284
903.565	4284
903.683	4432
903.801	4329
903.919	4421
904.038	4421
904.156	4337
904.274	4508
904.392	4417
904.51	4451
904.627	4535
904.745	4630
904.863	4653
904.981	4447
905.098	4402
905.216	4413
905.334	4478
905.451	4421
905.569	4459
905.686	4618
905.803	4603
905.921	4436
906.038	4596
906.155	4531
906.272	4447
906.389	4512
906.506	4390
906.623	4436
906.74	4428
906.857	4341
906.974	4390
907.091	4542
907.208	4694
907.324	4546
907.441	4523
907.557	4356
907.674	4386
907.79	4383
907.907	4398
908.023	4508
908.139	4485
908.256	4481
908.372	4481
908.488	4485
908.604	4443
908.72	4348
908.836	4409
908.952	4402
909.068	4440
909.184	4611
909.3	4538
909.415	4649
909.531	4535
909.647	4409
909.762	4375
909.878	4352
909.993	4428
910.108	4459
910.224	4440
910.339	4519
910.454	4455
910.57	4367
910.685	4344
910.8	4733
910.915	4603
911.03	4550
911.145	4360
911.259	4363
911.374	4398
911.489	4341
911.604	4295
911.718	4211
911.833	4257
911.947	4124
912.062	4101
912.176	4257
912.291	4261
912.405	4303
912.519	4489
912.633	4561
912.748	4360
912.862	4329
912.976	4268
913.09	4150
913.204	4230
913.318	4280
913.431	4432
913.545	4428
913.659	4409
913.772	4394
913.886	4280
914	4261
914.113	4428
914.226	4421
914.34	4394
914.453	4310
914.566	4489
914.68	4318
914.793	4352
914.906	4196
915.019	4143
915.132	4128
915.245	4249
915.358	4295
915.47	4261
915.583	4310
915.696	4363
915.809	4432
915.921	4493
916.034	4287
916.146	4322
916.259	4257
916.371	4432
916.483	4405
916.595	4272
916.708	4379
916.82	4337
916.932	4352
917.044	4424
917.156	4344
917.268	4242
917.38	4295
917.491	4261
917.603	4341
917.715	4478
917.826	4485
917.938	4360
918.049	4249
918.161	4405
918.272	4569
918.384	4546
918.495	4447
918.606	4352
918.717	4287
918.828	4363
918.939	4424
919.05	4295
919.161	4398
919.272	4150
919.383	4253
919.494	4440
919.604	4702
919.715	4481
919.826	4363
919.936	4424
920.047	4569
920.157	4527
920.267	4717
920.378	4573
920.488	4508
920.598	4740
920.708	4915
920.818	4843
920.928	4744
921.038	4961
921.148	4984
921.258	4645
921.368	4607
921.477	4565
921.587	4558
921.697	4405
921.806	4558
921.916	4478
922.025	4291
922.134	4291
922.244	4230
922.353	4371
922.462	4177
922.571	4185
922.68	3998
922.789	4017
922.898	4059
923.007	4025
923.116	4105
923.224	4101
923.333	4097
923.442	4002
923.55	3979
923.659	4036
923.767	4128
923.876	4002
923.984	4147
924.092	4025
924.201	4093
924.309	4090
924.417	4158
924.525	4109
924.633	4112
924.741	5128
924.849	3953
924.956	4192
925.064	4021
925.172	3937
925.279	3987
925.387	4059
925.494	4086
925.602	4223
925.709	4234
925.816	4063
925.924	4135
926.031	4272
926.138	4188
926.245	4234
926.352	4101
926.459	4268
926.566	4356
926.673	4162
926.779	4109
926.886	4135
926.993	4055
927.099	3983
927.206	3956
927.312	3956
927.419	4090
927.525	4002
927.631	4097
927.737	3994
927.843	3937
927.95	3861
928.056	3994
928.162	4032
928.267	4074
928.373	4691
928.479	4139
928.585	3899
928.69	4059
928.796	4093
928.901	4032
929.007	3884
929.112	4025
929.218	4036
929.323	3964
929.428	3972
929.533	4181
929.638	3937
929.743	4002
929.848	4048
929.953	4032
930.058	3953
930.163	3759
930.267	3854
930.372	3994
930.477	3838
930.581	4048
930.685	3949
930.79	3854
930.894	3937
930.998	3873
931.103	4051
931.207	3720
931.311	3717
931.415	3694
931.519	3549
931.623	3557
