Data from test_V78500241_519.txt Node
Date: Fri Mar 25 16:52:36 CST 2022
User: usil
Spectrometer: V785-0024
Trigger mode: 0
Integration Time (sec): 4.000000E-1
Scans to average: 1
Nonlinearity correction enabled: false
Boxcar width: 0
Storing dark spectrum: false
XAxis mode: Wavelengths
Number of Pixels in Spectrum: 1024
>>>>>Begin Spectral Data<<<<<
801.071	8027
801.214	8016
801.356	7906
801.499	7833
801.641	7833
801.783	7837
801.926	8054
802.068	8035
802.211	8027
802.353	8058
802.496	7906
802.638	7936
802.78	7940
802.923	7868
803.065	7879
803.208	7883
803.35	7989
803.492	8065
803.635	8149
803.777	7997
803.919	8199
804.061	8492
804.204	8081
804.346	8058
804.488	8001
804.63	8077
804.773	8050
804.915	8130
805.057	8263
805.199	8199
805.341	8294
805.483	8328
805.626	8191
805.768	8088
805.91	8206
806.052	8214
806.194	8142
806.336	8362
806.478	8240
806.62	8069
806.762	8153
806.904	8233
807.046	8377
807.188	8400
807.33	8225
807.472	8252
807.614	8115
807.756	8149
807.898	7963
808.04	7967
808.182	8027
808.324	7906
808.465	7936
808.607	8016
808.749	8107
808.891	8252
809.033	8282
809.174	8218
809.316	8043
809.458	8031
809.6	8035
809.741	8073
809.883	8024
810.025	8096
810.166	8046
810.308	8119
810.45	7993
810.591	7959
810.733	7757
810.875	7670
811.016	7537
811.158	7540
811.299	7609
811.441	7784
811.582	7746
811.724	7632
811.865	7594
812.007	7647
812.148	7632
812.29	7616
812.431	7799
812.573	7864
812.714	8024
812.855	8225
812.997	8263
813.138	8355
813.279	8328
813.421	8195
813.562	8119
813.703	7963
813.845	7811
813.986	7552
814.127	7362
814.268	7354
814.41	7335
814.551	7183
814.692	7217
814.833	7080
814.974	7107
815.115	7194
815.256	7015
815.397	7027
815.539	7053
815.68	6886
815.821	6821
815.962	6852
816.103	6840
816.244	6833
816.385	6623
816.526	6646
816.666	6551
816.807	6422
816.948	6525
817.089	6517
817.23	6407
817.371	6426
817.512	6403
817.653	6460
817.793	6448
817.934	6471
818.075	6532
818.216	6426
818.356	6475
818.497	6342
818.638	6133
818.778	6167
818.919	6155
819.06	6197
819.2	6296
819.341	6342
819.481	6353
819.622	6517
819.762	6726
819.903	6696
820.043	6563
820.184	6612
820.324	6665
820.465	6703
820.605	6669
820.746	6711
820.886	6513
821.026	6669
821.167	6787
821.307	6798
821.447	6791
821.588	6692
821.728	6593
821.868	6517
822.008	6331
822.149	6372
822.289	6372
822.429	6167
822.569	6060
822.709	6155
822.849	5973
822.99	5935
823.13	5935
823.27	5935
823.41	5798
823.55	5824
823.69	5821
823.83	5832
823.97	5714
824.11	5516
824.25	5520
824.389	5566
824.529	5627
824.669	5592
824.809	5619
824.949	5718
825.089	5668
825.228	5581
825.368	5398
825.508	5387
825.648	5372
825.787	5444
825.927	5433
826.067	5360
826.206	5303
826.346	5387
826.485	5448
826.625	5395
826.765	5577
826.904	5516
827.044	5303
827.183	5265
827.323	5204
827.462	5235
827.601	5128
827.741	5212
827.88	5258
828.02	5124
828.159	5296
828.298	5299
828.437	5395
828.577	5330
828.716	5562
828.855	5376
828.994	5212
829.134	5181
829.273	5261
829.412	5170
829.551	5132
829.69	5189
829.829	5254
829.968	5311
830.107	5315
830.246	5311
830.385	5220
830.524	5197
830.663	5071
830.802	4980
830.941	4934
831.08	4927
831.219	5014
831.357	4984
831.496	5181
831.635	4961
831.774	4900
831.913	4843
832.051	4744
832.19	4774
832.329	4839
832.467	4694
832.606	4641
832.744	4725
832.883	4774
833.022	4740
833.16	4778
833.299	4885
833.437	4835
833.576	4850
833.714	4915
833.852	4873
833.991	4919
834.129	4946
834.267	4968
834.406	4972
834.544	4965
834.682	5018
834.821	4938
834.959	5181
835.097	4980
835.235	5147
835.373	5071
835.511	5143
835.65	5075
835.788	5060
835.926	4927
836.064	4961
836.202	4938
836.34	5261
836.478	5239
836.615	5128
836.753	5242
836.891	5341
837.029	5288
837.167	5174
837.305	5166
837.443	5201
837.58	5109
837.718	5269
837.856	5181
837.993	5155
838.131	5231
838.269	5151
838.406	5254
838.544	5208
838.681	5052
838.819	5033
838.956	4885
839.094	4900
839.231	5010
839.369	5117
839.506	5459
839.643	5307
839.781	5128
839.918	5067
840.055	5105
840.193	5090
840.33	5128
840.467	5159
840.604	5201
840.742	5436
840.879	5075
841.016	5090
841.153	5105
841.29	5395
841.427	5318
841.564	5360
841.701	5372
841.838	5258
841.975	5258
842.112	5273
842.249	5193
842.385	5140
842.522	5379
842.659	5208
842.796	5178
842.933	5258
843.069	5220
843.206	5220
843.343	5315
843.479	5212
843.616	5311
843.752	5075
843.889	5071
844.025	5258
844.162	5048
844.298	5235
844.435	5121
844.571	5067
844.708	5227
844.844	5315
844.98	5330
845.117	5337
845.253	5178
845.389	5075
845.525	5220
845.661	5181
845.798	5090
845.934	5155
846.07	5052
846.206	5220
846.342	5315
846.478	5193
846.614	5006
846.75	4991
846.886	4980
847.022	5181
847.158	5033
847.294	5083
847.429	5178
847.565	5109
847.701	5379
847.837	4850
847.972	4828
848.108	4934
848.244	4984
848.379	4797
848.515	4767
848.65	4740
848.786	4782
848.921	4774
849.057	4866
849.192	4881
849.328	4900
849.463	4854
849.598	4801
849.734	4748
849.869	4710
850.004	4683
850.14	4664
850.275	4615
850.41	4580
850.545	4603
850.68	4580
850.815	4618
850.95	4679
851.085	4896
851.22	4759
851.355	4710
851.49	4660
851.625	4664
851.76	4679
851.895	4554
852.03	4535
852.165	4656
852.299	4736
852.434	4786
852.569	4763
852.703	4767
852.838	4820
852.973	4961
853.107	4908
853.242	4763
853.376	4691
853.511	4573
853.645	4645
853.78	4805
853.914	4729
854.048	4714
854.183	4649
854.317	4687
854.451	4828
854.585	4702
854.72	4626
854.854	4759
854.988	4622
855.122	4649
855.256	4565
855.39	4637
855.524	4763
855.658	4744
855.792	4774
855.926	4759
856.06	4778
856.194	4793
856.327	4710
856.461	4649
856.595	4626
856.729	4626
856.862	4778
856.996	4736
857.13	4748
857.263	4778
857.397	4885
857.53	4664
857.664	4710
857.797	4736
857.931	4793
858.064	4679
858.197	4748
858.331	4668
858.464	4634
858.597	4580
858.731	4645
858.864	4683
858.997	4603
859.13	4664
859.263	4694
859.396	4675
859.529	4580
859.662	4611
859.795	4573
859.928	4672
860.061	4755
860.194	4774
860.327	4626
860.46	4588
860.592	4748
860.725	4698
860.858	4740
860.99	4588
861.123	4531
861.256	4523
861.388	4603
861.521	5433
861.653	4577
861.786	4443
861.918	4462
862.05	4558
862.183	4546
862.315	4573
862.447	4637
862.58	4554
862.712	4371
862.844	4322
862.976	4478
863.108	4417
863.24	4896
863.372	4352
863.504	4443
863.636	4417
863.768	4447
863.9	4413
864.032	4371
864.164	4436
864.296	4489
864.428	4577
864.559	4592
864.691	4607
864.823	4512
864.954	4584
865.086	4519
865.217	4485
865.349	4424
865.48	4455
865.612	4485
865.743	4630
865.875	4489
866.006	4462
866.137	4428
866.269	4451
866.4	4481
866.531	4504
866.662	4398
866.793	4409
866.924	4394
867.055	4508
867.186	4470
867.317	4493
867.448	4398
867.579	4360
867.71	4394
867.841	4375
867.972	4447
868.103	4481
868.233	4462
868.364	4436
868.495	4546
868.625	4687
868.756	4725
868.886	4592
869.017	4664
869.147	4801
869.278	4755
869.408	4679
869.539	4656
869.669	4725
869.799	4710
869.929	4767
870.06	4797
870.19	5025
870.32	4980
870.45	4965
870.58	5003
870.71	5132
870.84	5102
870.97	4984
871.1	4934
871.23	5117
871.36	5121
871.489	5094
871.619	5094
871.749	5136
871.879	5117
872.008	5239
872.138	5094
872.267	5018
872.397	4873
872.526	4793
872.656	4721
872.785	4839
872.915	4904
873.044	5052
873.173	4968
873.303	5018
873.432	4987
873.561	5003
873.69	4908
873.819	4889
873.948	4953
874.077	4778
874.206	4831
874.335	4797
874.464	4949
874.593	5090
874.722	5014
874.851	5075
874.979	5086
875.108	5067
875.237	4923
875.365	4870
875.494	4885
875.623	4953
875.751	4873
875.88	4892
876.008	4942
876.136	4995
876.265	5246
876.393	5292
876.521	5280
876.65	5204
876.778	5193
876.906	5105
877.034	5033
877.162	5075
877.29	5075
877.418	5090
877.546	5037
877.674	5060
877.802	4995
877.93	5083
878.058	4968
878.185	4885
878.313	4999
878.441	4938
878.568	4816
878.696	4839
878.824	5014
878.951	4961
879.079	5170
879.206	5330
879.333	5121
879.461	4987
879.588	4968
879.715	5090
879.842	5258
879.97	5006
880.097	4759
880.224	4740
880.351	4847
880.478	4828
880.605	4820
880.732	4797
880.859	5117
880.986	4930
881.112	4915
881.239	4736
881.366	4698
881.493	4611
881.619	4634
881.746	4664
881.872	4683
881.999	4668
882.125	4698
882.252	4809
882.378	4774
882.505	4987
882.631	4771
882.757	4687
882.883	4721
883.01	4759
883.136	4706
883.262	4618
883.388	4615
883.514	4896
883.64	4824
883.766	4824
883.892	4672
884.018	4736
884.143	4923
884.269	5010
884.395	4679
884.52	4660
884.646	4660
884.772	4618
884.897	4588
885.023	4668
885.148	4801
885.274	4885
885.399	4797
885.524	4694
885.65	4694
885.775	4763
885.9	4721
886.025	4839
886.15	4793
886.275	4717
886.4	4668
886.525	4721
886.65	4679
886.775	4691
886.9	4961
887.025	5029
887.149	4816
887.274	4683
887.399	4592
887.523	4580
887.648	4569
887.773	4588
887.897	4744
888.021	4763
888.146	4675
888.27	4854
888.395	4873
888.519	4805
888.643	4824
888.767	4847
888.891	4656
889.015	4596
889.139	4752
889.263	4607
889.387	4694
889.511	4930
889.635	4805
889.759	4645
889.883	4672
890.006	4778
890.13	4870
890.254	4649
890.377	4675
890.501	4546
890.624	4527
890.748	4641
890.871	4508
890.995	4447
891.118	4379
891.241	4508
891.364	4531
891.488	4634
891.611	4478
891.734	4569
891.857	4645
891.98	4542
892.103	4653
892.226	4554
892.349	4497
892.471	4436
892.594	4561
892.717	4641
892.839	4596
892.962	4679
893.085	4679
893.207	4637
893.33	4478
893.452	4531
893.575	4649
893.697	4596
893.819	4759
893.941	4828
894.064	4755
894.186	4649
894.308	4588
894.43	4725
894.552	4816
894.674	4721
894.796	4580
894.918	4649
895.04	4577
895.161	4675
895.283	4733
895.405	4592
895.526	4637
895.648	4687
895.769	4721
895.891	4679
896.012	4736
896.134	4748
896.255	4634
896.376	4675
896.498	4615
896.619	4653
896.74	4622
896.861	4656
896.982	4881
897.103	5064
897.224	4862
897.345	4702
897.466	4717
897.587	4774
897.708	4854
897.828	4782
897.949	4687
898.07	4565
898.19	4626
898.311	4866
898.431	4679
898.552	4717
898.672	4850
898.792	4797
898.913	4771
899.033	4653
899.153	4538
899.273	4440
899.393	4550
899.513	4546
899.633	4546
899.753	4542
899.873	4527
899.993	4599
900.113	4493
900.232	4588
900.352	4535
900.472	4481
900.591	4409
900.711	4447
900.83	4424
900.95	4653
901.069	4641
901.189	4561
901.308	4383
901.427	4337
901.546	4363
901.665	4481
901.784	4470
901.904	4356
902.023	4337
902.141	4192
902.26	4177
902.379	4295
902.498	4234
902.617	4219
902.735	4344
902.854	4421
902.973	4325
903.091	4265
903.21	4169
903.328	4303
903.446	4318
903.565	4249
903.683	4390
903.801	4249
903.919	4451
904.038	4462
904.156	4322
904.274	4466
904.392	4409
904.51	4462
904.627	4443
904.745	4565
904.863	4618
904.981	4402
905.098	4299
905.216	4337
905.334	4447
905.451	4417
905.569	4455
905.686	4580
905.803	4584
905.921	4379
906.038	4550
906.155	4485
906.272	4371
906.389	4447
906.506	4352
906.623	4371
906.74	4413
906.857	4242
906.974	4341
907.091	4550
907.208	4714
907.324	4588
907.441	4489
907.557	4367
907.674	4375
907.79	4295
907.907	4409
908.023	4436
908.139	4470
908.256	4440
908.372	4523
908.488	4424
908.604	4424
908.72	4295
908.836	4386
908.952	4390
909.068	4424
909.184	4554
909.3	4527
909.415	4531
909.531	4569
909.647	4360
909.762	4386
909.878	4322
909.993	4413
910.108	4375
910.224	4398
910.339	4440
910.454	4390
910.57	4341
910.685	4272
910.8	4668
910.915	4603
911.03	4478
911.145	4341
911.259	4337
911.374	4379
911.489	4322
911.604	4341
911.718	4169
911.833	4196
911.947	4112
912.062	4044
912.176	4200
912.291	4246
912.405	4284
912.519	4474
912.633	4485
912.748	4348
912.862	4325
912.976	4173
913.09	4105
913.204	4192
913.318	4276
913.431	4344
913.545	4394
913.659	4436
913.772	4413
913.886	4238
914	4227
914.113	4383
914.226	4443
914.34	4390
914.453	4234
914.566	4478
914.68	4287
914.793	4322
914.906	4173
915.019	4150
915.132	4090
915.245	4162
915.358	4257
915.47	4238
915.583	4238
915.696	4284
915.809	4402
915.921	4413
916.034	4272
916.146	4299
916.259	4185
916.371	4421
916.483	4333
916.595	4257
916.708	4341
916.82	4257
916.932	4337
917.044	4325
917.156	4341
917.268	4227
917.38	4268
917.491	4284
917.603	4344
917.715	4447
917.826	4451
917.938	4341
918.049	4207
918.161	4424
918.272	4569
918.384	4561
918.495	4447
918.606	4310
918.717	4280
918.828	4363
918.939	4375
919.05	4268
919.161	4348
919.272	4131
919.383	4211
919.494	4485
919.604	4611
919.715	4470
919.826	4322
919.936	4398
920.047	4519
920.157	4546
920.267	4706
920.378	4542
920.488	4527
920.598	4725
920.708	4885
920.818	4782
920.928	4759
921.038	4953
921.148	4927
921.258	4588
921.368	4508
921.477	4554
921.587	4436
921.697	4386
921.806	4535
921.916	4440
922.025	4268
922.134	4310
922.244	4291
922.353	4306
922.462	4166
922.571	4120
922.68	4021
922.789	4006
922.898	4013
923.007	3975
923.116	4128
923.224	4055
923.333	4143
923.442	3991
923.55	3998
923.659	4006
923.767	4067
923.876	3994
923.984	4101
924.092	4040
924.201	4074
924.309	4097
924.417	4131
924.525	4074
924.633	4082
924.741	5048
924.849	3918
924.956	4120
925.064	3972
925.172	3934
925.279	3987
925.387	4051
925.494	4078
925.602	4238
925.709	4181
925.816	4025
925.924	4143
926.031	4249
926.138	4185
926.245	4219
926.352	4139
926.459	4211
926.566	4314
926.673	4181
926.779	4074
926.886	4059
926.993	4040
927.099	3949
927.206	3945
927.312	3937
927.419	4032
927.525	4055
927.631	4093
927.737	3964
927.843	3945
927.95	3869
928.056	3937
928.162	3934
928.267	4078
928.373	4691
928.479	4082
928.585	3896
928.69	4013
928.796	4029
928.901	3911
929.007	3865
929.112	4010
929.218	4021
929.323	3945
929.428	3968
929.533	4090
929.638	3922
929.743	3956
929.848	4010
929.953	4036
930.058	3884
930.163	3747
930.267	3850
930.372	3975
930.477	3789
930.581	4071
930.685	3941
930.79	3819
930.894	3876
930.998	3915
931.103	4036
931.207	3663
931.311	3671
931.415	3686
931.519	3481
931.623	3576
