Data from test_V78500241_2692.txt Node
Date: Fri Mar 25 17:07:43 CST 2022
User: usil
Spectrometer: V785-0024
Trigger mode: 0
Integration Time (sec): 4.000000E-1
Scans to average: 1
Nonlinearity correction enabled: false
Boxcar width: 0
Storing dark spectrum: false
XAxis mode: Wavelengths
Number of Pixels in Spectrum: 1024
>>>>>Begin Spectral Data<<<<<
801.071	8062
801.214	7974
801.356	7909
801.499	7856
801.641	7757
801.783	7799
801.926	7928
802.068	7898
802.211	8001
802.353	7989
802.496	7833
802.638	7925
802.78	7932
802.923	7925
803.065	7826
803.208	7784
803.35	7974
803.492	8115
803.635	8183
803.777	8073
803.919	8157
804.061	8450
804.204	8191
804.346	8069
804.488	7917
804.63	8073
804.773	7982
804.915	8058
805.057	8290
805.199	8210
805.341	8157
805.483	8240
805.626	8225
805.768	8088
805.91	8244
806.052	8191
806.194	8069
806.336	8267
806.478	8077
806.62	8054
806.762	8119
806.904	8233
807.046	8423
807.188	8339
807.33	8309
807.472	8271
807.614	8153
807.756	8119
807.898	8008
808.04	7868
808.182	7906
808.324	7894
808.465	7936
808.607	8084
808.749	8157
808.891	8252
809.033	8282
809.174	8202
809.316	8058
809.458	8081
809.6	7963
809.741	8046
809.883	8008
810.025	8115
810.166	8107
810.308	7909
810.45	8039
810.591	7864
810.733	7685
810.875	7628
811.016	7521
811.158	7502
811.299	7601
811.441	7715
811.582	7689
811.724	7537
811.865	7636
812.007	7571
812.148	7559
812.29	7605
812.431	7753
812.573	7898
812.714	8005
812.855	8149
812.997	8191
813.138	8366
813.279	8199
813.421	8088
813.562	8024
813.703	7921
813.845	7769
813.986	7457
814.127	7289
814.268	7285
814.41	7179
814.551	7206
814.692	7168
814.833	7065
814.974	7103
815.115	7114
815.256	6977
815.397	6890
815.539	6882
815.68	6802
815.821	6810
815.962	6882
816.103	6821
816.244	6711
816.385	6578
816.526	6604
816.666	6433
816.807	6254
816.948	6403
817.089	6521
817.23	6437
817.371	6391
817.512	6380
817.653	6361
817.793	6376
817.934	6380
818.075	6506
818.216	6403
818.356	6456
818.497	6190
818.638	6102
818.778	6175
818.919	6171
819.06	6178
819.2	6266
819.341	6296
819.481	6376
819.622	6479
819.762	6749
819.903	6688
820.043	6642
820.184	6547
820.324	6589
820.465	6700
820.605	6681
820.746	6642
820.886	6509
821.026	6589
821.167	6692
821.307	6757
821.447	6707
821.588	6692
821.728	6540
821.868	6513
822.008	6289
822.149	6384
822.289	6327
822.429	6133
822.569	6098
822.709	6079
822.849	5912
822.99	5958
823.13	5863
823.27	5882
823.41	5821
823.55	5828
823.69	5798
823.83	5756
823.97	5680
824.11	5539
824.25	5501
824.389	5589
824.529	5566
824.669	5505
824.809	5638
824.949	5638
825.089	5611
825.228	5554
825.368	5433
825.508	5376
825.648	5322
825.787	5402
825.927	5433
826.067	5357
826.206	5296
826.346	5376
826.485	5395
826.625	5448
826.765	5573
826.904	5539
827.044	5261
827.183	5170
827.323	5174
827.462	5254
827.601	5185
827.741	5216
827.88	5254
828.02	5174
828.159	5258
828.298	5334
828.437	5395
828.577	5364
828.716	5505
828.855	5360
828.994	5174
829.134	5193
829.273	5204
829.412	5220
829.551	5193
829.69	5197
829.829	5269
829.968	5395
830.107	5277
830.246	5284
830.385	5227
830.524	5170
830.663	5132
830.802	5056
830.941	4942
831.08	4934
831.219	5018
831.357	5010
831.496	5208
831.635	4961
831.774	4892
831.913	4904
832.051	4774
832.19	4824
832.329	4927
832.467	4729
832.606	4641
832.744	4816
832.883	4839
833.022	4744
833.16	4843
833.299	4862
833.437	4877
833.576	4908
833.714	4892
833.852	4889
833.991	4965
834.129	5018
834.267	4987
834.406	4923
834.544	5025
834.682	4980
834.821	4999
834.959	5140
835.097	5003
835.235	5162
835.373	5128
835.511	5132
835.65	5067
835.788	5086
835.926	4896
836.064	4930
836.202	4930
836.34	5162
836.478	5265
836.615	5124
836.753	5273
836.891	5341
837.029	5258
837.167	5261
837.305	5140
837.443	5143
837.58	5136
837.718	5239
837.856	5197
837.993	5136
838.131	5280
838.269	5273
838.406	5231
838.544	5181
838.681	5090
838.819	5071
838.956	4930
839.094	4953
839.231	5037
839.369	5083
839.506	5482
839.643	5254
839.781	5086
839.918	5075
840.055	5121
840.193	5143
840.33	5189
840.467	5143
840.604	5185
840.742	5543
840.879	5102
841.016	5098
841.153	5181
841.29	5376
841.427	5360
841.564	5311
841.701	5376
841.838	5311
841.975	5254
842.112	5322
842.249	5208
842.385	5155
842.522	5395
842.659	5193
842.796	5155
842.933	5166
843.069	5143
843.206	5235
843.343	5303
843.479	5261
843.616	5307
843.752	5079
843.889	5067
844.025	5258
844.162	5071
844.298	5235
844.435	5109
844.571	5060
844.708	5242
844.844	5311
844.98	5357
845.117	5307
845.253	5121
845.389	5121
845.525	5227
845.661	5208
845.798	5060
845.934	5155
846.07	5060
846.206	5239
846.342	5360
846.478	5166
846.614	5075
846.75	4991
846.886	4961
847.022	5155
847.158	5090
847.294	5086
847.429	5102
847.565	5064
847.701	5345
847.837	4930
847.972	4854
848.108	4949
848.244	5003
848.379	4805
848.515	4771
848.65	4801
848.786	4790
848.921	4812
849.057	4892
849.192	4984
849.328	4889
849.463	4873
849.598	4843
849.734	4812
849.869	4721
850.004	4649
850.14	4683
850.275	4615
850.41	4554
850.545	4630
850.68	4622
850.815	4687
850.95	4656
851.085	4839
851.22	4805
851.355	4748
851.49	4618
851.625	4694
851.76	4710
851.895	4550
852.03	4577
852.165	4698
852.299	4729
852.434	4797
852.569	4797
852.703	4786
852.838	4908
852.973	4881
853.107	4968
853.242	4778
853.376	4725
853.511	4588
853.645	4679
853.78	4881
853.914	4721
854.048	4721
854.183	4660
854.317	4721
854.451	4854
854.585	4702
854.72	4664
854.854	4752
854.988	4615
855.122	4656
855.256	4542
855.39	4702
855.524	4805
855.658	4729
855.792	4710
855.926	4698
856.06	4790
856.194	4831
856.327	4721
856.461	4649
856.595	4626
856.729	4664
856.862	4786
856.996	4755
857.13	4748
857.263	4801
857.397	4828
857.53	4721
857.664	4755
857.797	4801
857.931	4771
858.064	4679
858.197	4801
858.331	4664
858.464	4660
858.597	4565
858.731	4630
858.864	4656
858.997	4645
859.13	4691
859.263	4653
859.396	4721
859.529	4592
859.662	4577
859.795	4596
859.928	4653
860.061	4748
860.194	4816
860.327	4637
860.46	4622
860.592	4733
860.725	4748
860.858	4733
860.99	4611
861.123	4554
861.256	4508
861.388	4637
861.521	5318
861.653	4542
861.786	4413
861.918	4481
862.05	4573
862.183	4641
862.315	4618
862.447	4649
862.58	4550
862.712	4424
862.844	4383
862.976	4500
863.108	4485
863.24	4744
863.372	4318
863.504	4489
863.636	4459
863.768	4489
863.9	4447
864.032	4375
864.164	4394
864.296	4519
864.428	4584
864.559	4565
864.691	4558
864.823	4588
864.954	4523
865.086	4561
865.217	4462
865.349	4462
865.48	4504
865.612	4519
865.743	4637
865.875	4455
866.006	4466
866.137	4500
866.269	4428
866.4	4470
866.531	4489
866.662	4436
866.793	4424
866.924	4459
867.055	4603
867.186	4447
867.317	4474
867.448	4413
867.579	4417
867.71	4428
867.841	4440
867.972	4466
868.103	4443
868.233	4489
868.364	4459
868.495	4470
868.625	4694
868.756	4733
868.886	4626
869.017	4687
869.147	4809
869.278	4786
869.408	4725
869.539	4634
869.669	4694
869.799	4710
869.929	4797
870.06	4759
870.19	4976
870.32	4915
870.45	4965
870.58	5052
870.71	5162
870.84	5170
870.97	4972
871.1	4938
871.23	5147
871.36	5147
871.489	5041
871.619	5109
871.749	5128
871.879	5132
872.008	5181
872.138	5094
872.267	4991
872.397	4904
872.526	4824
872.656	4771
872.785	4828
872.915	4972
873.044	5029
873.173	4976
873.303	4965
873.432	4995
873.561	5025
873.69	4892
873.819	4892
873.948	4934
874.077	4839
874.206	4782
874.335	4843
874.464	4999
874.593	5071
874.722	4972
874.851	5105
874.979	5098
875.108	5048
875.237	4900
875.365	4900
875.494	4908
875.623	4991
875.751	4854
875.88	4858
876.008	4968
876.136	5025
876.265	5227
876.393	5330
876.521	5273
876.65	5239
876.778	5166
876.906	5121
877.034	5086
877.162	5037
877.29	5041
877.418	5086
877.546	5075
877.674	5067
877.802	5022
877.93	5037
878.058	4930
878.185	4915
878.313	4995
878.441	4968
878.568	4820
878.696	4915
878.824	5014
878.951	5022
879.079	5147
879.206	5288
879.333	5098
879.461	4976
879.588	5014
879.715	5124
879.842	5235
879.97	5010
880.097	4816
880.224	4767
880.351	4782
880.478	4870
880.605	4835
880.732	4866
880.859	5105
880.986	4949
881.112	4934
881.239	4820
881.366	4653
881.493	4634
881.619	4592
881.746	4653
881.872	4740
881.999	4698
882.125	4679
882.252	4828
882.378	4850
882.505	5010
882.631	4866
882.757	4672
882.883	4721
883.01	4706
883.136	4637
883.262	4630
883.388	4611
883.514	4801
883.64	4850
883.766	4805
883.892	4702
884.018	4763
884.143	4896
884.269	5045
884.395	4710
884.52	4653
884.646	4653
884.772	4630
884.897	4580
885.023	4740
885.148	4793
885.274	4854
885.399	4850
885.524	4763
885.65	4717
885.775	4771
885.9	4748
886.025	4843
886.15	4809
886.275	4729
886.4	4675
886.525	4729
886.65	4710
886.775	4687
886.9	4908
887.025	5022
887.149	4801
887.274	4664
887.399	4634
887.523	4626
887.648	4656
887.773	4599
887.897	4782
888.021	4824
888.146	4698
888.27	4854
888.395	4873
888.519	4831
888.643	4835
888.767	4793
888.891	4668
889.015	4611
889.139	4630
889.263	4630
889.387	4767
889.511	4877
889.635	4812
889.759	4645
889.883	4675
890.006	4717
890.13	4850
890.254	4611
890.377	4706
890.501	4550
890.624	4531
890.748	4641
890.871	4527
890.995	4447
891.118	4462
891.241	4512
891.364	4542
891.488	4645
891.611	4481
891.734	4558
891.857	4626
891.98	4592
892.103	4645
892.226	4630
892.349	4561
892.471	4447
892.594	4535
892.717	4622
892.839	4622
892.962	4607
893.085	4683
893.207	4596
893.33	4455
893.452	4508
893.575	4668
893.697	4599
893.819	4778
893.941	4850
894.064	4793
894.186	4626
894.308	4603
894.43	4736
894.552	4877
894.674	4729
894.796	4558
894.918	4599
895.04	4588
895.161	4733
895.283	4649
895.405	4603
895.526	4637
895.648	4702
895.769	4725
895.891	4736
896.012	4706
896.134	4710
896.255	4683
896.376	4710
896.498	4664
896.619	4660
896.74	4580
896.861	4710
896.982	4919
897.103	5105
897.224	4828
897.345	4706
897.466	4691
897.587	4774
897.708	4835
897.828	4835
897.949	4679
898.07	4508
898.19	4645
898.311	4797
898.431	4702
898.552	4744
898.672	4805
898.792	4854
898.913	4744
899.033	4607
899.153	4481
899.273	4470
899.393	4500
899.513	4569
899.633	4481
899.753	4523
899.873	4519
899.993	4569
900.113	4558
900.232	4607
900.352	4580
900.472	4459
900.591	4409
900.711	4508
900.83	4447
900.95	4607
901.069	4675
901.189	4538
901.308	4375
901.427	4303
901.546	4413
901.665	4497
901.784	4519
901.904	4409
902.023	4341
902.141	4166
902.26	4169
902.379	4322
902.498	4223
902.617	4268
902.735	4428
902.854	4405
902.973	4394
903.091	4223
903.21	4223
903.328	4310
903.446	4272
903.565	4303
903.683	4386
903.801	4306
903.919	4436
904.038	4500
904.156	4356
904.274	4489
904.392	4413
904.51	4447
904.627	4462
904.745	4592
904.863	4740
904.981	4474
905.098	4333
905.216	4398
905.334	4508
905.451	4516
905.569	4459
905.686	4618
905.803	4630
905.921	4447
906.038	4599
906.155	4493
906.272	4447
906.389	4508
906.506	4436
906.623	4409
906.74	4409
906.857	4356
906.974	4436
907.091	4599
907.208	4759
907.324	4649
907.441	4561
907.557	4386
907.674	4398
907.79	4371
907.907	4436
908.023	4535
908.139	4546
908.256	4478
908.372	4512
908.488	4485
908.604	4379
908.72	4352
908.836	4421
908.952	4493
909.068	4478
909.184	4679
909.3	4527
909.415	4603
909.531	4577
909.647	4478
909.762	4432
909.878	4405
909.993	4527
910.108	4470
910.224	4424
910.339	4500
910.454	4436
910.57	4417
910.685	4352
910.8	4698
910.915	4630
911.03	4531
911.145	4348
911.259	4348
911.374	4421
911.489	4379
911.604	4310
911.718	4200
911.833	4246
911.947	4116
912.062	4093
912.176	4238
912.291	4257
912.405	4257
912.519	4455
912.633	4550
912.748	4413
912.862	4402
912.976	4234
913.09	4177
913.204	4207
913.318	4318
913.431	4440
913.545	4432
913.659	4462
913.772	4421
913.886	4272
914	4246
914.113	4398
914.226	4489
914.34	4455
914.453	4291
914.566	4459
914.68	4318
914.793	4383
914.906	4246
915.019	4162
915.132	4071
915.245	4223
915.358	4280
915.47	4284
915.583	4280
915.696	4310
915.809	4402
915.921	4421
916.034	4299
916.146	4322
916.259	4253
916.371	4413
916.483	4363
916.595	4329
916.708	4348
916.82	4352
916.932	4371
917.044	4375
917.156	4409
917.268	4287
917.38	4299
917.491	4337
917.603	4398
917.715	4440
917.826	4462
917.938	4405
918.049	4246
918.161	4443
918.272	4622
918.384	4558
918.495	4470
918.606	4322
918.717	4314
918.828	4390
918.939	4379
919.05	4303
919.161	4325
919.272	4158
919.383	4246
919.494	4455
919.604	4675
919.715	4485
919.826	4371
919.936	4421
920.047	4538
920.157	4573
920.267	4740
920.378	4599
920.488	4535
920.598	4801
920.708	4892
920.818	4793
920.928	4774
921.038	4972
921.148	4919
921.258	4664
921.368	4584
921.477	4519
921.587	4527
921.697	4360
921.806	4531
921.916	4478
922.025	4318
922.134	4363
922.244	4242
922.353	4325
922.462	4173
922.571	4147
922.68	4048
922.789	3983
922.898	4093
923.007	4044
923.116	4166
923.224	4074
923.333	4101
923.442	4067
923.55	3998
923.659	4063
923.767	4055
923.876	4040
923.984	4166
924.092	4036
924.201	4063
924.309	4177
924.417	4154
924.525	4112
924.633	4112
924.741	5113
924.849	3922
924.956	4147
925.064	3998
925.172	3915
925.279	4017
925.387	4093
925.494	4055
925.602	4268
925.709	4211
925.816	4017
925.924	4154
926.031	4207
926.138	4196
926.245	4223
926.352	4078
926.459	4303
926.566	4341
926.673	4169
926.779	4135
926.886	4143
926.993	4002
927.099	4029
927.206	3949
927.312	3964
927.419	4097
927.525	4071
927.631	4120
927.737	3983
927.843	3972
927.95	3899
928.056	3987
928.162	4044
928.267	4086
928.373	4607
928.479	4128
928.585	3846
928.69	4097
928.796	4105
928.901	3972
929.007	3854
929.112	4010
929.218	3987
929.323	4002
929.428	3941
929.533	4120
929.638	3956
929.743	3979
929.848	4097
929.953	4002
930.058	3972
930.163	3797
930.267	3857
930.372	4036
930.477	3819
930.581	4139
930.685	3926
930.79	3865
930.894	3918
930.998	3857
931.103	4067
931.207	3743
931.311	3720
931.415	3686
931.519	3538
931.623	3572
