Data from test_V78500241_2450.txt Node
Date: Fri Mar 25 17:06:02 CST 2022
User: usil
Spectrometer: V785-0024
Trigger mode: 0
Integration Time (sec): 4.000000E-1
Scans to average: 1
Nonlinearity correction enabled: false
Boxcar width: 0
Storing dark spectrum: false
XAxis mode: Wavelengths
Number of Pixels in Spectrum: 1024
>>>>>Begin Spectral Data<<<<<
801.071	8035
801.214	7925
801.356	7864
801.499	7761
801.641	7807
801.783	7852
801.926	7959
802.068	7959
802.211	8031
802.353	7974
802.496	7784
802.638	7833
802.78	7841
802.923	7883
803.065	7784
803.208	7833
803.35	7978
803.492	8092
803.635	8157
803.777	7989
803.919	8233
804.061	8476
804.204	8069
804.346	8046
804.488	7974
804.63	8062
804.773	8039
804.915	8096
805.057	8282
805.199	8195
805.341	8187
805.483	8309
805.626	8259
805.768	8168
805.91	8187
806.052	8161
806.194	8123
806.336	8313
806.478	8107
806.62	8062
806.762	8142
806.904	8244
807.046	8446
807.188	8396
807.33	8259
807.472	8267
807.614	8183
807.756	8176
807.898	8073
808.04	7856
808.182	7887
808.324	7837
808.465	7928
808.607	8073
808.749	8073
808.891	8229
809.033	8309
809.174	8202
809.316	8031
809.458	8081
809.6	8031
809.741	8081
809.883	7970
810.025	8088
810.166	8065
810.308	8024
810.45	7997
810.591	7909
810.733	7693
810.875	7632
811.016	7495
811.158	7449
811.299	7601
811.441	7723
811.582	7685
811.724	7594
811.865	7441
812.007	7609
812.148	7586
812.29	7655
812.431	7742
812.573	7856
812.714	7986
812.855	8107
812.997	8164
813.138	8305
813.279	8142
813.421	8115
813.562	7974
813.703	7864
813.845	7719
813.986	7491
814.127	7266
814.268	7194
814.41	7232
814.551	7137
814.692	7270
814.833	7042
814.974	7072
815.115	7122
815.256	6947
815.397	6894
815.539	6985
815.68	6825
815.821	6768
815.962	6856
816.103	6856
816.244	6688
816.385	6578
816.526	6669
816.666	6513
816.807	6350
816.948	6445
817.089	6391
817.23	6475
817.371	6384
817.512	6410
817.653	6384
817.793	6361
817.934	6346
818.075	6418
818.216	6445
818.356	6384
818.497	6281
818.638	6121
818.778	6140
818.919	6175
819.06	6205
819.2	6300
819.341	6300
819.481	6323
819.622	6521
819.762	6700
819.903	6707
820.043	6635
820.184	6631
820.324	6593
820.465	6707
820.605	6673
820.746	6635
820.886	6532
821.026	6719
821.167	6696
821.307	6818
821.447	6833
821.588	6684
821.728	6585
821.868	6494
822.008	6315
822.149	6365
822.289	6357
822.429	6239
822.569	6049
822.709	6129
822.849	5893
822.99	5923
823.13	5988
823.27	5912
823.41	5809
823.55	5786
823.69	5775
823.83	5794
823.97	5703
824.11	5535
824.25	5455
824.389	5532
824.529	5573
824.669	5547
824.809	5642
824.949	5668
825.089	5554
825.228	5532
825.368	5414
825.508	5345
825.648	5349
825.787	5391
825.927	5387
826.067	5299
826.206	5250
826.346	5349
826.485	5387
826.625	5376
826.765	5558
826.904	5493
827.044	5254
827.183	5220
827.323	5136
827.462	5280
827.601	5162
827.741	5212
827.88	5193
828.02	5064
828.159	5197
828.298	5330
828.437	5364
828.577	5288
828.716	5493
828.855	5337
828.994	5159
829.134	5136
829.273	5174
829.412	5151
829.551	5147
829.69	5132
829.829	5231
829.968	5395
830.107	5299
830.246	5258
830.385	5231
830.524	5147
830.663	5071
830.802	5052
830.941	4930
831.08	4927
831.219	4980
831.357	5006
831.496	5147
831.635	4972
831.774	4896
831.913	4820
832.051	4740
832.19	4763
832.329	4904
832.467	4683
832.606	4664
832.744	4729
832.883	4656
833.022	4714
833.16	4752
833.299	4809
833.437	4797
833.576	4854
833.714	4877
833.852	4843
833.991	4847
834.129	4976
834.267	4919
834.406	4870
834.544	5022
834.682	4968
834.821	4961
834.959	5162
835.097	4991
835.235	5128
835.373	5083
835.511	5105
835.65	5006
835.788	5025
835.926	4885
836.064	4877
836.202	4915
836.34	5147
836.478	5212
836.615	5109
836.753	5197
836.891	5254
837.029	5227
837.167	5193
837.305	5170
837.443	5121
837.58	5094
837.718	5239
837.856	5235
837.993	5181
838.131	5223
838.269	5204
838.406	5201
838.544	5147
838.681	4972
838.819	4984
838.956	4873
839.094	4908
839.231	4976
839.369	5079
839.506	5406
839.643	5239
839.781	5041
839.918	5025
840.055	5037
840.193	5090
840.33	5083
840.467	5147
840.604	5212
840.742	5448
840.879	5067
841.016	5094
841.153	5174
841.29	5337
841.427	5337
841.564	5322
841.701	5341
841.838	5299
841.975	5231
842.112	5292
842.249	5185
842.385	5132
842.522	5277
842.659	5220
842.796	5098
842.933	5197
843.069	5102
843.206	5155
843.343	5334
843.479	5208
843.616	5235
843.752	4999
843.889	5075
844.025	5250
844.162	4980
844.298	5235
844.435	5083
844.571	5014
844.708	5223
844.844	5261
844.98	5288
845.117	5265
845.253	5147
845.389	5060
845.525	5185
845.661	5109
845.798	5048
845.934	5155
846.07	5083
846.206	5239
846.342	5280
846.478	5181
846.614	5041
846.75	4980
846.886	4923
847.022	5208
847.158	5048
847.294	5090
847.429	5067
847.565	5029
847.701	5296
847.837	4885
847.972	4816
848.108	4953
848.244	4965
848.379	4778
848.515	4729
848.65	4721
848.786	4725
848.921	4759
849.057	4877
849.192	4885
849.328	4801
849.463	4831
849.598	4755
849.734	4759
849.869	4656
850.004	4672
850.14	4626
850.275	4622
850.41	4542
850.545	4538
850.68	4569
850.815	4649
850.95	4618
851.085	4793
851.22	4790
851.355	4668
851.49	4584
851.625	4649
851.76	4649
851.895	4546
852.03	4512
852.165	4656
852.299	4736
852.434	4771
852.569	4759
852.703	4767
852.838	4809
852.973	4927
853.107	4866
853.242	4698
853.376	4733
853.511	4519
853.645	4615
853.78	4824
853.914	4675
854.048	4729
854.183	4672
854.317	4672
854.451	4839
854.585	4687
854.72	4637
854.854	4710
854.988	4599
855.122	4664
855.256	4489
855.39	4725
855.524	4816
855.658	4733
855.792	4717
855.926	4763
856.06	4725
856.194	4790
856.327	4698
856.461	4626
856.595	4611
856.729	4634
856.862	4733
856.996	4717
857.13	4733
857.263	4733
857.397	4805
857.53	4660
857.664	4748
857.797	4729
857.931	4752
858.064	4698
858.197	4725
858.331	4687
858.464	4615
858.597	4508
858.731	4634
858.864	4603
858.997	4611
859.13	4702
859.263	4641
859.396	4672
859.529	4542
859.662	4554
859.795	4531
859.928	4637
860.061	4733
860.194	4774
860.327	4592
860.46	4542
860.592	4748
860.725	4721
860.858	4702
860.99	4592
861.123	4535
861.256	4558
861.388	4649
861.521	5311
861.653	4470
861.786	4421
861.918	4436
862.05	4523
862.183	4516
862.315	4630
862.447	4645
862.58	4546
862.712	4440
862.844	4375
862.976	4489
863.108	4459
863.24	4710
863.372	4325
863.504	4413
863.636	4333
863.768	4481
863.9	4409
864.032	4356
864.164	4428
864.296	4481
864.428	4588
864.559	4565
864.691	4516
864.823	4481
864.954	4447
865.086	4485
865.217	4440
865.349	4375
865.48	4462
865.612	4466
865.743	4637
865.875	4481
866.006	4436
866.137	4443
866.269	4459
866.4	4447
866.531	4451
866.662	4390
866.793	4394
866.924	4443
867.055	4481
867.186	4417
867.317	4409
867.448	4402
867.579	4386
867.71	4436
867.841	4367
867.972	4432
868.103	4440
868.233	4462
868.364	4443
868.495	4451
868.625	4668
868.756	4774
868.886	4569
869.017	4611
869.147	4778
869.278	4744
869.408	4668
869.539	4637
869.669	4672
869.799	4668
869.929	4740
870.06	4706
870.19	4961
870.32	4885
870.45	4930
870.58	4987
870.71	5155
870.84	5162
870.97	4987
871.1	4850
871.23	5128
871.36	5140
871.489	5045
871.619	5037
871.749	5067
871.879	5147
872.008	5143
872.138	5090
872.267	4968
872.397	4877
872.526	4778
872.656	4675
872.785	4801
872.915	4987
873.044	5090
873.173	4953
873.303	4980
873.432	4927
873.561	4995
873.69	4850
873.819	4831
873.948	4873
874.077	4812
874.206	4740
874.335	4752
874.464	4942
874.593	5060
874.722	4968
874.851	5132
874.979	5067
875.108	4987
875.237	4889
875.365	4862
875.494	4927
875.623	5025
875.751	4835
875.88	4919
876.008	4976
876.136	5025
876.265	5212
876.393	5299
876.521	5239
876.65	5239
876.778	5151
876.906	5094
877.034	5033
877.162	4987
877.29	4999
877.418	5090
877.546	5014
877.674	5033
877.802	4980
877.93	5041
878.058	4934
878.185	4873
878.313	4995
878.441	4957
878.568	4778
878.696	4858
878.824	4946
878.951	5018
879.079	5159
879.206	5296
879.333	5117
879.461	4942
879.588	5029
879.715	5105
879.842	5235
879.97	5033
880.097	4767
880.224	4767
880.351	4820
880.478	4797
880.605	4793
880.732	4786
880.859	5102
880.986	4881
881.112	4904
881.239	4740
881.366	4683
881.493	4634
881.619	4546
881.746	4641
881.872	4615
881.999	4645
882.125	4683
882.252	4816
882.378	4809
882.505	4965
882.631	4793
882.757	4634
882.883	4698
883.01	4778
883.136	4694
883.262	4596
883.388	4634
883.514	4847
883.64	4870
883.766	4835
883.892	4664
884.018	4729
884.143	4896
884.269	5003
884.395	4656
884.52	4603
884.646	4622
884.772	4626
884.897	4542
885.023	4679
885.148	4755
885.274	4793
885.399	4812
885.524	4687
885.65	4721
885.775	4698
885.9	4767
886.025	4881
886.15	4752
886.275	4664
886.4	4664
886.525	4740
886.65	4675
886.775	4683
886.9	4965
887.025	5037
887.149	4835
887.274	4645
887.399	4538
887.523	4607
887.648	4584
887.773	4599
887.897	4736
888.021	4820
888.146	4656
888.27	4831
888.395	4877
888.519	4809
888.643	4805
888.767	4850
888.891	4660
889.015	4615
889.139	4691
889.263	4630
889.387	4759
889.511	4835
889.635	4820
889.759	4618
889.883	4637
890.006	4755
890.13	4805
890.254	4603
890.377	4641
890.501	4538
890.624	4554
890.748	4649
890.871	4508
890.995	4394
891.118	4405
891.241	4546
891.364	4504
891.488	4656
891.611	4527
891.734	4535
891.857	4573
891.98	4500
892.103	4637
892.226	4584
892.349	4500
892.471	4470
892.594	4531
892.717	4573
892.839	4569
892.962	4588
893.085	4622
893.207	4584
893.33	4436
893.452	4489
893.575	4668
893.697	4558
893.819	4752
893.941	4812
894.064	4733
894.186	4588
894.308	4584
894.43	4752
894.552	4774
894.674	4702
894.796	4615
894.918	4603
895.04	4546
895.161	4687
895.283	4645
895.405	4611
895.526	4668
895.648	4679
895.769	4660
895.891	4725
896.012	4721
896.134	4748
896.255	4687
896.376	4603
896.498	4577
896.619	4672
896.74	4599
896.861	4588
896.982	4900
897.103	5041
897.224	4854
897.345	4698
897.466	4714
897.587	4714
897.708	4793
897.828	4759
897.949	4611
898.07	4527
898.19	4694
898.311	4835
898.431	4645
898.552	4748
898.672	4801
898.792	4797
898.913	4748
899.033	4656
899.153	4512
899.273	4424
899.393	4508
899.513	4527
899.633	4550
899.753	4519
899.873	4512
899.993	4618
900.113	4538
900.232	4611
900.352	4523
900.472	4493
900.591	4341
900.711	4500
900.83	4440
900.95	4607
901.069	4691
901.189	4527
901.308	4352
901.427	4314
901.546	4383
901.665	4485
901.784	4455
901.904	4386
902.023	4329
902.141	4185
902.26	4173
902.379	4291
902.498	4257
902.617	4223
902.735	4379
902.854	4390
902.973	4379
903.091	4238
903.21	4238
903.328	4246
903.446	4234
903.565	4238
903.683	4402
903.801	4268
903.919	4394
904.038	4451
904.156	4280
904.274	4417
904.392	4447
904.51	4451
904.627	4459
904.745	4592
904.863	4584
904.981	4447
905.098	4329
905.216	4363
905.334	4409
905.451	4447
905.569	4443
905.686	4577
905.803	4531
905.921	4390
906.038	4519
906.155	4497
906.272	4367
906.389	4451
906.506	4428
906.623	4390
906.74	4394
906.857	4329
906.974	4413
907.091	4592
907.208	4694
907.324	4561
907.441	4489
907.557	4375
907.674	4341
907.79	4310
907.907	4386
908.023	4470
908.139	4459
908.256	4421
908.372	4447
908.488	4493
908.604	4360
908.72	4303
908.836	4421
908.952	4363
909.068	4436
909.184	4580
909.3	4493
909.415	4611
909.531	4615
909.647	4375
909.762	4337
909.878	4344
909.993	4428
910.108	4386
910.224	4405
910.339	4478
910.454	4413
910.57	4398
910.685	4322
910.8	4649
910.915	4596
911.03	4523
911.145	4371
911.259	4348
911.374	4325
911.489	4280
911.604	4261
911.718	4166
911.833	4192
911.947	4082
912.062	3998
912.176	4196
912.291	4276
912.405	4280
912.519	4527
912.633	4489
912.748	4371
912.862	4276
912.976	4230
913.09	4139
913.204	4192
913.318	4242
913.431	4314
913.545	4363
913.659	4447
913.772	4360
913.886	4215
914	4246
914.113	4341
914.226	4424
914.34	4363
914.453	4291
914.566	4428
914.68	4318
914.793	4337
914.906	4185
915.019	4124
915.132	4067
915.245	4169
915.358	4162
915.47	4234
915.583	4249
915.696	4337
915.809	4390
915.921	4421
916.034	4230
916.146	4230
916.259	4249
916.371	4356
916.483	4356
916.595	4253
916.708	4356
916.82	4318
916.932	4379
917.044	4299
917.156	4295
917.268	4261
917.38	4299
917.491	4261
917.603	4318
917.715	4432
917.826	4436
917.938	4348
918.049	4276
918.161	4405
918.272	4535
918.384	4584
918.495	4508
918.606	4295
918.717	4246
918.828	4318
918.939	4352
919.05	4230
919.161	4287
919.272	4120
919.383	4249
919.494	4485
919.604	4618
919.715	4424
919.826	4348
919.936	4413
920.047	4489
920.157	4462
920.267	4721
920.378	4508
920.488	4466
920.598	4714
920.708	4892
920.818	4710
920.928	4733
921.038	4961
921.148	4968
921.258	4626
921.368	4577
921.477	4531
921.587	4493
921.697	4341
921.806	4519
921.916	4379
922.025	4200
922.134	4287
922.244	4242
922.353	4333
922.462	4181
922.571	4131
922.68	4013
922.789	3975
922.898	4051
923.007	3960
923.116	4101
923.224	4051
923.333	4097
923.442	4021
923.55	3998
923.659	4017
923.767	4109
923.876	3987
923.984	4112
924.092	3960
924.201	4078
924.309	4090
924.417	4097
924.525	3994
924.633	4147
924.741	4999
924.849	3941
924.956	4135
925.064	3979
925.172	3880
925.279	3979
925.387	4025
925.494	4055
925.602	4230
925.709	4207
925.816	4067
925.924	4147
926.031	4219
926.138	4188
926.245	4181
926.352	4143
926.459	4211
926.566	4295
926.673	4135
926.779	4051
926.886	4105
926.993	3956
927.099	3994
927.206	3930
927.312	3945
927.419	4044
927.525	4044
927.631	4074
927.737	3994
927.843	3983
927.95	3835
928.056	3960
928.162	3998
928.267	4055
928.373	4679
928.479	4143
928.585	3896
928.69	4006
928.796	4078
928.901	3960
929.007	3846
929.112	3987
929.218	3953
929.323	3903
929.428	3922
929.533	4090
929.638	3876
929.743	3987
929.848	3968
929.953	3964
930.058	3975
930.163	3789
930.267	3842
930.372	3972
930.477	3800
930.581	4067
930.685	3953
930.79	3804
930.894	3865
930.998	3854
931.103	4036
931.207	3713
931.311	3671
931.415	3660
931.519	3458
931.623	3496
