Data from test_V78500241_635.txt Node
Date: Fri Mar 25 16:53:25 CST 2022
User: usil
Spectrometer: V785-0024
Trigger mode: 0
Integration Time (sec): 4.000000E-1
Scans to average: 1
Nonlinearity correction enabled: false
Boxcar width: 0
Storing dark spectrum: false
XAxis mode: Wavelengths
Number of Pixels in Spectrum: 1024
>>>>>Begin Spectral Data<<<<<
801.071	7978
801.214	7951
801.356	7822
801.499	7761
801.641	7799
801.783	7807
801.926	8024
802.068	7932
802.211	8008
802.353	7963
802.496	7826
802.638	7921
802.78	7955
802.923	7951
803.065	7841
803.208	7826
803.35	7936
803.492	8069
803.635	8176
803.777	7932
803.919	8103
804.061	8404
804.204	8134
804.346	8039
804.488	7978
804.63	8134
804.773	8005
804.915	8062
805.057	8275
805.199	8134
805.341	8233
805.483	8259
805.626	8244
805.768	8176
805.91	8142
806.052	8237
806.194	8077
806.336	8275
806.478	8065
806.62	8031
806.762	8092
806.904	8202
807.046	8427
807.188	8362
807.33	8309
807.472	8366
807.614	8161
807.756	8134
807.898	8005
808.04	7864
808.182	7913
808.324	7887
808.465	7909
808.607	8020
808.749	8100
808.891	8218
809.033	8271
809.174	8168
809.316	8039
809.458	8035
809.6	8001
809.741	7997
809.883	8005
810.025	8096
810.166	8012
810.308	8031
810.45	8008
810.591	7887
810.733	7765
810.875	7632
811.016	7575
811.158	7480
811.299	7594
811.441	7769
811.582	7624
811.724	7575
811.865	7533
812.007	7563
812.148	7567
812.29	7609
812.431	7803
812.573	7830
812.714	7925
812.855	8084
812.997	8195
813.138	8320
813.279	8153
813.421	8145
813.562	8016
813.703	7845
813.845	7830
813.986	7483
814.127	7266
814.268	7274
814.41	7236
814.551	7168
814.692	7126
814.833	7031
814.974	7080
815.115	7129
815.256	7008
815.397	6939
815.539	6928
815.68	6821
815.821	6783
815.962	6844
816.103	6852
816.244	6696
816.385	6578
816.526	6646
816.666	6528
816.807	6311
816.948	6342
817.089	6532
817.23	6403
817.371	6346
817.512	6395
817.653	6399
817.793	6296
817.934	6418
818.075	6471
818.216	6479
818.356	6361
818.497	6171
818.638	6102
818.778	6159
818.919	6072
819.06	6224
819.2	6334
819.341	6300
819.481	6376
819.622	6544
819.762	6772
819.903	6715
820.043	6570
820.184	6517
820.324	6563
820.465	6703
820.605	6673
820.746	6570
820.886	6456
821.026	6669
821.167	6711
821.307	6738
821.447	6703
821.588	6650
821.728	6547
821.868	6464
822.008	6331
822.149	6311
822.289	6361
822.429	6171
822.569	6144
822.709	6102
822.849	5870
822.99	5912
823.13	5931
823.27	5988
823.41	5737
823.55	5756
823.69	5737
823.83	5824
823.97	5665
824.11	5528
824.25	5528
824.389	5535
824.529	5604
824.669	5497
824.809	5592
824.949	5653
825.089	5642
825.228	5554
825.368	5368
825.508	5357
825.648	5322
825.787	5368
825.927	5391
826.067	5273
826.206	5254
826.346	5383
826.485	5383
826.625	5414
826.765	5520
826.904	5478
827.044	5269
827.183	5204
827.323	5102
827.462	5220
827.601	5136
827.741	5204
827.88	5261
828.02	5098
828.159	5311
828.298	5315
828.437	5326
828.577	5265
828.716	5490
828.855	5292
828.994	5212
829.134	5166
829.273	5208
829.412	5056
829.551	5181
829.69	5223
829.829	5208
829.968	5376
830.107	5261
830.246	5239
830.385	5147
830.524	5147
830.663	5075
830.802	4976
830.941	4915
831.08	4854
831.219	5006
831.357	4934
831.496	5147
831.635	4911
831.774	4866
831.913	4797
832.051	4740
832.19	4774
832.329	4854
832.467	4706
832.606	4611
832.744	4710
832.883	4721
833.022	4721
833.16	4744
833.299	4812
833.437	4812
833.576	4801
833.714	4839
833.852	4873
833.991	4858
834.129	4927
834.267	4942
834.406	4919
834.544	4968
834.682	4919
834.821	4934
834.959	5162
835.097	4972
835.235	5128
835.373	5075
835.511	5090
835.65	5014
835.788	5014
835.926	4919
836.064	4862
836.202	4930
836.34	5128
836.478	5147
836.615	5094
836.753	5235
836.891	5261
837.029	5231
837.167	5117
837.305	5136
837.443	5208
837.58	5056
837.718	5315
837.856	5223
837.993	5147
838.131	5212
838.269	5250
838.406	5197
838.544	5166
838.681	5056
838.819	4923
838.956	4923
839.094	4923
839.231	4934
839.369	5048
839.506	5421
839.643	5254
839.781	5090
839.918	4987
840.055	5086
840.193	5124
840.33	5094
840.467	5185
840.604	5117
840.742	5433
840.879	5083
841.016	5045
841.153	5086
841.29	5345
841.427	5315
841.564	5307
841.701	5326
841.838	5258
841.975	5227
842.112	5197
842.249	5132
842.385	5102
842.522	5296
842.659	5189
842.796	5121
842.933	5216
843.069	5140
843.206	5178
843.343	5269
843.479	5269
843.616	5261
843.752	5006
843.889	5018
844.025	5170
844.162	5018
844.298	5227
844.435	5075
844.571	5075
844.708	5197
844.844	5265
844.98	5353
845.117	5261
845.253	5124
845.389	5060
845.525	5170
845.661	5155
845.798	4991
845.934	5117
846.07	5018
846.206	5220
846.342	5334
846.478	5185
846.614	4984
846.75	4999
846.886	4942
847.022	5105
847.158	4961
847.294	5071
847.429	5083
847.565	5052
847.701	5318
847.837	4835
847.972	4812
848.108	4984
848.244	4915
848.379	4725
848.515	4679
848.65	4710
848.786	4725
848.921	4767
849.057	4908
849.192	4927
849.328	4816
849.463	4824
849.598	4736
849.734	4725
849.869	4672
850.004	4577
850.14	4675
850.275	4607
850.41	4573
850.545	4580
850.68	4573
850.815	4607
850.95	4611
851.085	4831
851.22	4778
851.355	4679
851.49	4577
851.625	4637
851.76	4653
851.895	4561
852.03	4561
852.165	4675
852.299	4710
852.434	4729
852.569	4702
852.703	4812
852.838	4839
852.973	4961
853.107	4923
853.242	4744
853.376	4649
853.511	4485
853.645	4649
853.78	4786
853.914	4656
854.048	4694
854.183	4592
854.317	4691
854.451	4805
854.585	4694
854.72	4607
854.854	4763
854.988	4630
855.122	4687
855.256	4489
855.39	4645
855.524	4748
855.658	4725
855.792	4736
855.926	4725
856.06	4755
856.194	4793
856.327	4672
856.461	4637
856.595	4618
856.729	4672
856.862	4774
856.996	4691
857.13	4694
857.263	4786
857.397	4763
857.53	4702
857.664	4721
857.797	4786
857.931	4854
858.064	4641
858.197	4782
858.331	4611
858.464	4622
858.597	4519
858.731	4630
858.864	4607
858.997	4599
859.13	4630
859.263	4691
859.396	4683
859.529	4580
859.662	4588
859.795	4500
859.928	4645
860.061	4790
860.194	4752
860.327	4573
860.46	4588
860.592	4668
860.725	4763
860.858	4706
860.99	4550
861.123	4481
861.256	4538
861.388	4565
861.521	5299
861.653	4489
861.786	4417
861.918	4478
862.05	4512
862.183	4489
862.315	4599
862.447	4641
862.58	4558
862.712	4394
862.844	4341
862.976	4466
863.108	4459
863.24	4835
863.372	4325
863.504	4394
863.636	4432
863.768	4462
863.9	4466
864.032	4405
864.164	4390
864.296	4409
864.428	4512
864.559	4550
864.691	4493
864.823	4523
864.954	4478
865.086	4485
865.217	4481
865.349	4409
865.48	4451
865.612	4478
865.743	4634
865.875	4432
866.006	4409
866.137	4440
866.269	4459
866.4	4459
866.531	4417
866.662	4443
866.793	4409
866.924	4447
867.055	4519
867.186	4436
867.317	4405
867.448	4348
867.579	4371
867.71	4383
867.841	4375
867.972	4459
868.103	4447
868.233	4432
868.364	4451
868.495	4478
868.625	4683
868.756	4698
868.886	4561
869.017	4626
869.147	4805
869.278	4797
869.408	4603
869.539	4603
869.669	4725
869.799	4664
869.929	4740
870.06	4733
870.19	4999
870.32	4911
870.45	4972
870.58	4984
870.71	5048
870.84	5102
870.97	4987
871.1	4892
871.23	5109
871.36	5151
871.489	5033
871.619	5083
871.749	5117
871.879	5105
872.008	5223
872.138	5048
872.267	5025
872.397	4866
872.526	4812
872.656	4733
872.785	4790
872.915	4930
873.044	4991
873.173	4904
873.303	4946
873.432	4942
873.561	4953
873.69	4847
873.819	4885
873.948	4930
874.077	4835
874.206	4778
874.335	4725
874.464	4892
874.593	5003
874.722	4961
874.851	5147
874.979	5052
875.108	5041
875.237	4873
875.365	4923
875.494	4885
875.623	4991
875.751	4904
875.88	4839
876.008	4976
876.136	4995
876.265	5178
876.393	5315
876.521	5277
876.65	5239
876.778	5147
876.906	5060
877.034	5010
877.162	5010
877.29	4999
877.418	5045
877.546	5067
877.674	5067
877.802	4976
877.93	5010
878.058	4881
878.185	4877
878.313	4961
878.441	4957
878.568	4797
878.696	4885
878.824	4908
878.951	5010
879.079	5147
879.206	5261
879.333	5105
879.461	5014
879.588	4991
879.715	5117
879.842	5242
879.97	4965
880.097	4763
880.224	4786
880.351	4771
880.478	4755
880.605	4778
880.732	4797
880.859	5052
880.986	4889
881.112	4892
881.239	4759
881.366	4645
881.493	4630
881.619	4607
881.746	4645
881.872	4630
881.999	4656
882.125	4698
882.252	4809
882.378	4774
882.505	4900
882.631	4854
882.757	4668
882.883	4702
883.01	4702
883.136	4740
883.262	4634
883.388	4577
883.514	4831
883.64	4854
883.766	4782
883.892	4672
884.018	4729
884.143	4915
884.269	5022
884.395	4672
884.52	4622
884.646	4611
884.772	4592
884.897	4538
885.023	4607
885.148	4759
885.274	4870
885.399	4824
885.524	4706
885.65	4694
885.775	4748
885.9	4683
886.025	4862
886.15	4820
886.275	4725
886.4	4664
886.525	4714
886.65	4706
886.775	4618
886.9	4870
887.025	5048
887.149	4793
887.274	4656
887.399	4550
887.523	4577
887.648	4599
887.773	4558
887.897	4736
888.021	4771
888.146	4656
888.27	4862
888.395	4900
888.519	4702
888.643	4824
888.767	4870
888.891	4660
889.015	4596
889.139	4596
889.263	4588
889.387	4748
889.511	4835
889.635	4820
889.759	4637
889.883	4637
890.006	4706
890.13	4824
890.254	4630
890.377	4694
890.501	4535
890.624	4523
890.748	4599
890.871	4512
890.995	4474
891.118	4363
891.241	4474
891.364	4554
891.488	4611
891.611	4527
891.734	4527
891.857	4573
891.98	4615
892.103	4630
892.226	4603
892.349	4512
892.471	4409
892.594	4573
892.717	4584
892.839	4584
892.962	4603
893.085	4668
893.207	4588
893.33	4440
893.452	4493
893.575	4694
893.697	4649
893.819	4831
893.941	4828
894.064	4740
894.186	4561
894.308	4573
894.43	4740
894.552	4812
894.674	4714
894.796	4577
894.918	4554
895.04	4596
895.161	4672
895.283	4645
895.405	4558
895.526	4626
895.648	4675
895.769	4687
895.891	4721
896.012	4698
896.134	4717
896.255	4702
896.376	4618
896.498	4599
896.619	4679
896.74	4577
896.861	4645
896.982	4919
897.103	5086
897.224	4858
897.345	4721
897.466	4683
897.587	4710
897.708	4828
897.828	4801
897.949	4603
898.07	4554
898.19	4656
898.311	4816
898.431	4675
898.552	4721
898.672	4824
898.792	4740
898.913	4733
899.033	4618
899.153	4489
899.273	4413
899.393	4500
899.513	4500
899.633	4527
899.753	4573
899.873	4504
899.993	4558
900.113	4527
900.232	4584
900.352	4500
900.472	4500
900.591	4417
900.711	4497
900.83	4440
900.95	4615
901.069	4679
901.189	4538
901.308	4337
901.427	4272
901.546	4360
901.665	4512
901.784	4478
901.904	4371
902.023	4318
902.141	4196
902.26	4204
902.379	4356
902.498	4253
902.617	4246
902.735	4360
902.854	4398
902.973	4356
903.091	4230
903.21	4230
903.328	4310
903.446	4242
903.565	4306
903.683	4360
903.801	4284
903.919	4402
904.038	4451
904.156	4303
904.274	4440
904.392	4398
904.51	4386
904.627	4455
904.745	4626
904.863	4599
904.981	4379
905.098	4322
905.216	4390
905.334	4424
905.451	4424
905.569	4440
905.686	4546
905.803	4569
905.921	4417
906.038	4580
906.155	4485
906.272	4417
906.389	4459
906.506	4348
906.623	4379
906.74	4451
906.857	4280
906.974	4390
907.091	4561
907.208	4675
907.324	4561
907.441	4542
907.557	4379
907.674	4325
907.79	4371
907.907	4356
908.023	4474
908.139	4470
908.256	4413
908.372	4459
908.488	4443
908.604	4329
908.72	4360
908.836	4333
908.952	4383
909.068	4428
909.184	4558
909.3	4462
909.415	4592
909.531	4504
909.647	4352
909.762	4394
909.878	4314
909.993	4394
910.108	4398
910.224	4462
910.339	4466
910.454	4360
910.57	4375
910.685	4325
910.8	4679
910.915	4622
911.03	4474
911.145	4284
911.259	4333
911.374	4360
911.489	4276
911.604	4299
911.718	4200
911.833	4177
911.947	4071
912.062	4063
912.176	4211
912.291	4219
912.405	4253
912.519	4504
912.633	4500
912.748	4383
912.862	4310
912.976	4181
913.09	4055
913.204	4196
913.318	4227
913.431	4344
913.545	4375
913.659	4459
913.772	4333
913.886	4272
914	4268
914.113	4405
914.226	4428
914.34	4405
914.453	4223
914.566	4375
914.68	4295
914.793	4371
914.906	4131
915.019	4074
915.132	4082
915.245	4162
915.358	4215
915.47	4238
915.583	4200
915.696	4310
915.809	4375
915.921	4379
916.034	4207
916.146	4238
916.259	4177
916.371	4367
916.483	4379
916.595	4238
916.708	4337
916.82	4303
916.932	4341
917.044	4333
917.156	4310
917.268	4219
917.38	4299
917.491	4299
917.603	4394
917.715	4424
917.826	4424
917.938	4310
918.049	4242
918.161	4383
918.272	4508
918.384	4573
918.495	4470
918.606	4299
918.717	4177
918.828	4348
918.939	4348
919.05	4196
919.161	4348
919.272	4143
919.383	4227
919.494	4409
919.604	4653
919.715	4447
919.826	4386
919.936	4394
920.047	4504
920.157	4481
920.267	4694
920.378	4538
920.488	4542
920.598	4687
920.708	4866
920.818	4771
920.928	4797
921.038	4949
921.148	4881
921.258	4634
921.368	4531
921.477	4485
921.587	4432
921.697	4432
921.806	4558
921.916	4436
922.025	4268
922.134	4272
922.244	4196
922.353	4337
922.462	4242
922.571	4101
922.68	3983
922.789	3937
922.898	4051
923.007	4006
923.116	4097
923.224	4017
923.333	4051
923.442	3964
923.55	4002
923.659	4090
923.767	4090
923.876	4002
923.984	4109
924.092	3991
924.201	4086
924.309	4090
924.417	4120
924.525	4082
924.633	4116
924.741	5071
924.849	3915
924.956	4086
925.064	3945
925.172	3918
925.279	3937
925.387	4078
925.494	4078
925.602	4211
925.709	4192
925.816	4017
925.924	4131
926.031	4204
926.138	4143
926.245	4230
926.352	4124
926.459	4219
926.566	4230
926.673	4162
926.779	4139
926.886	4074
926.993	3934
927.099	3964
927.206	3930
927.312	3922
927.419	4071
927.525	4048
927.631	4078
927.737	3964
927.843	3960
927.95	3861
928.056	3964
928.162	4013
928.267	4051
928.373	4668
928.479	4112
928.585	3880
928.69	4044
928.796	4120
928.901	4013
929.007	3857
929.112	4010
929.218	4040
929.323	3953
929.428	3972
929.533	4101
929.638	3922
929.743	3941
929.848	3975
929.953	3975
930.058	3915
930.163	3770
930.267	3873
930.372	3918
930.477	3785
930.581	4097
930.685	3972
930.79	3789
930.894	3888
930.998	3880
931.103	4059
931.207	3724
931.311	3682
931.415	3698
931.519	3504
931.623	3549
