Data from test_V78500241_1259.txt Node
Date: Fri Mar 25 16:57:45 CST 2022
User: usil
Spectrometer: V785-0024
Trigger mode: 0
Integration Time (sec): 4.000000E-1
Scans to average: 1
Nonlinearity correction enabled: false
Boxcar width: 0
Storing dark spectrum: false
XAxis mode: Wavelengths
Number of Pixels in Spectrum: 1024
>>>>>Begin Spectral Data<<<<<
801.071	8054
801.214	8054
801.356	7868
801.499	7780
801.641	7788
801.783	7818
801.926	7894
802.068	7883
802.211	7970
802.353	7986
802.496	7776
802.638	7913
802.78	7879
802.923	7906
803.065	7803
803.208	7913
803.35	7993
803.492	8069
803.635	8149
803.777	8050
803.919	8100
804.061	8457
804.204	8161
804.346	8077
804.488	8043
804.63	8096
804.773	7997
804.915	8081
805.057	8229
805.199	8142
805.341	8263
805.483	8279
805.626	8199
805.768	8153
805.91	8202
806.052	8221
806.194	8073
806.336	8214
806.478	8100
806.62	8100
806.762	8119
806.904	8218
807.046	8469
807.188	8351
807.33	8317
807.472	8290
807.614	8145
807.756	8161
807.898	8073
808.04	7944
808.182	7890
808.324	7879
808.465	7902
808.607	8039
808.749	8142
808.891	8172
809.033	8267
809.174	8210
809.316	8008
809.458	8069
809.6	7944
809.741	8024
809.883	8027
810.025	8145
810.166	7986
810.308	8081
810.45	7986
810.591	7947
810.733	7734
810.875	7696
811.016	7525
811.158	7483
811.299	7632
811.441	7765
811.582	7632
811.724	7525
811.865	7578
812.007	7567
812.148	7643
812.29	7677
812.431	7727
812.573	7906
812.714	7906
812.855	8111
812.997	8183
813.138	8366
813.279	8145
813.421	8084
813.562	8035
813.703	7841
813.845	7769
813.986	7403
814.127	7228
814.268	7202
814.41	7228
814.551	7095
814.692	7179
814.833	7076
814.974	7133
815.115	7072
815.256	6954
815.397	6924
815.539	6924
815.68	6814
815.821	6749
815.962	6844
816.103	6772
816.244	6749
816.385	6642
816.526	6616
816.666	6479
816.807	6331
816.948	6479
817.089	6452
817.23	6475
817.371	6410
817.512	6342
817.653	6403
817.793	6338
817.934	6422
818.075	6448
818.216	6418
818.356	6407
818.497	6258
818.638	6098
818.778	6148
818.919	6171
819.06	6163
819.2	6315
819.341	6285
819.481	6395
819.622	6494
819.762	6745
819.903	6627
820.043	6517
820.184	6536
820.324	6563
820.465	6745
820.605	6662
820.746	6623
820.886	6467
821.026	6715
821.167	6726
821.307	6776
821.447	6696
821.588	6662
821.728	6540
821.868	6525
822.008	6273
822.149	6391
822.289	6311
822.429	6091
822.569	6015
822.709	6072
822.849	5908
822.99	5882
823.13	5889
823.27	5847
823.41	5771
823.55	5737
823.69	5710
823.83	5767
823.97	5649
824.11	5505
824.25	5493
824.389	5532
824.529	5551
824.669	5520
824.809	5581
824.949	5649
825.089	5619
825.228	5528
825.368	5395
825.508	5330
825.648	5364
825.787	5395
825.927	5379
826.067	5261
826.206	5288
826.346	5334
826.485	5337
826.625	5448
826.765	5547
826.904	5478
827.044	5273
827.183	5208
827.323	5109
827.462	5235
827.601	5212
827.741	5166
827.88	5193
828.02	5128
828.159	5242
828.298	5265
828.437	5402
828.577	5242
828.716	5478
828.855	5337
828.994	5147
829.134	5162
829.273	5231
829.412	5147
829.551	5132
829.69	5170
829.829	5242
829.968	5334
830.107	5273
830.246	5322
830.385	5204
830.524	5117
830.663	5052
830.802	4976
830.941	4934
831.08	4885
831.219	4927
831.357	4984
831.496	5166
831.635	5014
831.774	4850
831.913	4930
832.051	4744
832.19	4759
832.329	4873
832.467	4691
832.606	4694
832.744	4763
832.883	4778
833.022	4744
833.16	4778
833.299	4877
833.437	4824
833.576	4919
833.714	4889
833.852	4881
833.991	4900
834.129	4980
834.267	5045
834.406	4938
834.544	4984
834.682	4995
834.821	4957
834.959	5227
835.097	5029
835.235	5155
835.373	5109
835.511	5178
835.65	5067
835.788	5045
835.926	4908
836.064	4915
836.202	4949
836.34	5166
836.478	5258
836.615	5151
836.753	5265
836.891	5311
837.029	5315
837.167	5258
837.305	5151
837.443	5178
837.58	5109
837.718	5250
837.856	5246
837.993	5181
838.131	5277
838.269	5220
838.406	5284
838.544	5273
838.681	5075
838.819	5018
838.956	4858
839.094	4923
839.231	5025
839.369	5079
839.506	5459
839.643	5318
839.781	5117
839.918	5037
840.055	5136
840.193	5162
840.33	5128
840.467	5178
840.604	5208
840.742	5490
840.879	5147
841.016	5117
841.153	5212
841.29	5376
841.427	5357
841.564	5334
841.701	5376
841.838	5277
841.975	5284
842.112	5235
842.249	5181
842.385	5117
842.522	5391
842.659	5181
842.796	5181
842.933	5239
843.069	5128
843.206	5181
843.343	5330
843.479	5261
843.616	5318
843.752	5010
843.889	5003
844.025	5296
844.162	5052
844.298	5261
844.435	5090
844.571	5056
844.708	5227
844.844	5315
844.98	5357
845.117	5265
845.253	5155
845.389	5105
845.525	5185
845.661	5223
845.798	5117
845.934	5189
846.07	5014
846.206	5216
846.342	5311
846.478	5181
846.614	5064
846.75	5006
846.886	5022
847.022	5178
847.158	4999
847.294	5045
847.429	5162
847.565	5098
847.701	5410
847.837	4919
847.972	4843
848.108	5022
848.244	5006
848.379	4793
848.515	4812
848.65	4736
848.786	4763
848.921	4763
849.057	4930
849.192	4908
849.328	4854
849.463	4908
849.598	4782
849.734	4793
849.869	4710
850.004	4672
850.14	4634
850.275	4683
850.41	4577
850.545	4550
850.68	4630
850.815	4626
850.95	4645
851.085	4847
851.22	4755
851.355	4767
851.49	4656
851.625	4668
851.76	4645
851.895	4535
852.03	4554
852.165	4626
852.299	4721
852.434	4805
852.569	4748
852.703	4858
852.838	4854
852.973	4949
853.107	4919
853.242	4790
853.376	4675
853.511	4622
853.645	4603
853.78	4839
853.914	4740
854.048	4706
854.183	4668
854.317	4706
854.451	4839
854.585	4683
854.72	4691
854.854	4759
854.988	4618
855.122	4645
855.256	4580
855.39	4725
855.524	4782
855.658	4668
855.792	4767
855.926	4736
856.06	4797
856.194	4816
856.327	4736
856.461	4558
856.595	4637
856.729	4668
856.862	4778
856.996	4683
857.13	4706
857.263	4786
857.397	4854
857.53	4660
857.664	4763
857.797	4805
857.931	4801
858.064	4729
858.197	4771
858.331	4664
858.464	4592
858.597	4527
858.731	4672
858.864	4611
858.997	4630
859.13	4618
859.263	4641
859.396	4736
859.529	4634
859.662	4618
859.795	4607
859.928	4611
860.061	4774
860.194	4771
860.327	4653
860.46	4626
860.592	4752
860.725	4714
860.858	4752
860.99	4584
861.123	4550
861.256	4554
861.388	4706
861.521	5311
861.653	4550
861.786	4417
861.918	4455
862.05	4535
862.183	4561
862.315	4607
862.447	4656
862.58	4565
862.712	4405
862.844	4363
862.976	4489
863.108	4489
863.24	4911
863.372	4348
863.504	4432
863.636	4447
863.768	4481
863.9	4481
864.032	4421
864.164	4421
864.296	4459
864.428	4588
864.559	4535
864.691	4618
864.823	4542
864.954	4470
865.086	4565
865.217	4451
865.349	4470
865.48	4440
865.612	4512
865.743	4649
865.875	4485
866.006	4417
866.137	4489
866.269	4436
866.4	4459
866.531	4409
866.662	4462
866.793	4413
866.924	4443
867.055	4535
867.186	4493
867.317	4428
867.448	4421
867.579	4417
867.71	4413
867.841	4363
867.972	4474
868.103	4413
868.233	4436
868.364	4455
868.495	4504
868.625	4679
868.756	4733
868.886	4615
869.017	4622
869.147	4828
869.278	4774
869.408	4626
869.539	4626
869.669	4710
869.799	4656
869.929	4759
870.06	4767
870.19	4968
870.32	4942
870.45	4972
870.58	5018
870.71	5117
870.84	5151
870.97	4961
871.1	4927
871.23	5128
871.36	5159
871.489	5052
871.619	5109
871.749	5105
871.879	5178
872.008	5197
872.138	5056
872.267	5033
872.397	4820
872.526	4782
872.656	4714
872.785	4816
872.915	4965
873.044	5041
873.173	4919
873.303	4976
873.432	4942
873.561	4957
873.69	4900
873.819	4904
873.948	4965
874.077	4850
874.206	4744
874.335	4824
874.464	4915
874.593	4995
874.722	4938
874.851	5102
874.979	5064
875.108	4995
875.237	4877
875.365	4839
875.494	4904
875.623	4972
875.751	4858
875.88	4900
876.008	4965
876.136	5033
876.265	5197
876.393	5318
876.521	5269
876.65	5223
876.778	5155
876.906	5079
877.034	5041
877.162	5105
877.29	5033
877.418	5025
877.546	5056
877.674	5022
877.802	5067
877.93	5033
878.058	4949
878.185	4900
878.313	4953
878.441	4938
878.568	4843
878.696	4873
878.824	5003
878.951	4991
879.079	5121
879.206	5273
879.333	5147
879.461	4987
879.588	5010
879.715	5102
879.842	5162
879.97	5014
880.097	4778
880.224	4748
880.351	4820
880.478	4835
880.605	4835
880.732	4790
880.859	5113
880.986	4900
881.112	4934
881.239	4805
881.366	4706
881.493	4611
881.619	4630
881.746	4615
881.872	4649
881.999	4717
882.125	4691
882.252	4828
882.378	4835
882.505	4965
882.631	4786
882.757	4664
882.883	4755
883.01	4771
883.136	4683
883.262	4596
883.388	4630
883.514	4824
883.64	4870
883.766	4828
883.892	4721
884.018	4717
884.143	4961
884.269	5071
884.395	4725
884.52	4672
884.646	4641
884.772	4607
884.897	4592
885.023	4683
885.148	4801
885.274	4892
885.399	4862
885.524	4797
885.65	4717
885.775	4721
885.9	4763
886.025	4911
886.15	4786
886.275	4763
886.4	4714
886.525	4748
886.65	4721
886.775	4721
886.9	4923
887.025	5045
887.149	4828
887.274	4634
887.399	4554
887.523	4603
887.648	4599
887.773	4558
887.897	4782
888.021	4812
888.146	4668
888.27	4797
888.395	4870
888.519	4835
888.643	4824
888.767	4850
888.891	4679
889.015	4592
889.139	4634
889.263	4618
889.387	4763
889.511	4881
889.635	4797
889.759	4637
889.883	4653
890.006	4714
890.13	4828
890.254	4584
890.377	4656
890.501	4538
890.624	4561
890.748	4615
890.871	4527
890.995	4470
891.118	4413
891.241	4523
891.364	4546
891.488	4675
891.611	4527
891.734	4561
891.857	4649
891.98	4542
892.103	4649
892.226	4622
892.349	4535
892.471	4451
892.594	4542
892.717	4634
892.839	4603
892.962	4550
893.085	4672
893.207	4630
893.33	4493
893.452	4512
893.575	4656
893.697	4569
893.819	4812
893.941	4889
894.064	4759
894.186	4584
894.308	4561
894.43	4694
894.552	4820
894.674	4782
894.796	4584
894.918	4592
895.04	4622
895.161	4653
895.283	4664
895.405	4554
895.526	4649
895.648	4683
895.769	4683
895.891	4736
896.012	4733
896.134	4744
896.255	4694
896.376	4649
896.498	4687
896.619	4710
896.74	4634
896.861	4656
896.982	4889
897.103	5048
897.224	4831
897.345	4790
897.466	4714
897.587	4729
897.708	4812
897.828	4812
897.949	4683
898.07	4550
898.19	4611
898.311	4805
898.431	4691
898.552	4702
898.672	4812
898.792	4767
898.913	4752
899.033	4645
899.153	4550
899.273	4421
899.393	4531
899.513	4523
899.633	4558
899.753	4584
899.873	4561
899.993	4573
900.113	4550
900.232	4577
900.352	4535
900.472	4493
900.591	4417
900.711	4489
900.83	4485
900.95	4596
901.069	4668
901.189	4588
901.308	4371
901.427	4356
901.546	4436
901.665	4481
901.784	4546
901.904	4417
902.023	4333
902.141	4185
902.26	4154
902.379	4333
902.498	4268
902.617	4249
902.735	4428
902.854	4371
902.973	4383
903.091	4196
903.21	4249
903.328	4322
903.446	4246
903.565	4265
903.683	4375
903.801	4291
903.919	4398
904.038	4447
904.156	4348
904.274	4432
904.392	4371
904.51	4398
904.627	4538
904.745	4584
904.863	4618
904.981	4394
905.098	4352
905.216	4371
905.334	4413
905.451	4474
905.569	4432
905.686	4538
905.803	4622
905.921	4421
906.038	4588
906.155	4512
906.272	4405
906.389	4474
906.506	4333
906.623	4402
906.74	4409
906.857	4291
906.974	4421
907.091	4554
907.208	4687
907.324	4588
907.441	4516
907.557	4375
907.674	4352
907.79	4325
907.907	4394
908.023	4474
908.139	4485
908.256	4447
908.372	4474
908.488	4417
908.604	4383
908.72	4295
908.836	4405
908.952	4379
909.068	4436
909.184	4565
909.3	4466
909.415	4618
909.531	4519
909.647	4390
909.762	4424
909.878	4344
909.993	4432
910.108	4447
910.224	4409
910.339	4489
910.454	4466
910.57	4329
910.685	4329
910.8	4683
910.915	4577
911.03	4504
911.145	4325
911.259	4383
911.374	4318
911.489	4318
911.604	4276
911.718	4166
911.833	4219
911.947	4017
912.062	3998
912.176	4219
912.291	4234
912.405	4246
912.519	4432
912.633	4512
912.748	4432
912.862	4333
912.976	4207
913.09	4093
913.204	4200
913.318	4238
913.431	4363
913.545	4402
913.659	4417
913.772	4341
913.886	4253
914	4234
914.113	4352
914.226	4428
914.34	4379
914.453	4280
914.566	4409
914.68	4310
914.793	4333
914.906	4143
915.019	4120
915.132	4074
915.245	4185
915.358	4223
915.47	4261
915.583	4253
915.696	4284
915.809	4390
915.921	4398
916.034	4284
916.146	4242
916.259	4211
916.371	4356
916.483	4379
916.595	4253
916.708	4348
916.82	4375
916.932	4360
917.044	4337
917.156	4363
917.268	4211
917.38	4246
917.491	4276
917.603	4367
917.715	4394
917.826	4455
917.938	4394
918.049	4276
918.161	4360
918.272	4485
918.384	4500
918.495	4443
918.606	4295
918.717	4265
918.828	4348
918.939	4390
919.05	4284
919.161	4329
919.272	4173
919.383	4230
919.494	4428
919.604	4630
919.715	4398
919.826	4402
919.936	4405
920.047	4523
920.157	4561
920.267	4702
920.378	4546
920.488	4504
920.598	4729
920.708	4915
920.818	4782
920.928	4774
921.038	4976
921.148	4968
921.258	4618
921.368	4554
921.477	4481
921.587	4443
921.697	4383
921.806	4508
921.916	4428
922.025	4284
922.134	4325
922.244	4223
922.353	4303
922.462	4173
922.571	4169
922.68	4013
922.789	3998
922.898	4021
923.007	3979
923.116	4105
923.224	4071
923.333	4074
923.442	3979
923.55	3983
923.659	3983
923.767	4086
923.876	3987
923.984	4154
924.092	3983
924.201	4025
924.309	4128
924.417	4128
924.525	4067
924.633	4097
924.741	5010
924.849	3918
924.956	4124
925.064	3960
925.172	3918
925.279	3960
925.387	4017
925.494	4044
925.602	4192
925.709	4204
925.816	3987
925.924	4116
926.031	4204
926.138	4177
926.245	4223
926.352	4082
926.459	4253
926.566	4348
926.673	4116
926.779	4082
926.886	4059
926.993	3934
927.099	3983
927.206	3949
927.312	3941
927.419	4063
927.525	4006
927.631	4101
927.737	3998
927.843	3953
927.95	3838
928.056	3930
928.162	3964
928.267	4044
928.373	4630
928.479	4128
928.585	3896
928.69	3979
928.796	4093
928.901	3972
929.007	3861
929.112	4002
929.218	4013
929.323	3926
929.428	3903
929.533	4078
929.638	3968
929.743	3994
929.848	4040
929.953	4036
930.058	3903
930.163	3740
930.267	3835
930.372	3991
930.477	3827
930.581	4051
930.685	3934
930.79	3804
930.894	3804
930.998	3869
931.103	4055
931.207	3720
931.311	3671
931.415	3660
931.519	3564
931.623	3545
