Data from test_V78500241_2850.txt Node
Date: Fri Mar 25 17:08:49 CST 2022
User: usil
Spectrometer: V785-0024
Trigger mode: 0
Integration Time (sec): 4.000000E-1
Scans to average: 1
Nonlinearity correction enabled: false
Boxcar width: 0
Storing dark spectrum: false
XAxis mode: Wavelengths
Number of Pixels in Spectrum: 1024
>>>>>Begin Spectral Data<<<<<
801.071	8058
801.214	8031
801.356	7890
801.499	7833
801.641	7868
801.783	7826
801.926	8008
802.068	7959
802.211	8062
802.353	8031
802.496	7902
802.638	7883
802.78	8012
802.923	7925
803.065	7864
803.208	7841
803.35	7993
803.492	8119
803.635	8176
803.777	8031
803.919	8157
804.061	8396
804.204	8119
804.346	8024
804.488	7944
804.63	8069
804.773	8043
804.915	8138
805.057	8279
805.199	8130
805.341	8134
805.483	8240
805.626	8240
805.768	8149
805.91	8191
806.052	8267
806.194	8069
806.336	8286
806.478	8138
806.62	8031
806.762	8096
806.904	8252
807.046	8465
807.188	8358
807.33	8267
807.472	8362
807.614	8164
807.756	8176
807.898	8001
808.04	7898
808.182	7925
808.324	7852
808.465	7940
808.607	8081
808.749	8126
808.891	8218
809.033	8267
809.174	8142
809.316	8008
809.458	8107
809.6	8054
809.741	8008
809.883	8065
810.025	8062
810.166	8027
810.308	8012
810.45	7982
810.591	7875
810.733	7753
810.875	7666
811.016	7590
811.158	7540
811.299	7662
811.441	7715
811.582	7700
811.724	7601
811.865	7609
812.007	7677
812.148	7552
812.29	7616
812.431	7727
812.573	7837
812.714	8020
812.855	8164
812.997	8237
813.138	8305
813.279	8115
813.421	8119
813.562	8077
813.703	7871
813.845	7803
813.986	7430
814.127	7236
814.268	7228
814.41	7240
814.551	7160
814.692	7194
814.833	6985
814.974	7080
815.115	7152
815.256	6928
815.397	6928
815.539	6954
815.68	6878
815.821	6795
815.962	6848
816.103	6890
816.244	6700
816.385	6597
816.526	6646
816.666	6532
816.807	6319
816.948	6467
817.089	6498
817.23	6429
817.371	6380
817.512	6372
817.653	6281
817.793	6384
817.934	6433
818.075	6445
818.216	6437
818.356	6410
818.497	6273
818.638	6110
818.778	6140
818.919	6178
819.06	6072
819.2	6350
819.341	6296
819.481	6311
819.622	6551
819.762	6688
819.903	6696
820.043	6669
820.184	6502
820.324	6517
820.465	6662
820.605	6677
820.746	6631
820.886	6540
821.026	6654
821.167	6684
821.307	6798
821.447	6734
821.588	6620
821.728	6563
821.868	6464
822.008	6323
822.149	6311
822.289	6357
822.429	6178
822.569	6083
822.709	6087
822.849	5885
822.99	5897
823.13	5942
823.27	5878
823.41	5786
823.55	5737
823.69	5722
823.83	5752
823.97	5649
824.11	5589
824.25	5512
824.389	5551
824.529	5680
824.669	5509
824.809	5630
824.949	5672
825.089	5596
825.228	5554
825.368	5391
825.508	5330
825.648	5353
825.787	5372
825.927	5402
826.067	5330
826.206	5284
826.346	5368
826.485	5379
826.625	5357
826.765	5512
826.904	5501
827.044	5216
827.183	5185
827.323	5174
827.462	5220
827.601	5128
827.741	5193
827.88	5235
828.02	5132
828.159	5227
828.298	5288
828.437	5318
828.577	5273
828.716	5486
828.855	5318
828.994	5174
829.134	5124
829.273	5174
829.412	5105
829.551	5075
829.69	5128
829.829	5265
829.968	5387
830.107	5254
830.246	5307
830.385	5128
830.524	5124
830.663	5090
830.802	5018
830.941	4896
831.08	4915
831.219	4984
831.357	4976
831.496	5132
831.635	4904
831.774	4870
831.913	4824
832.051	4729
832.19	4729
832.329	4862
832.467	4702
832.606	4668
832.744	4767
832.883	4717
833.022	4702
833.16	4824
833.299	4835
833.437	4763
833.576	4862
833.714	4831
833.852	4870
833.991	4938
834.129	4953
834.267	4892
834.406	4900
834.544	4968
834.682	4968
834.821	4961
834.959	5143
835.097	4961
835.235	5117
835.373	5113
835.511	5121
835.65	5060
835.788	4965
835.926	4870
836.064	4839
836.202	4881
836.34	5159
836.478	5189
836.615	5090
836.753	5170
836.891	5235
837.029	5258
837.167	5178
837.305	5124
837.443	5170
837.58	4995
837.718	5284
837.856	5189
837.993	5166
838.131	5197
838.269	5151
838.406	5193
838.544	5189
838.681	5033
838.819	5025
838.956	4877
839.094	4915
839.231	4946
839.369	5060
839.506	5414
839.643	5220
839.781	5071
839.918	4995
840.055	5117
840.193	5098
840.33	5140
840.467	5147
840.604	5208
840.742	5433
840.879	5109
841.016	5102
841.153	5109
841.29	5379
841.427	5311
841.564	5303
841.701	5326
841.838	5299
841.975	5208
842.112	5212
842.249	5151
842.385	5117
842.522	5364
842.659	5204
842.796	5105
842.933	5128
843.069	5178
843.206	5178
843.343	5280
843.479	5246
843.616	5303
843.752	5029
843.889	5006
844.025	5185
844.162	4965
844.298	5181
844.435	5075
844.571	5003
844.708	5204
844.844	5273
844.98	5353
845.117	5258
845.253	5140
845.389	5079
845.525	5181
845.661	5147
845.798	5014
845.934	5136
846.07	5003
846.206	5189
846.342	5292
846.478	5174
846.614	5018
846.75	4965
846.886	4900
847.022	5140
847.158	5003
847.294	5006
847.429	5117
847.565	5010
847.701	5330
847.837	4812
847.972	4793
848.108	4968
848.244	4949
848.379	4782
848.515	4740
848.65	4736
848.786	4714
848.921	4801
849.057	4900
849.192	4923
849.328	4809
849.463	4786
849.598	4805
849.734	4816
849.869	4714
850.004	4546
850.14	4630
850.275	4592
850.41	4538
850.545	4577
850.68	4607
850.815	4637
850.95	4611
851.085	4881
851.22	4748
851.355	4668
851.49	4622
851.625	4630
851.76	4691
851.895	4527
852.03	4554
852.165	4683
852.299	4717
852.434	4774
852.569	4721
852.703	4725
852.838	4839
852.973	4930
853.107	4923
853.242	4725
853.376	4664
853.511	4527
853.645	4626
853.78	4767
853.914	4691
854.048	4710
854.183	4656
854.317	4687
854.451	4915
854.585	4664
854.72	4664
854.854	4698
854.988	4577
855.122	4611
855.256	4569
855.39	4656
855.524	4782
855.658	4691
855.792	4668
855.926	4752
856.06	4801
856.194	4774
856.327	4710
856.461	4634
856.595	4615
856.729	4645
856.862	4733
856.996	4698
857.13	4714
857.263	4767
857.397	4828
857.53	4675
857.664	4748
857.797	4774
857.931	4740
858.064	4714
858.197	4702
858.331	4694
858.464	4626
858.597	4440
858.731	4645
858.864	4618
858.997	4588
859.13	4645
859.263	4691
859.396	4706
859.529	4588
859.662	4535
859.795	4531
859.928	4622
860.061	4736
860.194	4774
860.327	4634
860.46	4561
860.592	4744
860.725	4725
860.858	4725
860.99	4573
861.123	4516
861.256	4523
861.388	4565
861.521	5440
861.653	4474
861.786	4481
861.918	4481
862.05	4523
862.183	4550
862.315	4592
862.447	4656
862.58	4561
862.712	4405
862.844	4325
862.976	4455
863.108	4500
863.24	4797
863.372	4310
863.504	4436
863.636	4417
863.768	4466
863.9	4447
864.032	4375
864.164	4379
864.296	4478
864.428	4554
864.559	4538
864.691	4523
864.823	4474
864.954	4504
865.086	4500
865.217	4478
865.349	4398
865.48	4443
865.612	4500
865.743	4660
865.875	4462
866.006	4424
866.137	4489
866.269	4440
866.4	4421
866.531	4432
866.662	4428
866.793	4436
866.924	4455
867.055	4508
867.186	4478
867.317	4436
867.448	4417
867.579	4390
867.71	4367
867.841	4405
867.972	4428
868.103	4516
868.233	4436
868.364	4443
868.495	4478
868.625	4672
868.756	4759
868.886	4542
869.017	4607
869.147	4771
869.278	4778
869.408	4626
869.539	4645
869.669	4714
869.799	4683
869.929	4763
870.06	4744
870.19	4972
870.32	4900
870.45	4953
870.58	4968
870.71	5060
870.84	5124
870.97	4938
871.1	4877
871.23	5166
871.36	5147
871.489	5018
871.619	5083
871.749	5094
871.879	5128
872.008	5220
872.138	5052
872.267	5003
872.397	4847
872.526	4801
872.656	4752
872.785	4790
872.915	4976
873.044	5029
873.173	4965
873.303	4995
873.432	4984
873.561	4961
873.69	4877
873.819	4858
873.948	4930
874.077	4862
874.206	4740
874.335	4809
874.464	4892
874.593	5022
874.722	4949
874.851	5090
874.979	5033
875.108	5037
875.237	4953
875.365	4850
875.494	4870
875.623	4999
875.751	4816
875.88	4858
876.008	4953
876.136	5025
876.265	5170
876.393	5353
876.521	5242
876.65	5216
876.778	5204
876.906	5102
877.034	5033
877.162	5041
877.29	4991
877.418	5075
877.546	5052
877.674	5037
877.802	5033
877.93	5022
878.058	4915
878.185	4923
878.313	4965
878.441	4968
878.568	4793
878.696	4862
878.824	4972
878.951	4984
879.079	5075
879.206	5265
879.333	5083
879.461	4987
879.588	5006
879.715	5124
879.842	5197
879.97	5014
880.097	4801
880.224	4763
880.351	4839
880.478	4828
880.605	4862
880.732	4771
880.859	5083
880.986	4889
881.112	4904
881.239	4774
881.366	4691
881.493	4618
881.619	4618
881.746	4603
881.872	4626
881.999	4584
882.125	4687
882.252	4797
882.378	4801
882.505	4942
882.631	4828
882.757	4687
882.883	4729
883.01	4702
883.136	4664
883.262	4615
883.388	4603
883.514	4797
883.64	4866
883.766	4828
883.892	4679
884.018	4710
884.143	4908
884.269	4999
884.395	4664
884.52	4599
884.646	4672
884.772	4542
884.897	4599
885.023	4675
885.148	4801
885.274	4873
885.399	4752
885.524	4687
885.65	4664
885.775	4714
885.9	4714
886.025	4816
886.15	4812
886.275	4714
886.4	4607
886.525	4744
886.65	4649
886.775	4725
886.9	4923
887.025	5045
887.149	4786
887.274	4615
887.399	4542
887.523	4577
887.648	4558
887.773	4607
887.897	4778
888.021	4782
888.146	4729
888.27	4820
888.395	4934
888.519	4774
888.643	4786
888.767	4786
888.891	4710
889.015	4580
889.139	4653
889.263	4618
889.387	4790
889.511	4873
889.635	4812
889.759	4683
889.883	4672
890.006	4725
890.13	4828
890.254	4615
890.377	4698
890.501	4508
890.624	4535
890.748	4630
890.871	4523
890.995	4436
891.118	4402
891.241	4546
891.364	4527
891.488	4649
891.611	4554
891.734	4531
891.857	4641
891.98	4592
892.103	4630
892.226	4584
892.349	4535
892.471	4398
892.594	4550
892.717	4542
892.839	4592
892.962	4607
893.085	4664
893.207	4603
893.33	4508
893.452	4554
893.575	4664
893.697	4569
893.819	4816
893.941	4850
894.064	4759
894.186	4596
894.308	4565
894.43	4771
894.552	4793
894.674	4740
894.796	4592
894.918	4603
895.04	4618
895.161	4706
895.283	4618
895.405	4561
895.526	4611
895.648	4637
895.769	4660
895.891	4725
896.012	4729
896.134	4733
896.255	4694
896.376	4611
896.498	4580
896.619	4706
896.74	4641
896.861	4641
896.982	4919
897.103	5094
897.224	4847
897.345	4778
897.466	4694
897.587	4752
897.708	4831
897.828	4797
897.949	4717
898.07	4535
898.19	4679
898.311	4793
898.431	4675
898.552	4744
898.672	4805
898.792	4797
898.913	4778
899.033	4641
899.153	4485
899.273	4428
899.393	4527
899.513	4558
899.633	4538
899.753	4569
899.873	4504
899.993	4596
900.113	4523
900.232	4542
900.352	4512
900.472	4538
900.591	4394
900.711	4512
900.83	4421
900.95	4630
901.069	4683
901.189	4527
901.308	4356
901.427	4352
901.546	4363
901.665	4470
901.784	4512
901.904	4424
902.023	4329
902.141	4177
902.26	4181
902.379	4291
902.498	4272
902.617	4230
902.735	4352
902.854	4428
902.973	4386
903.091	4196
903.21	4215
903.328	4268
903.446	4291
903.565	4227
903.683	4356
903.801	4284
903.919	4394
904.038	4360
904.156	4360
904.274	4394
904.392	4421
904.51	4409
904.627	4451
904.745	4535
904.863	4637
904.981	4432
905.098	4299
905.216	4383
905.334	4409
905.451	4451
905.569	4451
905.686	4573
905.803	4554
905.921	4394
906.038	4531
906.155	4535
906.272	4379
906.389	4493
906.506	4325
906.623	4409
906.74	4405
906.857	4276
906.974	4375
907.091	4592
907.208	4641
907.324	4580
907.441	4531
907.557	4379
907.674	4314
907.79	4310
907.907	4405
908.023	4466
908.139	4550
908.256	4398
908.372	4470
908.488	4432
908.604	4367
908.72	4325
908.836	4371
908.952	4383
909.068	4413
909.184	4523
909.3	4485
909.415	4542
909.531	4577
909.647	4306
909.762	4390
909.878	4360
909.993	4481
910.108	4390
910.224	4440
910.339	4455
910.454	4421
910.57	4325
910.685	4325
910.8	4668
910.915	4580
911.03	4500
911.145	4341
911.259	4318
911.374	4394
911.489	4322
911.604	4276
911.718	4219
911.833	4200
911.947	4105
912.062	4002
912.176	4234
912.291	4188
912.405	4257
912.519	4466
912.633	4474
912.748	4417
912.862	4261
912.976	4219
913.09	4112
913.204	4158
913.318	4253
913.431	4363
913.545	4363
913.659	4424
913.772	4314
913.886	4325
914	4200
914.113	4341
914.226	4436
914.34	4390
914.453	4249
914.566	4421
914.68	4314
914.793	4280
914.906	4147
915.019	4139
915.132	4059
915.245	4147
915.358	4173
915.47	4204
915.583	4265
915.696	4276
915.809	4348
915.921	4443
916.034	4268
916.146	4276
916.259	4227
916.371	4344
916.483	4371
916.595	4276
916.708	4280
916.82	4295
916.932	4325
917.044	4356
917.156	4295
917.268	4211
917.38	4265
917.491	4223
917.603	4360
917.715	4421
917.826	4405
917.938	4348
918.049	4276
918.161	4379
918.272	4531
918.384	4535
918.495	4443
918.606	4325
918.717	4249
918.828	4325
918.939	4348
919.05	4166
919.161	4371
919.272	4147
919.383	4204
919.494	4375
919.604	4641
919.715	4470
919.826	4390
919.936	4360
920.047	4516
920.157	4474
920.267	4736
920.378	4523
920.488	4485
920.598	4702
920.708	4873
920.818	4782
920.928	4771
921.038	4923
921.148	4885
921.258	4607
921.368	4561
921.477	4527
921.587	4466
921.697	4352
921.806	4561
921.916	4405
922.025	4230
922.134	4223
922.244	4234
922.353	4363
922.462	4177
922.571	4090
922.68	4010
922.789	3968
922.898	3994
923.007	3987
923.116	4135
923.224	4044
923.333	4116
923.442	4025
923.55	3949
923.659	4071
923.767	4109
923.876	3979
923.984	4124
924.092	3972
924.201	4048
924.309	4071
924.417	4112
924.525	4101
924.633	4101
924.741	4873
924.849	3930
924.956	4109
925.064	3994
925.172	3892
925.279	3975
925.387	4090
925.494	4086
925.602	4181
925.709	4147
925.816	4029
925.924	4177
926.031	4211
926.138	4169
926.245	4204
926.352	4067
926.459	4261
926.566	4303
926.673	4139
926.779	4101
926.886	4097
926.993	3972
927.099	3934
927.206	3964
927.312	3949
927.419	4051
927.525	4055
927.631	4093
927.737	3953
927.843	3907
927.95	3857
928.056	3975
928.162	4010
928.267	3991
928.373	4561
928.479	4135
928.585	3854
928.69	4074
928.796	4051
928.901	3987
929.007	3857
929.112	3987
929.218	4002
929.323	3960
929.428	3922
929.533	4097
929.638	3888
929.743	3964
929.848	4036
929.953	3975
930.058	3926
930.163	3785
930.267	3857
930.372	3983
930.477	3861
930.581	4124
930.685	3937
930.79	3816
930.894	3854
930.998	3884
931.103	4025
931.207	3671
931.311	3724
931.415	3705
931.519	3511
931.623	3595
