Data from test_V78500241_1103.txt Node
Date: Fri Mar 25 16:56:40 CST 2022
User: usil
Spectrometer: V785-0024
Trigger mode: 0
Integration Time (sec): 4.000000E-1
Scans to average: 1
Nonlinearity correction enabled: false
Boxcar width: 0
Storing dark spectrum: false
XAxis mode: Wavelengths
Number of Pixels in Spectrum: 1024
>>>>>Begin Spectral Data<<<<<
801.071	8005
801.214	8092
801.356	7936
801.499	7883
801.641	7784
801.783	7917
801.926	7963
802.068	7947
802.211	7986
802.353	7959
802.496	7807
802.638	7887
802.78	7940
802.923	7936
803.065	7811
803.208	7887
803.35	7959
803.492	8157
803.635	8210
803.777	8046
803.919	8202
804.061	8476
804.204	8157
804.346	8123
804.488	7940
804.63	8065
804.773	8081
804.915	8092
805.057	8320
805.199	8214
805.341	8339
805.483	8301
805.626	8214
805.768	8180
805.91	8191
806.052	8199
806.194	8126
806.336	8282
806.478	8119
806.62	8043
806.762	8157
806.904	8187
807.046	8408
807.188	8381
807.33	8279
807.472	8343
807.614	8134
807.756	8145
807.898	8016
808.04	7879
808.182	7947
808.324	7833
808.465	7921
808.607	8062
808.749	8145
808.891	8138
809.033	8309
809.174	8221
809.316	8031
809.458	7997
809.6	8020
809.741	8024
809.883	8062
810.025	8092
810.166	8065
810.308	8016
810.45	7970
810.591	7894
810.733	7734
810.875	7624
811.016	7499
811.158	7483
811.299	7578
811.441	7765
811.582	7708
811.724	7586
811.865	7578
812.007	7647
812.148	7540
812.29	7597
812.431	7772
812.573	7909
812.714	7963
812.855	8092
812.997	8309
813.138	8320
813.279	8206
813.421	8142
813.562	7989
813.703	7940
813.845	7776
813.986	7483
814.127	7335
814.268	7259
814.41	7187
814.551	7133
814.692	7129
814.833	7038
814.974	7099
815.115	7057
815.256	6977
815.397	6962
815.539	6943
815.68	6863
815.821	6821
815.962	6859
816.103	6825
816.244	6726
816.385	6604
816.526	6646
816.666	6509
816.807	6338
816.948	6445
817.089	6486
817.23	6437
817.371	6384
817.512	6410
817.653	6391
817.793	6361
817.934	6353
818.075	6490
818.216	6441
818.356	6388
818.497	6186
818.638	6110
818.778	6110
818.919	6167
819.06	6201
819.2	6289
819.341	6327
819.481	6365
819.622	6544
819.762	6745
819.903	6669
820.043	6604
820.184	6506
820.324	6608
820.465	6696
820.605	6665
820.746	6623
820.886	6479
821.026	6612
821.167	6730
821.307	6776
821.447	6719
821.588	6623
821.728	6578
821.868	6513
822.008	6388
822.149	6319
822.289	6391
822.429	6224
822.569	6087
822.709	6064
822.849	5954
822.99	5859
823.13	5935
823.27	5965
823.41	5741
823.55	5783
823.69	5767
823.83	5752
823.97	5672
824.11	5493
824.25	5471
824.389	5539
824.529	5554
824.669	5532
824.809	5646
824.949	5657
825.089	5596
825.228	5547
825.368	5410
825.508	5417
825.648	5337
825.787	5368
825.927	5387
826.067	5288
826.206	5273
826.346	5345
826.485	5383
826.625	5364
826.765	5528
826.904	5512
827.044	5220
827.183	5227
827.323	5155
827.462	5208
827.601	5212
827.741	5220
827.88	5216
828.02	5159
828.159	5246
828.298	5288
828.437	5398
828.577	5284
828.716	5471
828.855	5372
828.994	5189
829.134	5162
829.273	5178
829.412	5117
829.551	5102
829.69	5208
829.829	5193
829.968	5398
830.107	5258
830.246	5246
830.385	5174
830.524	5124
830.663	5060
830.802	4965
830.941	4877
831.08	4908
831.219	5003
831.357	4991
831.496	5124
831.635	4938
831.774	4820
831.913	4843
832.051	4702
832.19	4736
832.329	4824
832.467	4641
832.606	4645
832.744	4733
832.883	4679
833.022	4725
833.16	4782
833.299	4809
833.437	4839
833.576	4816
833.714	4900
833.852	4877
833.991	4900
834.129	4946
834.267	4976
834.406	4862
834.544	4957
834.682	4957
834.821	4965
834.959	5185
835.097	5006
835.235	5113
835.373	5056
835.511	5094
835.65	5025
835.788	4976
835.926	4892
836.064	4850
836.202	4908
836.34	5136
836.478	5216
836.615	5132
836.753	5178
836.891	5265
837.029	5258
837.167	5155
837.305	5143
837.443	5094
837.58	5090
837.718	5208
837.856	5147
837.993	5147
838.131	5216
838.269	5178
838.406	5178
838.544	5155
838.681	5060
838.819	5018
838.956	4892
839.094	4900
839.231	4980
839.369	5071
839.506	5417
839.643	5280
839.781	5143
839.918	4957
840.055	5048
840.193	5041
840.33	5121
840.467	5136
840.604	5151
840.742	5444
840.879	5037
841.016	5098
841.153	5204
841.29	5372
841.427	5318
841.564	5315
841.701	5379
841.838	5242
841.975	5273
842.112	5303
842.249	5147
842.385	5132
842.522	5273
842.659	5197
842.796	5143
842.933	5178
843.069	5102
843.206	5185
843.343	5258
843.479	5220
843.616	5307
843.752	5025
843.889	4995
844.025	5250
844.162	5033
844.298	5235
844.435	5090
844.571	5045
844.708	5212
844.844	5303
844.98	5296
845.117	5277
845.253	5086
845.389	5048
845.525	5162
845.661	5155
845.798	5094
845.934	5201
846.07	5064
846.206	5201
846.342	5265
846.478	5140
846.614	5022
846.75	4953
846.886	4923
847.022	5094
847.158	5003
847.294	5094
847.429	5098
847.565	5033
847.701	5326
847.837	4854
847.972	4805
848.108	4946
848.244	4900
848.379	4778
848.515	4687
848.65	4698
848.786	4710
848.921	4752
849.057	4850
849.192	4835
849.328	4805
849.463	4824
849.598	4755
849.734	4759
849.869	4702
850.004	4664
850.14	4660
850.275	4561
850.41	4527
850.545	4573
850.68	4611
850.815	4641
850.95	4618
851.085	4809
851.22	4725
851.355	4675
851.49	4603
851.625	4664
851.76	4637
851.895	4569
852.03	4573
852.165	4637
852.299	4649
852.434	4824
852.569	4683
852.703	4755
852.838	4866
852.973	4961
853.107	4885
853.242	4755
853.376	4660
853.511	4569
853.645	4622
853.78	4809
853.914	4714
854.048	4691
854.183	4630
854.317	4725
854.451	4816
854.585	4691
854.72	4656
854.854	4740
854.988	4569
855.122	4630
855.256	4500
855.39	4694
855.524	4812
855.658	4675
855.792	4736
855.926	4694
856.06	4725
856.194	4721
856.327	4683
856.461	4611
856.595	4626
856.729	4599
856.862	4694
856.996	4649
857.13	4679
857.263	4752
857.397	4748
857.53	4615
857.664	4748
857.797	4782
857.931	4801
858.064	4675
858.197	4744
858.331	4599
858.464	4611
858.597	4554
858.731	4630
858.864	4626
858.997	4584
859.13	4672
859.263	4664
859.396	4691
859.529	4660
859.662	4607
859.795	4554
859.928	4626
860.061	4736
860.194	4790
860.327	4630
860.46	4565
860.592	4714
860.725	4714
860.858	4675
860.99	4565
861.123	4542
861.256	4504
861.388	4599
861.521	5296
861.653	4459
861.786	4432
861.918	4428
862.05	4569
862.183	4550
862.315	4626
862.447	4615
862.58	4565
862.712	4428
862.844	4303
862.976	4402
863.108	4459
863.24	4759
863.372	4375
863.504	4436
863.636	4386
863.768	4493
863.9	4440
864.032	4386
864.164	4405
864.296	4455
864.428	4523
864.559	4546
864.691	4497
864.823	4542
864.954	4466
865.086	4516
865.217	4459
865.349	4402
865.48	4421
865.612	4462
865.743	4615
865.875	4485
866.006	4455
866.137	4462
866.269	4447
866.4	4417
866.531	4443
866.662	4356
866.793	4386
866.924	4390
867.055	4504
867.186	4493
867.317	4394
867.448	4386
867.579	4428
867.71	4390
867.841	4333
867.972	4447
868.103	4504
868.233	4421
868.364	4481
868.495	4451
868.625	4615
868.756	4740
868.886	4584
869.017	4668
869.147	4820
869.278	4733
869.408	4645
869.539	4664
869.669	4653
869.799	4649
869.929	4748
870.06	4653
870.19	4938
870.32	4934
870.45	4927
870.58	5025
870.71	5094
870.84	5071
870.97	4911
871.1	4896
871.23	5140
871.36	5086
871.489	5056
871.619	5052
871.749	5052
871.879	5113
872.008	5109
872.138	5045
872.267	4976
872.397	4812
872.526	4801
872.656	4725
872.785	4786
872.915	4934
873.044	4980
873.173	4942
873.303	4915
873.432	4915
873.561	4934
873.69	4866
873.819	4870
873.948	4892
874.077	4771
874.206	4744
874.335	4805
874.464	4972
874.593	5029
874.722	4915
874.851	5067
874.979	5010
875.108	5025
875.237	4892
875.365	4866
875.494	4820
875.623	4976
875.751	4824
875.88	4900
876.008	4976
876.136	4949
876.265	5193
876.393	5299
876.521	5258
876.65	5235
876.778	5185
876.906	5098
877.034	4991
877.162	4976
877.29	4911
877.418	5037
877.546	5045
877.674	4991
877.802	5022
877.93	5029
878.058	4972
878.185	4877
878.313	4946
878.441	4946
878.568	4828
878.696	4828
878.824	4961
878.951	4965
879.079	5105
879.206	5227
879.333	5090
879.461	4968
879.588	4957
879.715	5090
879.842	5216
879.97	5041
880.097	4752
880.224	4725
880.351	4847
880.478	4820
880.605	4786
880.732	4793
880.859	5056
880.986	4870
881.112	4873
881.239	4778
881.366	4645
881.493	4573
881.619	4596
881.746	4618
881.872	4675
881.999	4637
882.125	4706
882.252	4736
882.378	4809
882.505	5014
882.631	4793
882.757	4626
882.883	4740
883.01	4687
883.136	4691
883.262	4622
883.388	4622
883.514	4812
883.64	4870
883.766	4782
883.892	4698
884.018	4729
884.143	4866
884.269	5022
884.395	4656
884.52	4660
884.646	4649
884.772	4573
884.897	4538
885.023	4672
885.148	4748
885.274	4835
885.399	4847
885.524	4733
885.65	4649
885.775	4729
885.9	4660
886.025	4809
886.15	4763
886.275	4694
886.4	4630
886.525	4744
886.65	4717
886.775	4668
886.9	4854
887.025	5014
887.149	4824
887.274	4607
887.399	4561
887.523	4626
887.648	4561
887.773	4622
887.897	4755
888.021	4801
888.146	4664
888.27	4831
888.395	4896
888.519	4809
888.643	4839
888.767	4847
888.891	4687
889.015	4592
889.139	4634
889.263	4523
889.387	4759
889.511	4809
889.635	4824
889.759	4630
889.883	4596
890.006	4744
890.13	4850
890.254	4618
890.377	4675
890.501	4538
890.624	4519
890.748	4611
890.871	4512
890.995	4474
891.118	4356
891.241	4432
891.364	4485
891.488	4656
891.611	4519
891.734	4508
891.857	4653
891.98	4573
892.103	4634
892.226	4561
892.349	4500
892.471	4413
892.594	4550
892.717	4596
892.839	4538
892.962	4584
893.085	4630
893.207	4550
893.33	4421
893.452	4508
893.575	4626
893.697	4611
893.819	4782
893.941	4801
894.064	4778
894.186	4569
894.308	4569
894.43	4725
894.552	4870
894.674	4782
894.796	4531
894.918	4584
895.04	4500
895.161	4706
895.283	4656
895.405	4577
895.526	4569
895.648	4702
895.769	4691
895.891	4706
896.012	4763
896.134	4725
896.255	4626
896.376	4599
896.498	4592
896.619	4660
896.74	4615
896.861	4634
896.982	4900
897.103	5067
897.224	4812
897.345	4729
897.466	4660
897.587	4721
897.708	4843
897.828	4812
897.949	4668
898.07	4535
898.19	4588
898.311	4835
898.431	4649
898.552	4729
898.672	4790
898.792	4786
898.913	4729
899.033	4626
899.153	4489
899.273	4390
899.393	4470
899.513	4489
899.633	4470
899.753	4500
899.873	4504
899.993	4542
900.113	4497
900.232	4577
900.352	4554
900.472	4508
900.591	4394
900.711	4497
900.83	4447
900.95	4615
901.069	4615
901.189	4523
901.308	4432
901.427	4325
901.546	4329
901.665	4424
901.784	4527
901.904	4352
902.023	4318
902.141	4207
902.26	4101
902.379	4265
902.498	4234
902.617	4223
902.735	4371
902.854	4390
902.973	4318
903.091	4166
903.21	4219
903.328	4253
903.446	4253
903.565	4211
903.683	4329
903.801	4314
903.919	4352
904.038	4417
904.156	4333
904.274	4466
904.392	4383
904.51	4413
904.627	4497
904.745	4592
904.863	4649
904.981	4356
905.098	4284
905.216	4325
905.334	4379
905.451	4402
905.569	4474
905.686	4531
905.803	4561
905.921	4402
906.038	4546
906.155	4512
906.272	4398
906.389	4470
906.506	4363
906.623	4341
906.74	4383
906.857	4287
906.974	4360
907.091	4538
907.208	4672
907.324	4561
907.441	4497
907.557	4318
907.674	4360
907.79	4329
907.907	4383
908.023	4478
908.139	4474
908.256	4409
908.372	4478
908.488	4443
908.604	4363
908.72	4318
908.836	4417
908.952	4375
909.068	4417
909.184	4519
909.3	4466
909.415	4554
909.531	4554
909.647	4325
909.762	4356
909.878	4287
909.993	4409
910.108	4455
910.224	4421
910.339	4470
910.454	4417
910.57	4371
910.685	4306
910.8	4618
910.915	4546
911.03	4497
911.145	4303
911.259	4257
911.374	4356
911.489	4306
911.604	4246
911.718	4147
911.833	4211
911.947	4021
912.062	4006
912.176	4207
912.291	4196
912.405	4230
912.519	4462
912.633	4516
912.748	4348
912.862	4280
912.976	4246
913.09	4044
913.204	4207
913.318	4227
913.431	4409
913.545	4379
913.659	4440
913.772	4348
913.886	4299
914	4204
914.113	4371
914.226	4459
914.34	4375
914.453	4253
914.566	4447
914.68	4253
914.793	4272
914.906	4143
915.019	4090
915.132	4074
915.245	4177
915.358	4204
915.47	4238
915.583	4246
915.696	4257
915.809	4402
915.921	4451
916.034	4272
916.146	4242
916.259	4261
916.371	4352
916.483	4325
916.595	4280
916.708	4287
916.82	4306
916.932	4310
917.044	4333
917.156	4352
917.268	4234
917.38	4295
917.491	4268
917.603	4322
917.715	4421
917.826	4390
917.938	4360
918.049	4238
918.161	4371
918.272	4546
918.384	4504
918.495	4443
918.606	4272
918.717	4284
918.828	4344
918.939	4367
919.05	4299
919.161	4329
919.272	4112
919.383	4238
919.494	4417
919.604	4599
919.715	4424
919.826	4371
919.936	4447
920.047	4535
920.157	4466
920.267	4668
920.378	4508
920.488	4500
920.598	4748
920.708	4812
920.818	4736
920.928	4767
921.038	4923
921.148	4908
921.258	4618
921.368	4508
921.477	4474
921.587	4432
921.697	4360
921.806	4508
921.916	4417
922.025	4299
922.134	4249
922.244	4196
922.353	4356
922.462	4204
922.571	4101
922.68	4051
922.789	3991
922.898	4059
923.007	3987
923.116	4112
923.224	4105
923.333	4029
923.442	3979
923.55	3964
923.659	3979
923.767	4112
923.876	4006
923.984	4097
924.092	3983
924.201	4051
924.309	4101
924.417	4105
924.525	4025
924.633	4090
924.741	4881
924.849	3884
924.956	4147
925.064	3964
925.172	3896
925.279	3934
925.387	4071
925.494	4040
925.602	4177
925.709	4173
925.816	4055
925.924	4116
926.031	4204
926.138	4131
926.245	4207
926.352	4071
926.459	4265
926.566	4287
926.673	4166
926.779	4093
926.886	4097
926.993	3907
927.099	3983
927.206	3911
927.312	3937
927.419	4036
927.525	4063
927.631	4040
927.737	3956
927.843	3968
927.95	3831
928.056	3934
928.162	3975
928.267	4097
928.373	4721
928.479	4090
928.585	3865
928.69	4029
928.796	4090
928.901	3998
929.007	3835
929.112	3968
929.218	3972
929.323	3888
929.428	3941
929.533	4086
929.638	3857
929.743	3937
929.848	4017
929.953	3956
930.058	3918
930.163	3766
930.267	3816
930.372	3975
930.477	3789
930.581	4067
930.685	3964
930.79	3842
930.894	3915
930.998	3838
931.103	4074
931.207	3701
931.311	3747
931.415	3656
931.519	3519
931.623	3523
