Data from test_V78500241_1938.txt Node
Date: Fri Mar 25 17:02:28 CST 2022
User: usil
Spectrometer: V785-0024
Trigger mode: 0
Integration Time (sec): 4.000000E-1
Scans to average: 1
Nonlinearity correction enabled: false
Boxcar width: 0
Storing dark spectrum: false
XAxis mode: Wavelengths
Number of Pixels in Spectrum: 1024
>>>>>Begin Spectral Data<<<<<
801.071	7963
801.214	7951
801.356	7852
801.499	7852
801.641	7784
801.783	7818
801.926	7909
802.068	7909
802.211	7970
802.353	7963
802.496	7784
802.638	7845
802.78	7822
802.923	7909
803.065	7864
803.208	7932
803.35	7947
803.492	8069
803.635	8142
803.777	8005
803.919	8103
804.061	8434
804.204	8103
804.346	8069
804.488	7982
804.63	8119
804.773	7989
804.915	8100
805.057	8161
805.199	8134
805.341	8176
805.483	8275
805.626	8210
805.768	8069
805.91	8214
806.052	8237
806.194	8092
806.336	8347
806.478	8100
806.62	8062
806.762	8172
806.904	8267
807.046	8465
807.188	8419
807.33	8248
807.472	8328
807.614	8164
807.756	8088
807.898	7986
808.04	7890
808.182	7890
808.324	7890
808.465	7928
808.607	8073
808.749	8126
808.891	8168
809.033	8377
809.174	8221
809.316	8084
809.458	8092
809.6	7997
809.741	8103
809.883	7993
810.025	8088
810.166	8065
810.308	8031
810.45	8008
810.591	7875
810.733	7753
810.875	7643
811.016	7540
811.158	7460
811.299	7578
811.441	7674
811.582	7613
811.724	7578
811.865	7597
812.007	7609
812.148	7586
812.29	7639
812.431	7761
812.573	7902
812.714	8031
812.855	8210
812.997	8210
813.138	8267
813.279	8176
813.421	8043
813.562	7921
813.703	7860
813.845	7727
813.986	7445
814.127	7247
814.268	7206
814.41	7324
814.551	7202
814.692	7236
814.833	7069
814.974	7122
815.115	7137
815.256	6897
815.397	6951
815.539	6958
815.68	6844
815.821	6730
815.962	6840
816.103	6825
816.244	6677
816.385	6597
816.526	6612
816.666	6479
816.807	6361
816.948	6441
817.089	6471
817.23	6467
817.371	6391
817.512	6407
817.653	6365
817.793	6327
817.934	6464
818.075	6422
818.216	6471
818.356	6437
818.497	6273
818.638	6083
818.778	6163
818.919	6175
819.06	6152
819.2	6285
819.341	6289
819.481	6414
819.622	6486
819.762	6719
819.903	6753
820.043	6570
820.184	6608
820.324	6597
820.465	6707
820.605	6703
820.746	6631
820.886	6513
821.026	6692
821.167	6681
821.307	6848
821.447	6768
821.588	6585
821.728	6521
821.868	6471
822.008	6350
822.149	6334
822.289	6372
822.429	6064
822.569	6053
822.709	6098
822.849	5912
822.99	5923
823.13	5927
823.27	5950
823.41	5844
823.55	5764
823.69	5775
823.83	5737
823.97	5657
824.11	5539
824.25	5490
824.389	5539
824.529	5577
824.669	5532
824.809	5630
824.949	5630
825.089	5577
825.228	5551
825.368	5368
825.508	5372
825.648	5322
825.787	5337
825.927	5364
826.067	5269
826.206	5242
826.346	5398
826.485	5425
826.625	5433
826.765	5600
826.904	5486
827.044	5250
827.183	5235
827.323	5117
827.462	5231
827.601	5181
827.741	5204
827.88	5299
828.02	5041
828.159	5250
828.298	5280
828.437	5292
828.577	5273
828.716	5486
828.855	5349
828.994	5155
829.134	5178
829.273	5197
829.412	5162
829.551	5094
829.69	5181
829.829	5273
829.968	5387
830.107	5239
830.246	5269
830.385	5197
830.524	5147
830.663	5090
830.802	5056
830.941	4934
831.08	4919
831.219	4953
831.357	4968
831.496	5178
831.635	4896
831.774	4801
831.913	4862
832.051	4763
832.19	4759
832.329	4824
832.467	4694
832.606	4679
832.744	4694
832.883	4725
833.022	4706
833.16	4782
833.299	4843
833.437	4812
833.576	4835
833.714	4889
833.852	4805
833.991	4900
834.129	4995
834.267	4923
834.406	4870
834.544	4980
834.682	4968
834.821	4919
834.959	5132
835.097	4991
835.235	5166
835.373	5060
835.511	5105
835.65	4999
835.788	5006
835.926	4858
836.064	4927
836.202	4949
836.34	5166
836.478	5231
836.615	5064
836.753	5170
836.891	5269
837.029	5269
837.167	5162
837.305	5155
837.443	5189
837.58	5056
837.718	5250
837.856	5159
837.993	5166
838.131	5258
838.269	5174
838.406	5166
838.544	5204
838.681	5033
838.819	4995
838.956	4930
839.094	4927
839.231	4976
839.369	5067
839.506	5493
839.643	5250
839.781	5056
839.918	5045
840.055	5086
840.193	5105
840.33	5075
840.467	5136
840.604	5174
840.742	5433
840.879	5071
841.016	5124
841.153	5170
841.29	5364
841.427	5280
841.564	5326
841.701	5360
841.838	5277
841.975	5269
842.112	5307
842.249	5121
842.385	5102
842.522	5261
842.659	5128
842.796	5132
842.933	5193
843.069	5189
843.206	5132
843.343	5303
843.479	5201
843.616	5292
843.752	5003
843.889	4991
844.025	5189
844.162	5006
844.298	5170
844.435	5090
844.571	5067
844.708	5208
844.844	5284
844.98	5307
845.117	5307
845.253	5140
845.389	5128
845.525	5197
845.661	5159
845.798	5033
845.934	5090
846.07	5067
846.206	5193
846.342	5242
846.478	5151
846.614	5003
846.75	4987
846.886	4980
847.022	5151
847.158	5052
847.294	5075
847.429	5090
847.565	5071
847.701	5337
847.837	4824
847.972	4805
848.108	4972
848.244	4942
848.379	4755
848.515	4691
848.65	4668
848.786	4717
848.921	4694
849.057	4839
849.192	4862
849.328	4771
849.463	4824
849.598	4752
849.734	4786
849.869	4687
850.004	4584
850.14	4653
850.275	4634
850.41	4535
850.545	4561
850.68	4603
850.815	4618
850.95	4592
851.085	4889
851.22	4714
851.355	4645
851.49	4611
851.625	4637
851.76	4618
851.895	4523
852.03	4538
852.165	4634
852.299	4694
852.434	4801
852.569	4740
852.703	4816
852.838	4801
852.973	4934
853.107	4908
853.242	4740
853.376	4637
853.511	4531
853.645	4615
853.78	4812
853.914	4691
854.048	4637
854.183	4672
854.317	4687
854.451	4870
854.585	4714
854.72	4634
854.854	4675
854.988	4630
855.122	4656
855.256	4493
855.39	4649
855.524	4759
855.658	4710
855.792	4668
855.926	4736
856.06	4752
856.194	4831
856.327	4637
856.461	4607
856.595	4565
856.729	4615
856.862	4759
856.996	4664
857.13	4729
857.263	4759
857.397	4809
857.53	4664
857.664	4740
857.797	4736
857.931	4771
858.064	4645
858.197	4782
858.331	4687
858.464	4618
858.597	4504
858.731	4668
858.864	4634
858.997	4550
859.13	4653
859.263	4580
859.396	4656
859.529	4542
859.662	4588
859.795	4565
859.928	4588
860.061	4725
860.194	4752
860.327	4573
860.46	4538
860.592	4767
860.725	4740
860.858	4687
860.99	4569
861.123	4527
861.256	4535
861.388	4653
861.521	5280
861.653	4531
861.786	4424
861.918	4470
862.05	4508
862.183	4615
862.315	4550
862.447	4641
862.58	4531
862.712	4379
862.844	4356
862.976	4470
863.108	4466
863.24	4752
863.372	4329
863.504	4428
863.636	4398
863.768	4470
863.9	4417
864.032	4421
864.164	4348
864.296	4504
864.428	4542
864.559	4569
864.691	4542
864.823	4481
864.954	4489
865.086	4466
865.217	4470
865.349	4489
865.48	4466
865.612	4500
865.743	4584
865.875	4478
866.006	4386
866.137	4443
866.269	4417
866.4	4436
866.531	4428
866.662	4432
866.793	4409
866.924	4375
867.055	4459
867.186	4424
867.317	4424
867.448	4318
867.579	4375
867.71	4394
867.841	4363
867.972	4474
868.103	4470
868.233	4485
868.364	4440
868.495	4531
868.625	4660
868.756	4767
868.886	4580
869.017	4611
869.147	4786
869.278	4774
869.408	4641
869.539	4634
869.669	4649
869.799	4668
869.929	4790
870.06	4733
870.19	4934
870.32	4892
870.45	4908
870.58	5033
870.71	5094
870.84	5075
870.97	4976
871.1	4866
871.23	5140
871.36	5117
871.489	5090
871.619	5071
871.749	5060
871.879	5151
872.008	5174
872.138	5052
872.267	4968
872.397	4831
872.526	4793
872.656	4694
872.785	4862
872.915	4930
873.044	5006
873.173	4965
873.303	4957
873.432	4949
873.561	4991
873.69	4839
873.819	4847
873.948	4908
874.077	4835
874.206	4763
874.335	4767
874.464	4949
874.593	5060
874.722	4953
874.851	5071
874.979	5090
875.108	5014
875.237	4870
875.365	4889
875.494	4934
875.623	5022
875.751	4816
875.88	4919
876.008	4965
876.136	5014
876.265	5170
876.393	5315
876.521	5227
876.65	5193
876.778	5155
876.906	5090
877.034	5022
877.162	4972
877.29	4957
877.418	5052
877.546	5022
877.674	5045
877.802	5041
877.93	5018
878.058	4991
878.185	4854
878.313	4961
878.441	4949
878.568	4786
878.696	4870
878.824	4946
878.951	4980
879.079	5159
879.206	5250
879.333	5113
879.461	4984
879.588	5029
879.715	5083
879.842	5242
879.97	4965
880.097	4767
880.224	4744
880.351	4835
880.478	4820
880.605	4801
880.732	4790
880.859	5105
880.986	4900
881.112	4889
881.239	4767
881.366	4714
881.493	4622
881.619	4611
881.746	4641
881.872	4626
881.999	4622
882.125	4683
882.252	4759
882.378	4793
882.505	4953
882.631	4786
882.757	4672
882.883	4702
883.01	4736
883.136	4630
883.262	4611
883.388	4637
883.514	4790
883.64	4927
883.766	4812
883.892	4675
884.018	4729
884.143	4934
884.269	5018
884.395	4637
884.52	4664
884.646	4660
884.772	4622
884.897	4588
885.023	4691
885.148	4748
885.274	4934
885.399	4801
885.524	4664
885.65	4664
885.775	4729
885.9	4698
886.025	4850
886.15	4793
886.275	4710
886.4	4622
886.525	4744
886.65	4660
886.775	4748
886.9	4915
887.025	5037
887.149	4820
887.274	4683
887.399	4554
887.523	4584
887.648	4554
887.773	4622
887.897	4748
888.021	4740
888.146	4702
888.27	4797
888.395	4915
888.519	4782
888.643	4805
888.767	4843
888.891	4641
889.015	4603
889.139	4641
889.263	4592
889.387	4733
889.511	4889
889.635	4759
889.759	4607
889.883	4630
890.006	4691
890.13	4816
890.254	4630
890.377	4668
890.501	4535
890.624	4443
890.748	4607
890.871	4481
890.995	4417
891.118	4428
891.241	4485
891.364	4573
891.488	4641
891.611	4489
891.734	4569
891.857	4607
891.98	4565
892.103	4611
892.226	4569
892.349	4599
892.471	4455
892.594	4535
892.717	4535
892.839	4580
892.962	4645
893.085	4649
893.207	4580
893.33	4489
893.452	4500
893.575	4645
893.697	4573
893.819	4706
893.941	4843
894.064	4748
894.186	4538
894.308	4558
894.43	4752
894.552	4850
894.674	4740
894.796	4588
894.918	4592
895.04	4550
895.161	4664
895.283	4664
895.405	4618
895.526	4641
895.648	4725
895.769	4710
895.891	4694
896.012	4725
896.134	4717
896.255	4687
896.376	4664
896.498	4611
896.619	4660
896.74	4584
896.861	4634
896.982	4968
897.103	5113
897.224	4854
897.345	4755
897.466	4630
897.587	4733
897.708	4862
897.828	4748
897.949	4714
898.07	4573
898.19	4645
898.311	4828
898.431	4702
898.552	4714
898.672	4847
898.792	4820
898.913	4721
899.033	4645
899.153	4478
899.273	4432
899.393	4481
899.513	4508
899.633	4500
899.753	4569
899.873	4470
899.993	4558
900.113	4478
900.232	4558
900.352	4577
900.472	4470
900.591	4417
900.711	4481
900.83	4421
900.95	4626
901.069	4675
901.189	4531
901.308	4379
901.427	4333
901.546	4383
901.665	4504
901.784	4565
901.904	4360
902.023	4295
902.141	4166
902.26	4154
902.379	4325
902.498	4215
902.617	4257
902.735	4363
902.854	4390
902.973	4428
903.091	4223
903.21	4215
903.328	4303
903.446	4238
903.565	4257
903.683	4348
903.801	4287
903.919	4409
904.038	4443
904.156	4299
904.274	4421
904.392	4371
904.51	4424
904.627	4500
904.745	4569
904.863	4630
904.981	4379
905.098	4329
905.216	4371
905.334	4443
905.451	4462
905.569	4409
905.686	4531
905.803	4599
905.921	4371
906.038	4573
906.155	4512
906.272	4394
906.389	4481
906.506	4356
906.623	4356
906.74	4375
906.857	4287
906.974	4417
907.091	4554
907.208	4664
907.324	4554
907.441	4489
907.557	4352
907.674	4379
907.79	4314
907.907	4348
908.023	4462
908.139	4462
908.256	4451
908.372	4508
908.488	4462
908.604	4375
908.72	4352
908.836	4352
908.952	4375
909.068	4421
909.184	4565
909.3	4466
909.415	4592
909.531	4493
909.647	4318
909.762	4360
909.878	4386
909.993	4462
910.108	4417
910.224	4409
910.339	4516
910.454	4417
910.57	4329
910.685	4337
910.8	4645
910.915	4615
911.03	4481
911.145	4318
911.259	4360
911.374	4322
911.489	4261
911.604	4284
911.718	4150
911.833	4200
911.947	4021
912.062	4036
912.176	4169
912.291	4242
912.405	4268
912.519	4466
912.633	4512
912.748	4390
912.862	4325
912.976	4211
913.09	4120
913.204	4196
913.318	4246
913.431	4329
913.545	4348
913.659	4443
913.772	4337
913.886	4272
914	4211
914.113	4375
914.226	4405
914.34	4409
914.453	4204
914.566	4447
914.68	4314
914.793	4314
914.906	4158
915.019	4154
915.132	4051
915.245	4173
915.358	4173
915.47	4166
915.583	4242
915.696	4280
915.809	4379
915.921	4421
916.034	4253
916.146	4261
916.259	4215
916.371	4379
916.483	4352
916.595	4253
916.708	4287
916.82	4314
916.932	4310
917.044	4280
917.156	4322
917.268	4246
917.38	4223
917.491	4272
917.603	4356
917.715	4436
917.826	4462
917.938	4375
918.049	4246
918.161	4398
918.272	4519
918.384	4546
918.495	4497
918.606	4329
918.717	4211
918.828	4379
918.939	4398
919.05	4261
919.161	4291
919.272	4147
919.383	4265
919.494	4428
919.604	4618
919.715	4424
919.826	4383
919.936	4360
920.047	4538
920.157	4516
920.267	4679
920.378	4508
920.488	4489
920.598	4694
920.708	4858
920.818	4744
920.928	4725
921.038	4919
921.148	4942
921.258	4592
921.368	4531
921.477	4489
921.587	4417
921.697	4356
921.806	4573
921.916	4417
922.025	4238
922.134	4227
922.244	4204
922.353	4272
922.462	4147
922.571	4124
922.68	4013
922.789	4013
922.898	4032
923.007	3972
923.116	4124
923.224	4051
923.333	4055
923.442	4025
923.55	3998
923.659	3994
923.767	4082
923.876	3975
923.984	4139
924.092	3972
924.201	4036
924.309	4097
924.417	4097
924.525	4093
924.633	4044
924.741	5003
924.849	3915
924.956	4086
925.064	3972
925.172	3884
925.279	3930
925.387	4021
925.494	4101
925.602	4207
925.709	4177
925.816	4021
925.924	4120
926.031	4185
926.138	4177
926.245	4185
926.352	4082
926.459	4242
926.566	4246
926.673	4120
926.779	4029
926.886	4040
926.993	4017
927.099	4002
927.206	3937
927.312	3953
927.419	4025
927.525	3998
927.631	4086
927.737	3987
927.843	3949
927.95	3880
928.056	3941
928.162	3991
928.267	4078
928.373	4588
928.479	4105
928.585	3922
928.69	4040
928.796	4059
928.901	3937
929.007	3865
929.112	4055
929.218	4002
929.323	3968
929.428	3975
929.533	4093
929.638	3892
929.743	3911
929.848	4082
929.953	4044
930.058	3888
930.163	3785
930.267	3819
930.372	3956
930.477	3762
930.581	4093
930.685	3975
930.79	3835
930.894	3880
930.998	3846
931.103	4025
931.207	3705
931.311	3682
931.415	3675
931.519	3557
931.623	3564
