Data from test_V78500241_349.txt Node
Date: Fri Mar 25 16:51:25 CST 2022
User: usil
Spectrometer: V785-0024
Trigger mode: 0
Integration Time (sec): 4.000000E-1
Scans to average: 1
Nonlinearity correction enabled: false
Boxcar width: 0
Storing dark spectrum: false
XAxis mode: Wavelengths
Number of Pixels in Spectrum: 1024
>>>>>Begin Spectral Data<<<<<
801.071	7997
801.214	8050
801.356	7909
801.499	7902
801.641	7849
801.783	7883
801.926	7917
802.068	8005
802.211	8088
802.353	8005
802.496	7936
802.638	7963
802.78	7947
802.923	7963
803.065	7852
803.208	7811
803.35	7970
803.492	8050
803.635	8077
803.777	7997
803.919	8206
804.061	8438
804.204	8092
804.346	8088
804.488	7928
804.63	8145
804.773	8043
804.915	8119
805.057	8267
805.199	8126
805.341	8206
805.483	8237
805.626	8161
805.768	8058
805.91	8119
806.052	8237
806.194	8088
806.336	8336
806.478	8134
806.62	8130
806.762	8111
806.904	8309
807.046	8381
807.188	8336
807.33	8256
807.472	8339
807.614	8237
807.756	8168
807.898	8031
808.04	7887
808.182	8001
808.324	7890
808.465	7997
808.607	8084
808.749	8058
808.891	8218
809.033	8313
809.174	8202
809.316	8084
809.458	8020
809.6	8035
809.741	7970
809.883	8005
810.025	8039
810.166	8119
810.308	8088
810.45	8027
810.591	7879
810.733	7788
810.875	7632
811.016	7537
811.158	7499
811.299	7586
811.441	7822
811.582	7681
811.724	7571
811.865	7567
812.007	7639
812.148	7567
812.29	7601
812.431	7792
812.573	7871
812.714	7967
812.855	8123
812.997	8225
813.138	8256
813.279	8134
813.421	8142
813.562	8001
813.703	7940
813.845	7738
813.986	7510
814.127	7320
814.268	7228
814.41	7168
814.551	7152
814.692	7213
814.833	7107
814.974	7042
815.115	7076
815.256	6958
815.397	6920
815.539	6939
815.68	6878
815.821	6745
815.962	6886
816.103	6871
816.244	6734
816.385	6692
816.526	6681
816.666	6502
816.807	6357
816.948	6483
817.089	6475
817.23	6407
817.371	6353
817.512	6365
817.653	6388
817.793	6410
817.934	6448
818.075	6479
818.216	6426
818.356	6384
818.497	6232
818.638	6136
818.778	6171
818.919	6114
819.06	6186
819.2	6266
819.341	6353
819.481	6388
819.622	6559
819.762	6730
819.903	6711
820.043	6631
820.184	6570
820.324	6540
820.465	6646
820.605	6677
820.746	6650
820.886	6479
821.026	6650
821.167	6719
821.307	6894
821.447	6833
821.588	6639
821.728	6604
821.868	6475
822.008	6308
822.149	6331
822.289	6357
822.429	6136
822.569	6060
822.709	6148
822.849	5954
822.99	5878
823.13	5950
823.27	5904
823.41	5870
823.55	5817
823.69	5767
823.83	5802
823.97	5646
824.11	5535
824.25	5554
824.389	5585
824.529	5600
824.669	5535
824.809	5657
824.949	5661
825.089	5676
825.228	5528
825.368	5421
825.508	5315
825.648	5326
825.787	5345
825.927	5387
826.067	5280
826.206	5318
826.346	5353
826.485	5425
826.625	5448
826.765	5551
826.904	5425
827.044	5246
827.183	5208
827.323	5166
827.462	5212
827.601	5178
827.741	5231
827.88	5216
828.02	5170
828.159	5223
828.298	5318
828.437	5334
828.577	5292
828.716	5524
828.855	5299
828.994	5193
829.134	5159
829.273	5136
829.412	5166
829.551	5178
829.69	5151
829.829	5265
829.968	5383
830.107	5223
830.246	5277
830.385	5208
830.524	5143
830.663	5102
830.802	4972
830.941	4911
831.08	4843
831.219	4980
831.357	4984
831.496	5155
831.635	4965
831.774	4892
831.913	4870
832.051	4733
832.19	4710
832.329	4843
832.467	4683
832.606	4653
832.744	4702
832.883	4702
833.022	4733
833.16	4797
833.299	4847
833.437	4748
833.576	4839
833.714	4843
833.852	4889
833.991	4949
834.129	4991
834.267	4984
834.406	4942
834.544	4976
834.682	4972
834.821	4965
834.959	5124
835.097	4984
835.235	5170
835.373	5064
835.511	5140
835.65	5090
835.788	4965
835.926	4889
836.064	4843
836.202	4927
836.34	5216
836.478	5216
836.615	5117
836.753	5220
836.891	5296
837.029	5269
837.167	5162
837.305	5193
837.443	5166
837.58	5067
837.718	5265
837.856	5174
837.993	5197
838.131	5258
838.269	5254
838.406	5254
838.544	5193
838.681	5071
838.819	5029
838.956	4957
839.094	4961
839.231	4961
839.369	5102
839.506	5398
839.643	5318
839.781	5041
839.918	5041
840.055	5098
840.193	5136
840.33	5155
840.467	5166
840.604	5197
840.742	5486
840.879	5113
841.016	5075
841.153	5174
841.29	5372
841.427	5337
841.564	5364
841.701	5337
841.838	5299
841.975	5307
842.112	5250
842.249	5117
842.385	5140
842.522	5376
842.659	5143
842.796	5162
842.933	5231
843.069	5170
843.206	5197
843.343	5277
843.479	5208
843.616	5284
843.752	5041
843.889	5064
844.025	5181
844.162	4968
844.298	5174
844.435	5094
844.571	5041
844.708	5212
844.844	5334
844.98	5364
845.117	5311
845.253	5181
845.389	5151
845.525	5170
845.661	5155
845.798	5079
845.934	5132
846.07	5022
846.206	5193
846.342	5258
846.478	5208
846.614	5006
846.75	4961
846.886	4953
847.022	5143
847.158	4995
847.294	5094
847.429	5124
847.565	5067
847.701	5307
847.837	4881
847.972	4835
848.108	4930
848.244	4972
848.379	4850
848.515	4679
848.65	4721
848.786	4740
848.921	4843
849.057	4881
849.192	4911
849.328	4801
849.463	4854
849.598	4759
849.734	4790
849.869	4725
850.004	4603
850.14	4687
850.275	4618
850.41	4527
850.545	4565
850.68	4626
850.815	4596
850.95	4607
851.085	4854
851.22	4778
851.355	4672
851.49	4603
851.625	4645
851.76	4611
851.895	4607
852.03	4546
852.165	4672
852.299	4687
852.434	4805
852.569	4725
852.703	4774
852.838	4805
852.973	4949
853.107	4892
853.242	4721
853.376	4717
853.511	4550
853.645	4615
853.78	4809
853.914	4687
854.048	4660
854.183	4634
854.317	4698
854.451	4824
854.585	4679
854.72	4622
854.854	4778
854.988	4573
855.122	4675
855.256	4519
855.39	4679
855.524	4786
855.658	4740
855.792	4683
855.926	4729
856.06	4790
856.194	4801
856.327	4714
856.461	4584
856.595	4618
856.729	4588
856.862	4771
856.996	4694
857.13	4736
857.263	4752
857.397	4820
857.53	4660
857.664	4691
857.797	4744
857.931	4771
858.064	4714
858.197	4736
858.331	4675
858.464	4618
858.597	4500
858.731	4588
858.864	4637
858.997	4668
859.13	4634
859.263	4694
859.396	4683
859.529	4577
859.662	4580
859.795	4508
859.928	4637
860.061	4782
860.194	4797
860.327	4615
860.46	4611
860.592	4710
860.725	4767
860.858	4744
860.99	4531
861.123	4538
861.256	4558
861.388	4634
861.521	5322
861.653	4497
861.786	4459
861.918	4474
862.05	4535
862.183	4531
862.315	4580
862.447	4649
862.58	4569
862.712	4466
862.844	4314
862.976	4489
863.108	4451
863.24	4786
863.372	4371
863.504	4462
863.636	4436
863.768	4470
863.9	4497
864.032	4337
864.164	4394
864.296	4508
864.428	4519
864.559	4584
864.691	4542
864.823	4519
864.954	4497
865.086	4527
865.217	4470
865.349	4451
865.48	4466
865.612	4478
865.743	4634
865.875	4421
866.006	4436
866.137	4508
866.269	4470
866.4	4478
866.531	4386
866.662	4417
866.793	4451
866.924	4421
867.055	4459
867.186	4474
867.317	4413
867.448	4402
867.579	4375
867.71	4402
867.841	4367
867.972	4447
868.103	4466
868.233	4394
868.364	4455
868.495	4493
868.625	4634
868.756	4744
868.886	4592
869.017	4565
869.147	4835
869.278	4763
869.408	4664
869.539	4637
869.669	4710
869.799	4634
869.929	4774
870.06	4736
870.19	4987
870.32	4930
870.45	5006
870.58	5014
870.71	5102
870.84	5117
870.97	4976
871.1	4877
871.23	5189
871.36	5155
871.489	5010
871.619	5045
871.749	5083
871.879	5102
872.008	5204
872.138	5064
872.267	5025
872.397	4847
872.526	4801
872.656	4771
872.785	4778
872.915	4953
873.044	5029
873.173	4923
873.303	4980
873.432	4953
873.561	4991
873.69	4919
873.819	4873
873.948	4896
874.077	4820
874.206	4771
874.335	4797
874.464	4915
874.593	5075
874.722	4972
874.851	5162
874.979	5083
875.108	5048
875.237	4919
875.365	4843
875.494	4877
875.623	4938
875.751	4881
875.88	4911
876.008	4972
876.136	5029
876.265	5246
876.393	5318
876.521	5216
876.65	5201
876.778	5174
876.906	5029
877.034	5022
877.162	5098
877.29	4991
877.418	5060
877.546	5048
877.674	5079
877.802	5071
877.93	5022
878.058	4968
878.185	4866
878.313	4934
878.441	5006
878.568	4809
878.696	4889
878.824	4957
878.951	5033
879.079	5090
879.206	5318
879.333	5102
879.461	4957
879.588	4968
879.715	5075
879.842	5185
879.97	4991
880.097	4774
880.224	4801
880.351	4847
880.478	4877
880.605	4782
880.732	4866
880.859	5079
880.986	4885
881.112	4923
881.239	4778
881.366	4683
881.493	4649
881.619	4569
881.746	4615
881.872	4698
881.999	4736
882.125	4634
882.252	4763
882.378	4828
882.505	4968
882.631	4805
882.757	4706
882.883	4748
883.01	4744
883.136	4641
883.262	4668
883.388	4637
883.514	4816
883.64	4843
883.766	4809
883.892	4664
884.018	4740
884.143	4877
884.269	5003
884.395	4702
884.52	4607
884.646	4656
884.772	4630
884.897	4569
885.023	4649
885.148	4843
885.274	4801
885.399	4782
885.524	4714
885.65	4694
885.775	4778
885.9	4744
886.025	4854
886.15	4805
886.275	4736
886.4	4645
886.525	4706
886.65	4691
886.775	4706
886.9	4896
887.025	5056
887.149	4809
887.274	4626
887.399	4618
887.523	4641
887.648	4592
887.773	4603
887.897	4816
888.021	4805
888.146	4694
888.27	4797
888.395	4946
888.519	4828
888.643	4816
888.767	4816
888.891	4668
889.015	4554
889.139	4664
889.263	4592
889.387	4763
889.511	4824
889.635	4820
889.759	4660
889.883	4634
890.006	4733
890.13	4881
890.254	4672
890.377	4668
890.501	4535
890.624	4531
890.748	4668
890.871	4538
890.995	4432
891.118	4409
891.241	4538
891.364	4565
891.488	4649
891.611	4516
891.734	4558
891.857	4603
891.98	4561
892.103	4679
892.226	4592
892.349	4512
892.471	4421
892.594	4558
892.717	4588
892.839	4649
892.962	4599
893.085	4664
893.207	4569
893.33	4436
893.452	4535
893.575	4687
893.697	4584
893.819	4809
893.941	4797
894.064	4793
894.186	4573
894.308	4649
894.43	4763
894.552	4782
894.674	4763
894.796	4580
894.918	4592
895.04	4596
895.161	4736
895.283	4672
895.405	4573
895.526	4599
895.648	4679
895.769	4675
895.891	4698
896.012	4736
896.134	4755
896.255	4656
896.376	4672
896.498	4588
896.619	4725
896.74	4615
896.861	4645
896.982	4934
897.103	5048
897.224	4812
897.345	4740
897.466	4717
897.587	4729
897.708	4858
897.828	4771
897.949	4664
898.07	4607
898.19	4649
898.311	4786
898.431	4698
898.552	4725
898.672	4858
898.792	4771
898.913	4710
899.033	4626
899.153	4527
899.273	4447
899.393	4478
899.513	4516
899.633	4542
899.753	4516
899.873	4523
899.993	4611
900.113	4500
900.232	4565
900.352	4485
900.472	4470
900.591	4443
900.711	4474
900.83	4451
900.95	4558
901.069	4710
901.189	4535
901.308	4390
901.427	4344
901.546	4413
901.665	4447
901.784	4508
901.904	4421
902.023	4329
902.141	4200
902.26	4162
902.379	4360
902.498	4276
902.617	4230
902.735	4280
902.854	4390
902.973	4375
903.091	4230
903.21	4238
903.328	4314
903.446	4284
903.565	4234
903.683	4325
903.801	4310
903.919	4375
904.038	4455
904.156	4329
904.274	4402
904.392	4394
904.51	4485
904.627	4459
904.745	4584
904.863	4618
904.981	4386
905.098	4299
905.216	4383
905.334	4443
905.451	4424
905.569	4440
905.686	4546
905.803	4542
905.921	4394
906.038	4527
906.155	4504
906.272	4455
906.389	4459
906.506	4383
906.623	4363
906.74	4341
906.857	4306
906.974	4398
907.091	4569
907.208	4717
907.324	4588
907.441	4523
907.557	4333
907.674	4337
907.79	4371
907.907	4371
908.023	4451
908.139	4512
908.256	4432
908.372	4466
908.488	4462
908.604	4310
908.72	4348
908.836	4383
908.952	4402
909.068	4405
909.184	4565
909.3	4516
909.415	4573
909.531	4565
909.647	4325
909.762	4375
909.878	4310
909.993	4451
910.108	4443
910.224	4371
910.339	4535
910.454	4405
910.57	4356
910.685	4303
910.8	4653
910.915	4523
911.03	4535
911.145	4333
911.259	4360
911.374	4379
911.489	4322
911.604	4284
911.718	4185
911.833	4234
911.947	4116
912.062	4025
912.176	4230
912.291	4287
912.405	4246
912.519	4478
912.633	4493
912.748	4371
912.862	4318
912.976	4204
913.09	4067
913.204	4181
913.318	4238
913.431	4409
913.545	4356
913.659	4459
913.772	4344
913.886	4261
914	4204
914.113	4402
914.226	4405
914.34	4344
914.453	4253
914.566	4409
914.68	4314
914.793	4329
914.906	4185
915.019	4116
915.132	4074
915.245	4196
915.358	4230
915.47	4192
915.583	4284
915.696	4325
915.809	4432
915.921	4432
916.034	4306
916.146	4242
916.259	4219
916.371	4379
916.483	4409
916.595	4280
916.708	4318
916.82	4295
916.932	4284
917.044	4322
917.156	4333
917.268	4234
917.38	4280
917.491	4287
917.603	4360
917.715	4455
917.826	4447
917.938	4341
918.049	4261
918.161	4402
918.272	4527
918.384	4527
918.495	4443
918.606	4306
918.717	4265
918.828	4329
918.939	4402
919.05	4276
919.161	4303
919.272	4143
919.383	4223
919.494	4436
919.604	4630
919.715	4455
919.826	4379
919.936	4394
920.047	4489
920.157	4432
920.267	4706
920.378	4500
920.488	4474
920.598	4721
920.708	4870
920.818	4740
920.928	4797
921.038	4923
921.148	4938
921.258	4550
921.368	4569
921.477	4538
921.587	4497
921.697	4394
921.806	4592
921.916	4443
922.025	4268
922.134	4280
922.244	4223
922.353	4348
922.462	4158
922.571	4204
922.68	3991
922.789	3994
922.898	4067
923.007	4032
923.116	4128
923.224	4044
923.333	4109
923.442	3975
923.55	4010
923.659	4074
923.767	4116
923.876	3972
923.984	4139
924.092	3979
924.201	4071
924.309	4116
924.417	4116
924.525	4067
924.633	4112
924.741	4892
924.849	3899
924.956	4154
925.064	3953
925.172	3930
925.279	3968
925.387	4021
925.494	4025
925.602	4192
925.709	4219
925.816	4040
925.924	4101
926.031	4261
926.138	4154
926.245	4196
926.352	4044
926.459	4188
926.566	4299
926.673	4139
926.779	4112
926.886	4105
926.993	3975
927.099	3983
927.206	3930
927.312	3930
927.419	4093
927.525	4055
927.631	4101
927.737	3975
927.843	3953
927.95	3831
928.056	3922
928.162	3964
928.267	4006
928.373	4679
928.479	4101
928.585	3857
928.69	3998
928.796	4044
928.901	3979
929.007	3857
929.112	3998
929.218	3953
929.323	3945
929.428	3930
929.533	4116
929.638	3903
929.743	3987
929.848	4044
929.953	3998
930.058	3922
930.163	3755
930.267	3861
930.372	3922
930.477	3812
930.581	4090
930.685	3972
930.79	3838
930.894	3899
930.998	3857
931.103	4067
931.207	3770
931.311	3686
931.415	3679
931.519	3523
931.623	3564
