Data from test_V78500241_258.txt Node
Date: Fri Mar 25 16:50:47 CST 2022
User: usil
Spectrometer: V785-0024
Trigger mode: 0
Integration Time (sec): 4.000000E-1
Scans to average: 1
Nonlinearity correction enabled: false
Boxcar width: 0
Storing dark spectrum: false
XAxis mode: Wavelengths
Number of Pixels in Spectrum: 1024
>>>>>Begin Spectral Data<<<<<
801.071	8054
801.214	8054
801.356	7932
801.499	7799
801.641	7799
801.783	7849
801.926	7917
802.068	7986
802.211	8027
802.353	7963
802.496	7875
802.638	7982
802.78	7959
802.923	7959
803.065	7856
803.208	7883
803.35	7875
803.492	8103
803.635	8149
803.777	8016
803.919	8073
804.061	8461
804.204	8123
804.346	8027
804.488	7951
804.63	8119
804.773	7959
804.915	8084
805.057	8248
805.199	8107
805.341	8183
805.483	8248
805.626	8183
805.768	8024
805.91	8176
806.052	8218
806.194	8081
806.336	8305
806.478	8180
806.62	8054
806.762	8123
806.904	8244
807.046	8427
807.188	8381
807.33	8259
807.472	8366
807.614	8145
807.756	8107
807.898	7917
808.04	7883
808.182	7970
808.324	7906
808.465	7906
808.607	8073
808.749	8103
808.891	8187
809.033	8290
809.174	8157
809.316	8084
809.458	8008
809.6	8031
809.741	7970
809.883	7993
810.025	8092
810.166	8119
810.308	8005
810.45	7967
810.591	7936
810.733	7761
810.875	7662
811.016	7480
811.158	7483
811.299	7636
811.441	7746
811.582	7696
811.724	7578
811.865	7537
812.007	7624
812.148	7651
812.29	7613
812.431	7769
812.573	7898
812.714	8054
812.855	8145
812.997	8157
813.138	8271
813.279	8191
813.421	8088
813.562	8039
813.703	7761
813.845	7696
813.986	7415
814.127	7240
814.268	7240
814.41	7198
814.551	7133
814.692	7141
814.833	7122
814.974	7095
815.115	7122
815.256	6973
815.397	6943
815.539	6932
815.68	6814
815.821	6753
815.962	6886
816.103	6818
816.244	6776
816.385	6715
816.526	6616
816.666	6471
816.807	6311
816.948	6433
817.089	6456
817.23	6399
817.371	6334
817.512	6399
817.653	6365
817.793	6319
817.934	6353
818.075	6479
818.216	6502
818.356	6399
818.497	6178
818.638	6133
818.778	6194
818.919	6125
819.06	6144
819.2	6308
819.341	6311
819.481	6353
819.622	6490
819.762	6688
819.903	6700
820.043	6559
820.184	6551
820.324	6589
820.465	6673
820.605	6623
820.746	6631
820.886	6490
821.026	6631
821.167	6662
821.307	6833
821.447	6753
821.588	6658
821.728	6502
821.868	6490
822.008	6308
822.149	6365
822.289	6315
822.429	6163
822.569	6053
822.709	6133
822.849	5916
822.99	5916
823.13	5908
823.27	5920
823.41	5786
823.55	5741
823.69	5764
823.83	5771
823.97	5691
824.11	5558
824.25	5490
824.389	5535
824.529	5528
824.669	5516
824.809	5592
824.949	5657
825.089	5608
825.228	5562
825.368	5421
825.508	5368
825.648	5372
825.787	5353
825.927	5345
826.067	5265
826.206	5299
826.346	5368
826.485	5406
826.625	5448
826.765	5509
826.904	5467
827.044	5277
827.183	5174
827.323	5136
827.462	5242
827.601	5128
827.741	5193
827.88	5197
828.02	5109
828.159	5239
828.298	5280
828.437	5368
828.577	5231
828.716	5425
828.855	5311
828.994	5204
829.134	5124
829.273	5204
829.412	5136
829.551	5094
829.69	5143
829.829	5239
829.968	5376
830.107	5273
830.246	5315
830.385	5204
830.524	5079
830.663	5064
830.802	4957
830.941	4843
831.08	4847
831.219	4987
831.357	4980
831.496	5121
831.635	4965
831.774	4881
831.913	4862
832.051	4767
832.19	4778
832.329	4835
832.467	4687
832.606	4653
832.744	4660
832.883	4698
833.022	4721
833.16	4771
833.299	4801
833.437	4805
833.576	4873
833.714	4862
833.852	4896
833.991	4831
834.129	4957
834.267	4976
834.406	4934
834.544	5060
834.682	4930
834.821	4984
834.959	5178
835.097	4999
835.235	5147
835.373	5086
835.511	5079
835.65	4995
835.788	5064
835.926	4915
836.064	4870
836.202	4938
836.34	5159
836.478	5201
836.615	5121
836.753	5174
836.891	5318
837.029	5220
837.167	5193
837.305	5208
837.443	5136
837.58	5109
837.718	5265
837.856	5235
837.993	5166
838.131	5197
838.269	5277
838.406	5216
838.544	5140
838.681	5041
838.819	5048
838.956	4885
839.094	4896
839.231	4984
839.369	5083
839.506	5448
839.643	5337
839.781	5048
839.918	5014
840.055	5098
840.193	5094
840.33	5105
840.467	5071
840.604	5189
840.742	5444
840.879	5067
841.016	5113
841.153	5102
841.29	5425
841.427	5334
841.564	5288
841.701	5322
841.838	5292
841.975	5273
842.112	5318
842.249	5151
842.385	5140
842.522	5311
842.659	5197
842.796	5181
842.933	5189
843.069	5185
843.206	5189
843.343	5261
843.479	5235
843.616	5269
843.752	5048
843.889	5022
844.025	5193
844.162	5033
844.298	5239
844.435	5071
844.571	5098
844.708	5170
844.844	5239
844.98	5353
845.117	5277
845.253	5109
845.389	5090
845.525	5143
845.661	5155
845.798	5006
845.934	5113
846.07	5083
846.206	5185
846.342	5269
846.478	5166
846.614	5003
846.75	4965
846.886	4908
847.022	5121
847.158	5025
847.294	5045
847.429	5178
847.565	5056
847.701	5372
847.837	4896
847.972	4839
848.108	4965
848.244	4915
848.379	4805
848.515	4763
848.65	4733
848.786	4801
848.921	4744
849.057	4843
849.192	4900
849.328	4843
849.463	4877
849.598	4752
849.734	4778
849.869	4706
850.004	4668
850.14	4656
850.275	4649
850.41	4516
850.545	4569
850.68	4641
850.815	4577
850.95	4630
851.085	4847
851.22	4748
851.355	4717
851.49	4630
851.625	4611
851.76	4634
851.895	4550
852.03	4531
852.165	4660
852.299	4744
852.434	4816
852.569	4744
852.703	4778
852.838	4831
852.973	4923
853.107	4953
853.242	4725
853.376	4649
853.511	4489
853.645	4668
853.78	4828
853.914	4710
854.048	4717
854.183	4649
854.317	4714
854.451	4877
854.585	4664
854.72	4637
854.854	4752
854.988	4615
855.122	4618
855.256	4497
855.39	4660
855.524	4843
855.658	4706
855.792	4683
855.926	4691
856.06	4786
856.194	4774
856.327	4675
856.461	4603
856.595	4626
856.729	4618
856.862	4733
856.996	4729
857.13	4717
857.263	4786
857.397	4805
857.53	4698
857.664	4714
857.797	4733
857.931	4820
858.064	4668
858.197	4736
858.331	4679
858.464	4554
858.597	4516
858.731	4634
858.864	4607
858.997	4611
859.13	4687
859.263	4641
859.396	4694
859.529	4580
859.662	4584
859.795	4531
859.928	4641
860.061	4736
860.194	4774
860.327	4611
860.46	4561
860.592	4672
860.725	4748
860.858	4725
860.99	4577
861.123	4535
861.256	4542
861.388	4603
861.521	5398
861.653	4493
861.786	4443
861.918	4462
862.05	4485
862.183	4558
862.315	4603
862.447	4679
862.58	4558
862.712	4405
862.844	4333
862.976	4493
863.108	4436
863.24	4904
863.372	4329
863.504	4481
863.636	4383
863.768	4470
863.9	4421
864.032	4333
864.164	4379
864.296	4497
864.428	4577
864.559	4546
864.691	4538
864.823	4554
864.954	4500
865.086	4485
865.217	4470
865.349	4447
865.48	4474
865.612	4459
865.743	4615
865.875	4493
866.006	4459
866.137	4474
866.269	4485
866.4	4485
866.531	4428
866.662	4367
866.793	4447
866.924	4360
867.055	4459
867.186	4447
867.317	4432
867.448	4379
867.579	4424
867.71	4428
867.841	4390
867.972	4508
868.103	4443
868.233	4440
868.364	4500
868.495	4478
868.625	4672
868.756	4717
868.886	4588
869.017	4645
869.147	4797
869.278	4755
869.408	4691
869.539	4675
869.669	4721
869.799	4672
869.929	4812
870.06	4706
870.19	4923
870.32	4911
870.45	4919
870.58	4968
870.71	5140
870.84	5113
870.97	4942
871.1	4892
871.23	5151
871.36	5124
871.489	4987
871.619	5071
871.749	5102
871.879	5170
872.008	5166
872.138	5079
872.267	4968
872.397	4892
872.526	4809
872.656	4744
872.785	4866
872.915	4976
873.044	5022
873.173	4938
873.303	4942
873.432	4980
873.561	4923
873.69	4858
873.819	4896
873.948	4938
874.077	4809
874.206	4786
874.335	4854
874.464	4923
874.593	5037
874.722	5006
874.851	5102
874.979	5075
875.108	5022
875.237	4889
875.365	4900
875.494	4900
875.623	4984
875.751	4820
875.88	4915
876.008	4968
876.136	5033
876.265	5201
876.393	5387
876.521	5239
876.65	5220
876.778	5189
876.906	5086
877.034	5029
877.162	5064
877.29	5022
877.418	5071
877.546	5033
877.674	5022
877.802	5006
877.93	4991
878.058	4919
878.185	4873
878.313	4927
878.441	4957
878.568	4850
878.696	4854
878.824	4968
878.951	5037
879.079	5136
879.206	5265
879.333	5060
879.461	4972
879.588	4953
879.715	5117
879.842	5216
879.97	5010
880.097	4797
880.224	4759
880.351	4755
880.478	4774
880.605	4809
880.732	4805
880.859	5064
880.986	4885
881.112	4877
881.239	4873
881.366	4660
881.493	4645
881.619	4580
881.746	4626
881.872	4691
881.999	4649
882.125	4710
882.252	4797
882.378	4828
882.505	4980
882.631	4786
882.757	4641
882.883	4755
883.01	4687
883.136	4668
883.262	4584
883.388	4611
883.514	4774
883.64	4839
883.766	4835
883.892	4721
884.018	4714
884.143	4847
884.269	5052
884.395	4664
884.52	4588
884.646	4603
884.772	4577
884.897	4561
885.023	4664
885.148	4774
885.274	4892
885.399	4835
885.524	4710
885.65	4706
885.775	4714
885.9	4706
886.025	4881
886.15	4809
886.275	4759
886.4	4675
886.525	4729
886.65	4694
886.775	4694
886.9	4919
887.025	5037
887.149	4820
887.274	4702
887.399	4588
887.523	4630
887.648	4550
887.773	4558
887.897	4717
888.021	4801
888.146	4721
888.27	4778
888.395	4900
888.519	4824
888.643	4828
888.767	4809
888.891	4687
889.015	4607
889.139	4672
889.263	4558
889.387	4771
889.511	4892
889.635	4809
889.759	4645
889.883	4618
890.006	4763
890.13	4805
890.254	4630
890.377	4698
890.501	4558
890.624	4554
890.748	4618
890.871	4519
890.995	4424
891.118	4356
891.241	4519
891.364	4527
891.488	4653
891.611	4497
891.734	4546
891.857	4596
891.98	4584
892.103	4622
892.226	4573
892.349	4538
892.471	4424
892.594	4584
892.717	4580
892.839	4554
892.962	4630
893.085	4675
893.207	4615
893.33	4508
893.452	4485
893.575	4687
893.697	4558
893.819	4797
893.941	4881
894.064	4790
894.186	4523
894.308	4550
894.43	4729
894.552	4812
894.674	4755
894.796	4516
894.918	4569
895.04	4580
895.161	4717
895.283	4618
895.405	4554
895.526	4618
895.648	4717
895.769	4672
895.891	4729
896.012	4767
896.134	4706
896.255	4645
896.376	4615
896.498	4679
896.619	4656
896.74	4584
896.861	4668
896.982	4885
897.103	5060
897.224	4828
897.345	4805
897.466	4653
897.587	4744
897.708	4858
897.828	4752
897.949	4698
898.07	4554
898.19	4653
898.311	4850
898.431	4672
898.552	4755
898.672	4721
898.792	4736
898.913	4771
899.033	4603
899.153	4523
899.273	4424
899.393	4504
899.513	4550
899.633	4508
899.753	4561
899.873	4535
899.993	4577
900.113	4542
900.232	4592
900.352	4542
900.472	4478
900.591	4424
900.711	4504
900.83	4436
900.95	4584
901.069	4683
901.189	4573
901.308	4329
901.427	4310
901.546	4367
901.665	4497
901.784	4519
901.904	4363
902.023	4329
902.141	4227
902.26	4185
902.379	4329
902.498	4234
902.617	4261
902.735	4421
902.854	4405
902.973	4383
903.091	4204
903.21	4238
903.328	4295
903.446	4287
903.565	4238
903.683	4329
903.801	4280
903.919	4443
904.038	4447
904.156	4325
904.274	4443
904.392	4417
904.51	4440
904.627	4459
904.745	4596
904.863	4637
904.981	4390
905.098	4314
905.216	4341
905.334	4443
905.451	4497
905.569	4436
905.686	4535
905.803	4577
905.921	4413
906.038	4523
906.155	4493
906.272	4413
906.389	4417
906.506	4383
906.623	4371
906.74	4405
906.857	4325
906.974	4379
907.091	4577
907.208	4706
907.324	4554
907.441	4519
907.557	4363
907.674	4383
907.79	4333
907.907	4375
908.023	4497
908.139	4478
908.256	4405
908.372	4455
908.488	4451
908.604	4337
908.72	4310
908.836	4409
908.952	4383
909.068	4386
909.184	4512
909.3	4481
909.415	4588
909.531	4546
909.647	4348
909.762	4371
909.878	4337
909.993	4428
910.108	4478
910.224	4428
910.339	4493
910.454	4363
910.57	4367
910.685	4352
910.8	4645
910.915	4599
911.03	4489
911.145	4325
911.259	4337
911.374	4375
911.489	4306
911.604	4303
911.718	4162
911.833	4215
911.947	4078
912.062	4029
912.176	4238
912.291	4276
912.405	4249
912.519	4447
912.633	4508
912.748	4371
912.862	4249
912.976	4238
913.09	4093
913.204	4158
913.318	4238
913.431	4386
913.545	4371
913.659	4421
913.772	4352
913.886	4276
914	4219
914.113	4367
914.226	4432
914.34	4421
914.453	4204
914.566	4424
914.68	4272
914.793	4295
914.906	4139
915.019	4086
915.132	4055
915.245	4173
915.358	4200
915.47	4200
915.583	4276
915.696	4318
915.809	4394
915.921	4405
916.034	4223
916.146	4280
916.259	4211
916.371	4386
916.483	4344
916.595	4230
916.708	4379
916.82	4291
916.932	4280
917.044	4310
917.156	4337
917.268	4230
917.38	4265
917.491	4280
917.603	4325
917.715	4428
917.826	4402
917.938	4337
918.049	4238
918.161	4383
918.272	4565
918.384	4554
918.495	4489
918.606	4287
918.717	4276
918.828	4318
918.939	4417
919.05	4246
919.161	4325
919.272	4139
919.383	4219
919.494	4447
919.604	4622
919.715	4394
919.826	4348
919.936	4383
920.047	4535
920.157	4531
920.267	4683
920.378	4569
920.488	4508
920.598	4683
920.708	4877
920.818	4733
920.928	4786
921.038	4938
921.148	4900
921.258	4630
921.368	4535
921.477	4451
921.587	4409
921.697	4409
921.806	4573
921.916	4470
922.025	4242
922.134	4234
922.244	4230
922.353	4341
922.462	4139
922.571	4124
922.68	4002
922.789	3960
922.898	4013
923.007	4010
923.116	4147
923.224	4090
923.333	4135
923.442	4006
923.55	4040
923.659	4082
923.767	4120
923.876	3998
923.984	4139
924.092	3991
924.201	4055
924.309	4139
924.417	4177
924.525	4112
924.633	4101
924.741	5083
924.849	3975
924.956	4200
925.064	4025
925.172	3972
925.279	4006
925.387	4112
925.494	4082
925.602	4227
925.709	4257
925.816	4067
925.924	4169
926.031	4261
926.138	4238
926.245	4246
926.352	4128
926.459	4314
926.566	4409
926.673	4230
926.779	4105
926.886	4162
926.993	4017
927.099	4017
927.206	4032
927.312	3998
927.419	4097
927.525	4078
927.631	4128
927.737	3991
927.843	3983
927.95	3869
928.056	3994
928.162	4063
928.267	4131
928.373	4698
928.479	4086
928.585	3964
928.69	4116
928.796	4139
928.901	4021
929.007	3880
929.112	4090
929.218	3994
929.323	3975
929.428	3972
929.533	4150
929.638	3941
929.743	4029
929.848	4093
929.953	4029
930.058	4006
930.163	3846
930.267	3892
930.372	3987
930.477	3850
930.581	4169
930.685	4006
930.79	3892
930.894	3922
930.998	3953
931.103	4059
931.207	3766
931.311	3717
931.415	3728
931.519	3549
931.623	3591
