Data from test_V78500241_1866.txt Node
Date: Fri Mar 25 17:01:58 CST 2022
User: usil
Spectrometer: V785-0024
Trigger mode: 0
Integration Time (sec): 4.000000E-1
Scans to average: 1
Nonlinearity correction enabled: false
Boxcar width: 0
Storing dark spectrum: false
XAxis mode: Wavelengths
Number of Pixels in Spectrum: 1024
>>>>>Begin Spectral Data<<<<<
801.071	8031
801.214	7947
801.356	7860
801.499	7849
801.641	7799
801.783	7894
801.926	7967
802.068	7921
802.211	8035
802.353	8031
802.496	7830
802.638	7841
802.78	7841
802.923	7925
803.065	7849
803.208	7871
803.35	7963
803.492	8111
803.635	8073
803.777	8020
803.919	8138
804.061	8427
804.204	8145
804.346	8054
804.488	7970
804.63	8065
804.773	8062
804.915	8119
805.057	8385
805.199	8145
805.341	8126
805.483	8240
805.626	8153
805.768	8065
805.91	8202
806.052	8214
806.194	8130
806.336	8313
806.478	8073
806.62	8058
806.762	8126
806.904	8221
807.046	8484
807.188	8347
807.33	8385
807.472	8355
807.614	8138
807.756	8176
807.898	8012
808.04	7894
808.182	7879
808.324	7822
808.465	7894
808.607	8115
808.749	8180
808.891	8199
809.033	8298
809.174	8176
809.316	8092
809.458	7951
809.6	7963
809.741	8031
809.883	7982
810.025	8142
810.166	8069
810.308	8054
810.45	8008
810.591	7826
810.733	7708
810.875	7780
811.016	7472
811.158	7460
811.299	7586
811.441	7696
811.582	7696
811.724	7544
811.865	7480
812.007	7559
812.148	7586
812.29	7563
812.431	7780
812.573	7890
812.714	7989
812.855	8168
812.997	8221
813.138	8366
813.279	8180
813.421	8054
813.562	7974
813.703	7822
813.845	7734
813.986	7457
814.127	7263
814.268	7202
814.41	7206
814.551	7160
814.692	7244
814.833	7149
814.974	7137
815.115	7031
815.256	6962
815.397	6947
815.539	6928
815.68	6818
815.821	6791
815.962	6890
816.103	6852
816.244	6669
816.385	6635
816.526	6646
816.666	6483
816.807	6327
816.948	6410
817.089	6407
817.23	6460
817.371	6372
817.512	6311
817.653	6433
817.793	6388
817.934	6395
818.075	6456
818.216	6429
818.356	6399
818.497	6289
818.638	6087
818.778	6163
818.919	6076
819.06	6129
819.2	6304
819.341	6369
819.481	6369
819.622	6593
819.762	6715
819.903	6703
820.043	6616
820.184	6597
820.324	6612
820.465	6681
820.605	6692
820.746	6635
820.886	6544
821.026	6639
821.167	6673
821.307	6791
821.447	6715
821.588	6692
821.728	6574
821.868	6547
822.008	6289
822.149	6407
822.289	6361
822.429	6129
822.569	6110
822.709	6030
822.849	5927
822.99	5863
823.13	5904
823.27	5946
823.41	5752
823.55	5722
823.69	5733
823.83	5737
823.97	5615
824.11	5554
824.25	5493
824.389	5570
824.529	5608
824.669	5532
824.809	5646
824.949	5733
825.089	5562
825.228	5570
825.368	5425
825.508	5349
825.648	5315
825.787	5379
825.927	5383
826.067	5288
826.206	5246
826.346	5376
826.485	5387
826.625	5433
826.765	5516
826.904	5459
827.044	5223
827.183	5201
827.323	5109
827.462	5273
827.601	5189
827.741	5128
827.88	5235
828.02	5121
828.159	5242
828.298	5261
828.437	5379
828.577	5296
828.716	5497
828.855	5318
828.994	5143
829.134	5147
829.273	5208
829.412	5166
829.551	5105
829.69	5151
829.829	5208
829.968	5410
830.107	5261
830.246	5318
830.385	5159
830.524	5117
830.663	5071
830.802	4972
830.941	4900
831.08	4854
831.219	4987
831.357	4953
831.496	5105
831.635	4934
831.774	4847
831.913	4847
832.051	4710
832.19	4778
832.329	4858
832.467	4694
832.606	4630
832.744	4729
832.883	4729
833.022	4714
833.16	4801
833.299	4774
833.437	4854
833.576	4847
833.714	4793
833.852	4850
833.991	4866
834.129	4938
834.267	4946
834.406	4923
834.544	5018
834.682	4961
834.821	4953
834.959	5147
835.097	4949
835.235	5128
835.373	5098
835.511	5117
835.65	5003
835.788	4980
835.926	4889
836.064	4919
836.202	4911
836.34	5189
836.478	5223
836.615	5162
836.753	5250
836.891	5231
837.029	5280
837.167	5151
837.305	5181
837.443	5147
837.58	5109
837.718	5246
837.856	5204
837.993	5136
838.131	5227
838.269	5239
838.406	5208
838.544	5143
838.681	5090
838.819	5029
838.956	4915
839.094	4850
839.231	4961
839.369	5109
839.506	5368
839.643	5307
839.781	5075
839.918	4991
840.055	5117
840.193	5033
840.33	5060
840.467	5090
840.604	5151
840.742	5459
840.879	5090
841.016	5102
841.153	5178
841.29	5395
841.427	5322
841.564	5307
841.701	5376
841.838	5284
841.975	5208
842.112	5246
842.249	5132
842.385	5113
842.522	5296
842.659	5136
842.796	5155
842.933	5189
843.069	5151
843.206	5140
843.343	5311
843.479	5235
843.616	5269
843.752	5018
843.889	5006
844.025	5201
844.162	5014
844.298	5201
844.435	5083
844.571	4984
844.708	5227
844.844	5265
844.98	5349
845.117	5254
845.253	5113
845.389	5018
845.525	5162
845.661	5109
845.798	5045
845.934	5090
846.07	5067
846.206	5166
846.342	5288
846.478	5140
846.614	4991
846.75	4980
846.886	4923
847.022	5098
847.158	5060
847.294	5041
847.429	5117
847.565	5045
847.701	5303
847.837	4866
847.972	4733
848.108	4965
848.244	4942
848.379	4717
848.515	4679
848.65	4725
848.786	4744
848.921	4778
849.057	4938
849.192	4873
849.328	4805
849.463	4839
849.598	4786
849.734	4744
849.869	4717
850.004	4592
850.14	4653
850.275	4649
850.41	4550
850.545	4535
850.68	4615
850.815	4645
850.95	4607
851.085	4835
851.22	4729
851.355	4698
851.49	4588
851.625	4599
851.76	4664
851.895	4550
852.03	4531
852.165	4607
852.299	4694
852.434	4767
852.569	4733
852.703	4694
852.838	4824
852.973	5006
853.107	4915
853.242	4721
853.376	4691
853.511	4577
853.645	4584
853.78	4812
853.914	4675
854.048	4649
854.183	4622
854.317	4694
854.451	4797
854.585	4687
854.72	4607
854.854	4733
854.988	4554
855.122	4679
855.256	4504
855.39	4641
855.524	4778
855.658	4694
855.792	4675
855.926	4675
856.06	4755
856.194	4809
856.327	4717
856.461	4634
856.595	4603
856.729	4649
856.862	4717
856.996	4656
857.13	4668
857.263	4759
857.397	4824
857.53	4675
857.664	4687
857.797	4717
857.931	4763
858.064	4714
858.197	4771
858.331	4664
858.464	4596
858.597	4481
858.731	4618
858.864	4611
858.997	4535
859.13	4645
859.263	4653
859.396	4683
859.529	4538
859.662	4535
859.795	4508
859.928	4607
860.061	4797
860.194	4748
860.327	4615
860.46	4565
860.592	4691
860.725	4767
860.858	4691
860.99	4588
861.123	4523
861.256	4504
861.388	4558
861.521	5273
861.653	4459
861.786	4451
861.918	4440
862.05	4474
862.183	4584
862.315	4569
862.447	4721
862.58	4535
862.712	4371
862.844	4322
862.976	4436
863.108	4462
863.24	4843
863.372	4322
863.504	4451
863.636	4428
863.768	4436
863.9	4436
864.032	4367
864.164	4402
864.296	4451
864.428	4523
864.559	4550
864.691	4531
864.823	4523
864.954	4447
865.086	4478
865.217	4455
865.349	4383
865.48	4493
865.612	4519
865.743	4641
865.875	4462
866.006	4432
866.137	4436
866.269	4428
866.4	4405
866.531	4421
866.662	4375
866.793	4417
866.924	4398
867.055	4523
867.186	4462
867.317	4417
867.448	4394
867.579	4409
867.71	4421
867.841	4356
867.972	4459
868.103	4451
868.233	4443
868.364	4447
868.495	4474
868.625	4660
868.756	4755
868.886	4523
869.017	4584
869.147	4755
869.278	4790
869.408	4714
869.539	4672
869.669	4710
869.799	4702
869.929	4736
870.06	4729
870.19	4938
870.32	4870
870.45	4900
870.58	5060
870.71	5086
870.84	5090
870.97	4946
871.1	4919
871.23	5102
871.36	5090
871.489	5048
871.619	5086
871.749	5105
871.879	5083
872.008	5155
872.138	5029
872.267	4957
872.397	4831
872.526	4774
872.656	4725
872.785	4812
872.915	4934
873.044	5083
873.173	4957
873.303	4972
873.432	4957
873.561	4949
873.69	4858
873.819	4866
873.948	4911
874.077	4812
874.206	4752
874.335	4801
874.464	4919
874.593	5086
874.722	4984
874.851	5083
874.979	5060
875.108	5010
875.237	4961
875.365	4854
875.494	4889
875.623	4953
875.751	4790
875.88	4843
876.008	5006
876.136	5006
876.265	5174
876.393	5307
876.521	5220
876.65	5197
876.778	5143
876.906	5056
877.034	4976
877.162	5029
877.29	4946
877.418	5086
877.546	5037
877.674	5052
877.802	4972
877.93	4984
878.058	4961
878.185	4904
878.313	4930
878.441	4896
878.568	4793
878.696	4881
878.824	4972
878.951	4987
879.079	5121
879.206	5261
879.333	5098
879.461	4980
879.588	4991
879.715	5124
879.842	5170
879.97	4984
880.097	4805
880.224	4706
880.351	4805
880.478	4801
880.605	4839
880.732	4748
880.859	5064
880.986	4866
881.112	4896
881.239	4812
881.366	4687
881.493	4554
881.619	4588
881.746	4634
881.872	4637
881.999	4656
882.125	4691
882.252	4793
882.378	4812
882.505	4934
882.631	4812
882.757	4656
882.883	4706
883.01	4653
883.136	4641
883.262	4599
883.388	4607
883.514	4843
883.64	4885
883.766	4831
883.892	4649
884.018	4717
884.143	4866
884.269	5018
884.395	4687
884.52	4626
884.646	4691
884.772	4558
884.897	4538
885.023	4668
885.148	4729
885.274	4862
885.399	4839
885.524	4736
885.65	4687
885.775	4717
885.9	4683
886.025	4870
886.15	4774
886.275	4729
886.4	4615
886.525	4744
886.65	4634
886.775	4706
886.9	4900
887.025	5037
887.149	4755
887.274	4641
887.399	4554
887.523	4546
887.648	4546
887.773	4573
887.897	4748
888.021	4771
888.146	4691
888.27	4763
888.395	4915
888.519	4755
888.643	4793
888.767	4820
888.891	4679
889.015	4588
889.139	4615
889.263	4577
889.387	4752
889.511	4801
889.635	4790
889.759	4618
889.883	4607
890.006	4740
890.13	4854
890.254	4630
890.377	4649
890.501	4535
890.624	4535
890.748	4672
890.871	4493
890.995	4428
891.118	4390
891.241	4485
891.364	4512
891.488	4596
891.611	4474
891.734	4516
891.857	4603
891.98	4558
892.103	4656
892.226	4592
892.349	4538
892.471	4436
892.594	4527
892.717	4615
892.839	4542
892.962	4599
893.085	4637
893.207	4622
893.33	4497
893.452	4481
893.575	4607
893.697	4611
893.819	4793
893.941	4805
894.064	4797
894.186	4558
894.308	4565
894.43	4687
894.552	4831
894.674	4752
894.796	4531
894.918	4660
895.04	4584
895.161	4649
895.283	4615
895.405	4542
895.526	4615
895.648	4691
895.769	4634
895.891	4706
896.012	4721
896.134	4729
896.255	4672
896.376	4615
896.498	4615
896.619	4645
896.74	4599
896.861	4683
896.982	4870
897.103	5056
897.224	4847
897.345	4714
897.466	4653
897.587	4702
897.708	4809
897.828	4755
897.949	4607
898.07	4580
898.19	4622
898.311	4812
898.431	4740
898.552	4771
898.672	4854
898.792	4744
898.913	4702
899.033	4607
899.153	4500
899.273	4409
899.393	4485
899.513	4542
899.633	4500
899.753	4565
899.873	4504
899.993	4516
900.113	4489
900.232	4577
900.352	4561
900.472	4470
900.591	4390
900.711	4485
900.83	4386
900.95	4618
901.069	4664
901.189	4531
901.308	4299
901.427	4356
901.546	4367
901.665	4519
901.784	4527
901.904	4386
902.023	4314
902.141	4196
902.26	4147
902.379	4318
902.498	4253
902.617	4215
902.735	4386
902.854	4379
902.973	4337
903.091	4196
903.21	4242
903.328	4325
903.446	4253
903.565	4276
903.683	4379
903.801	4318
903.919	4440
904.038	4443
904.156	4318
904.274	4405
904.392	4428
904.51	4409
904.627	4424
904.745	4542
904.863	4596
904.981	4371
905.098	4322
905.216	4360
905.334	4386
905.451	4409
905.569	4466
905.686	4538
905.803	4561
905.921	4402
906.038	4535
906.155	4535
906.272	4386
906.389	4447
906.506	4367
906.623	4375
906.74	4421
906.857	4325
906.974	4402
907.091	4550
907.208	4672
907.324	4550
907.441	4470
907.557	4341
907.674	4303
907.79	4299
907.907	4371
908.023	4504
908.139	4519
908.256	4394
908.372	4443
908.488	4405
908.604	4367
908.72	4344
908.836	4424
908.952	4341
909.068	4386
909.184	4569
909.3	4466
909.415	4546
909.531	4577
909.647	4299
909.762	4337
909.878	4318
909.993	4466
910.108	4390
910.224	4386
910.339	4470
910.454	4371
910.57	4363
910.685	4314
910.8	4691
910.915	4615
911.03	4500
911.145	4386
911.259	4348
911.374	4405
911.489	4310
911.604	4295
911.718	4185
911.833	4185
911.947	4097
912.062	4063
912.176	4227
912.291	4188
912.405	4249
912.519	4531
912.633	4466
912.748	4348
912.862	4268
912.976	4215
913.09	4097
913.204	4173
913.318	4242
913.431	4371
913.545	4352
913.659	4428
913.772	4360
913.886	4234
914	4242
914.113	4360
914.226	4462
914.34	4394
914.453	4242
914.566	4402
914.68	4318
914.793	4314
914.906	4181
915.019	4131
915.132	4055
915.245	4177
915.358	4230
915.47	4185
915.583	4287
915.696	4295
915.809	4394
915.921	4421
916.034	4249
916.146	4242
916.259	4211
916.371	4348
916.483	4356
916.595	4253
916.708	4329
916.82	4322
916.932	4341
917.044	4276
917.156	4314
917.268	4215
917.38	4215
917.491	4284
917.603	4314
917.715	4386
917.826	4375
917.938	4329
918.049	4204
918.161	4371
918.272	4554
918.384	4542
918.495	4432
918.606	4272
918.717	4230
918.828	4348
918.939	4348
919.05	4246
919.161	4322
919.272	4124
919.383	4272
919.494	4432
919.604	4634
919.715	4424
919.826	4341
919.936	4417
920.047	4485
920.157	4497
920.267	4725
920.378	4546
920.488	4462
920.598	4702
920.708	4908
920.818	4748
920.928	4748
921.038	4892
921.148	4896
921.258	4641
921.368	4554
921.477	4459
921.587	4447
921.697	4371
921.806	4478
921.916	4405
922.025	4268
922.134	4265
922.244	4223
922.353	4356
922.462	4181
922.571	4128
922.68	4032
922.789	3953
922.898	4021
923.007	3975
923.116	4101
923.224	4036
923.333	4078
923.442	3975
923.55	3945
923.659	4029
923.767	4074
923.876	4029
923.984	4082
924.092	3953
924.201	4067
924.309	4078
924.417	4071
924.525	4063
924.633	4093
924.741	4984
924.849	3930
924.956	4158
925.064	3937
925.172	3888
925.279	3922
925.387	4017
925.494	4044
925.602	4181
925.709	4143
925.816	4010
925.924	4128
926.031	4272
926.138	4150
926.245	4215
926.352	4067
926.459	4265
926.566	4295
926.673	4128
926.779	4090
926.886	4101
926.993	3953
927.099	3964
927.206	3930
927.312	3926
927.419	4044
927.525	4029
927.631	4090
927.737	3926
927.843	3964
927.95	3808
928.056	3911
928.162	4010
928.267	4029
928.373	4546
928.479	4082
928.585	3892
928.69	3998
928.796	4120
928.901	3937
929.007	3816
929.112	3991
929.218	3998
929.323	3937
929.428	3964
929.533	4109
929.638	3934
929.743	3991
929.848	4055
929.953	3964
930.058	3850
930.163	3793
930.267	3838
930.372	3949
930.477	3812
930.581	4055
930.685	3922
930.79	3812
930.894	3854
930.998	3846
931.103	4036
931.207	3728
931.311	3694
931.415	3663
931.519	3523
931.623	3561
