Data from test_V78500241_2321.txt Node
Date: Fri Mar 25 17:05:08 CST 2022
User: usil
Spectrometer: V785-0024
Trigger mode: 0
Integration Time (sec): 4.000000E-1
Scans to average: 1
Nonlinearity correction enabled: false
Boxcar width: 0
Storing dark spectrum: false
XAxis mode: Wavelengths
Number of Pixels in Spectrum: 1024
>>>>>Begin Spectral Data<<<<<
801.071	8043
801.214	7947
801.356	7818
801.499	7883
801.641	7792
801.783	7792
801.926	7974
802.068	7898
802.211	8024
802.353	8027
802.496	7856
802.638	7894
802.78	7864
802.923	7906
803.065	7932
803.208	7906
803.35	7951
803.492	8107
803.635	8134
803.777	7974
803.919	8123
804.061	8473
804.204	8187
804.346	7967
804.488	7997
804.63	8100
804.773	7997
804.915	8100
805.057	8263
805.199	8138
805.341	8225
805.483	8282
805.626	8225
805.768	8149
805.91	8191
806.052	8221
806.194	8081
806.336	8298
806.478	8119
806.62	8005
806.762	8123
806.904	8290
807.046	8465
807.188	8336
807.33	8339
807.472	8336
807.614	8153
807.756	8134
807.898	8016
808.04	7875
808.182	7894
808.324	7875
808.465	7871
808.607	8050
808.749	8134
808.891	8191
809.033	8248
809.174	8157
809.316	8035
809.458	8073
809.6	8103
809.741	8012
809.883	8012
810.025	8088
810.166	8084
810.308	8077
810.45	7989
810.591	7852
810.733	7753
810.875	7681
811.016	7537
811.158	7480
811.299	7616
811.441	7765
811.582	7685
811.724	7552
811.865	7556
812.007	7586
812.148	7594
812.29	7624
812.431	7765
812.573	7879
812.714	7967
812.855	8062
812.997	8126
813.138	8317
813.279	8126
813.421	8062
813.562	7944
813.703	7860
813.845	7753
813.986	7384
814.127	7270
814.268	7206
814.41	7209
814.551	7187
814.692	7278
814.833	7015
814.974	7137
815.115	7122
815.256	7012
815.397	6928
815.539	6886
815.68	6810
815.821	6787
815.962	6795
816.103	6791
816.244	6772
816.385	6601
816.526	6601
816.666	6467
816.807	6304
816.948	6441
817.089	6464
817.23	6433
817.371	6391
817.512	6410
817.653	6391
817.793	6369
817.934	6418
818.075	6395
818.216	6471
818.356	6384
818.497	6239
818.638	6133
818.778	6129
818.919	6171
819.06	6163
819.2	6372
819.341	6399
819.481	6433
819.622	6521
819.762	6726
819.903	6711
820.043	6627
820.184	6582
820.324	6612
820.465	6730
820.605	6646
820.746	6658
820.886	6574
821.026	6665
821.167	6715
821.307	6806
821.447	6707
821.588	6738
821.728	6582
821.868	6513
822.008	6304
822.149	6331
822.289	6350
822.429	6098
822.569	6098
822.709	6140
822.849	5954
822.99	5878
823.13	5927
823.27	5901
823.41	5786
823.55	5802
823.69	5718
823.83	5748
823.97	5695
824.11	5573
824.25	5493
824.389	5577
824.529	5573
824.669	5509
824.809	5649
824.949	5657
825.089	5627
825.228	5547
825.368	5436
825.508	5372
825.648	5345
825.787	5391
825.927	5417
826.067	5345
826.206	5277
826.346	5398
826.485	5395
826.625	5410
826.765	5558
826.904	5512
827.044	5189
827.183	5261
827.323	5109
827.462	5204
827.601	5155
827.741	5197
827.88	5204
828.02	5102
828.159	5246
828.298	5292
828.437	5337
828.577	5280
828.716	5482
828.855	5284
828.994	5185
829.134	5117
829.273	5170
829.412	5162
829.551	5162
829.69	5181
829.829	5277
829.968	5334
830.107	5269
830.246	5284
830.385	5178
830.524	5121
830.663	5102
830.802	4934
830.941	4881
831.08	4858
831.219	5029
831.357	4961
831.496	5132
831.635	4911
831.774	4831
831.913	4866
832.051	4714
832.19	4759
832.329	4835
832.467	4736
832.606	4626
832.744	4698
832.883	4706
833.022	4752
833.16	4790
833.299	4824
833.437	4847
833.576	4866
833.714	4767
833.852	4889
833.991	4877
834.129	4972
834.267	4946
834.406	4900
834.544	4980
834.682	4984
834.821	4961
834.959	5143
835.097	4984
835.235	5162
835.373	5075
835.511	5075
835.65	5003
835.788	4991
835.926	4946
836.064	4866
836.202	4881
836.34	5128
836.478	5216
836.615	5121
836.753	5246
836.891	5254
837.029	5258
837.167	5193
837.305	5147
837.443	5143
837.58	5086
837.718	5235
837.856	5193
837.993	5155
838.131	5296
838.269	5178
838.406	5197
838.544	5208
838.681	5037
838.819	4995
838.956	4889
839.094	4881
839.231	4961
839.369	5098
839.506	5410
839.643	5227
839.781	5079
839.918	5018
840.055	5094
840.193	5071
840.33	5105
840.467	5102
840.604	5166
840.742	5425
840.879	5109
841.016	5079
841.153	5128
841.29	5376
841.427	5391
841.564	5288
841.701	5429
841.838	5307
841.975	5242
842.112	5250
842.249	5094
842.385	5105
842.522	5345
842.659	5098
842.796	5113
842.933	5204
843.069	5128
843.206	5174
843.343	5322
843.479	5269
843.616	5299
843.752	5006
843.889	5006
844.025	5239
844.162	5025
844.298	5216
844.435	5067
844.571	5041
844.708	5212
844.844	5288
844.98	5345
845.117	5277
845.253	5197
845.389	5098
845.525	5162
845.661	5181
845.798	5045
845.934	5143
846.07	5067
846.206	5201
846.342	5250
846.478	5128
846.614	5045
846.75	4915
846.886	4946
847.022	5151
847.158	5014
847.294	5064
847.429	5075
847.565	5060
847.701	5258
847.837	4862
847.972	4767
848.108	4953
848.244	4930
848.379	4752
848.515	4694
848.65	4679
848.786	4778
848.921	4755
849.057	4885
849.192	4938
849.328	4831
849.463	4889
849.598	4816
849.734	4759
849.869	4641
850.004	4599
850.14	4656
850.275	4592
850.41	4523
850.545	4603
850.68	4607
850.815	4622
850.95	4672
851.085	4847
851.22	4759
851.355	4626
851.49	4615
851.625	4668
851.76	4653
851.895	4565
852.03	4573
852.165	4645
852.299	4714
852.434	4767
852.569	4763
852.703	4767
852.838	4828
852.973	4923
853.107	4889
853.242	4790
853.376	4637
853.511	4546
853.645	4626
853.78	4805
853.914	4668
854.048	4675
854.183	4649
854.317	4725
854.451	4843
854.585	4630
854.72	4641
854.854	4710
854.988	4569
855.122	4596
855.256	4493
855.39	4694
855.524	4812
855.658	4759
855.792	4679
855.926	4668
856.06	4733
856.194	4820
856.327	4649
856.461	4626
856.595	4607
856.729	4577
856.862	4744
856.996	4691
857.13	4733
857.263	4771
857.397	4828
857.53	4664
857.664	4721
857.797	4782
857.931	4782
858.064	4660
858.197	4733
858.331	4615
858.464	4588
858.597	4481
858.731	4599
858.864	4577
858.997	4592
859.13	4611
859.263	4679
859.396	4706
859.529	4558
859.662	4565
859.795	4542
859.928	4580
860.061	4698
860.194	4763
860.327	4603
860.46	4523
860.592	4694
860.725	4740
860.858	4729
860.99	4546
861.123	4500
861.256	4500
861.388	4588
861.521	5353
861.653	4523
861.786	4447
861.918	4493
862.05	4527
862.183	4512
862.315	4577
862.447	4668
862.58	4508
862.712	4360
862.844	4363
862.976	4497
863.108	4470
863.24	4923
863.372	4325
863.504	4424
863.636	4398
863.768	4443
863.9	4455
864.032	4322
864.164	4436
864.296	4519
864.428	4603
864.559	4584
864.691	4504
864.823	4531
864.954	4478
865.086	4531
865.217	4436
865.349	4390
865.48	4447
865.612	4447
865.743	4626
865.875	4489
866.006	4417
866.137	4440
866.269	4462
866.4	4436
866.531	4428
866.662	4409
866.793	4394
866.924	4371
867.055	4481
867.186	4440
867.317	4417
867.448	4394
867.579	4398
867.71	4352
867.841	4398
867.972	4508
868.103	4481
868.233	4470
868.364	4462
868.495	4462
868.625	4649
868.756	4774
868.886	4580
869.017	4622
869.147	4729
869.278	4778
869.408	4649
869.539	4584
869.669	4733
869.799	4626
869.929	4786
870.06	4755
870.19	4946
870.32	4900
870.45	4908
870.58	5014
870.71	5067
870.84	5113
870.97	4972
871.1	4877
871.23	5117
871.36	5098
871.489	5041
871.619	5083
871.749	5094
871.879	5060
872.008	5181
872.138	5086
872.267	4911
872.397	4854
872.526	4824
872.656	4767
872.785	4801
872.915	4957
873.044	5083
873.173	4953
873.303	4934
873.432	5025
873.561	4919
873.69	4877
873.819	4881
873.948	4889
874.077	4805
874.206	4759
874.335	4793
874.464	4930
874.593	5060
874.722	4919
874.851	5105
874.979	5018
875.108	5014
875.237	4908
875.365	4885
875.494	4904
875.623	4968
875.751	4778
875.88	4946
876.008	4949
876.136	4965
876.265	5159
876.393	5368
876.521	5235
876.65	5250
876.778	5162
876.906	5109
877.034	5006
877.162	5010
877.29	4987
877.418	5025
877.546	5037
877.674	5037
877.802	5067
877.93	4999
878.058	4976
878.185	4835
878.313	4949
878.441	4953
878.568	4839
878.696	4866
878.824	4999
878.951	4999
879.079	5140
879.206	5288
879.333	5064
879.461	5018
879.588	4965
879.715	5052
879.842	5189
879.97	4999
880.097	4763
880.224	4702
880.351	4843
880.478	4843
880.605	4790
880.732	4805
880.859	5079
880.986	4885
881.112	4942
881.239	4793
881.366	4664
881.493	4634
881.619	4611
881.746	4615
881.872	4653
881.999	4656
882.125	4660
882.252	4744
882.378	4759
882.505	4938
882.631	4793
882.757	4607
882.883	4755
883.01	4702
883.136	4660
883.262	4622
883.388	4580
883.514	4793
883.64	4843
883.766	4839
883.892	4618
884.018	4664
884.143	4870
884.269	4980
884.395	4656
884.52	4675
884.646	4630
884.772	4611
884.897	4580
885.023	4660
885.148	4824
885.274	4889
885.399	4809
885.524	4721
885.65	4748
885.775	4740
885.9	4698
886.025	4778
886.15	4812
886.275	4755
886.4	4641
886.525	4733
886.65	4683
886.775	4702
886.9	4831
887.025	5086
887.149	4797
887.274	4668
887.399	4588
887.523	4569
887.648	4588
887.773	4599
887.897	4717
888.021	4816
888.146	4679
888.27	4831
888.395	4900
888.519	4778
888.643	4809
888.767	4835
888.891	4634
889.015	4615
889.139	4611
889.263	4588
889.387	4774
889.511	4885
889.635	4812
889.759	4634
889.883	4672
890.006	4698
890.13	4820
890.254	4649
890.377	4664
890.501	4569
890.624	4538
890.748	4653
890.871	4546
890.995	4402
891.118	4363
891.241	4512
891.364	4561
891.488	4634
891.611	4497
891.734	4516
891.857	4622
891.98	4523
892.103	4660
892.226	4531
892.349	4462
892.471	4417
892.594	4512
892.717	4641
892.839	4573
892.962	4580
893.085	4660
893.207	4618
893.33	4432
893.452	4550
893.575	4641
893.697	4558
893.819	4759
893.941	4786
894.064	4752
894.186	4561
894.308	4561
894.43	4744
894.552	4793
894.674	4736
894.796	4519
894.918	4649
895.04	4538
895.161	4698
895.283	4702
895.405	4546
895.526	4653
895.648	4691
895.769	4694
895.891	4694
896.012	4702
896.134	4740
896.255	4622
896.376	4641
896.498	4615
896.619	4641
896.74	4569
896.861	4668
896.982	4889
897.103	5090
897.224	4831
897.345	4740
897.466	4615
897.587	4733
897.708	4824
897.828	4763
897.949	4698
898.07	4558
898.19	4637
898.311	4801
898.431	4622
898.552	4721
898.672	4858
898.792	4828
898.913	4774
899.033	4637
899.153	4542
899.273	4413
899.393	4474
899.513	4516
899.633	4493
899.753	4558
899.873	4493
899.993	4592
900.113	4497
900.232	4580
900.352	4546
900.472	4474
900.591	4402
900.711	4508
900.83	4455
900.95	4599
901.069	4687
901.189	4531
901.308	4398
901.427	4310
901.546	4375
901.665	4481
901.784	4455
901.904	4333
902.023	4318
902.141	4192
902.26	4204
902.379	4314
902.498	4200
902.617	4234
902.735	4375
902.854	4341
902.973	4363
903.091	4204
903.21	4268
903.328	4291
903.446	4238
903.565	4280
903.683	4363
903.801	4284
903.919	4398
904.038	4424
904.156	4322
904.274	4421
904.392	4390
904.51	4428
904.627	4535
904.745	4531
904.863	4641
904.981	4413
905.098	4322
905.216	4360
905.334	4417
905.451	4466
905.569	4432
905.686	4531
905.803	4542
905.921	4386
906.038	4531
906.155	4462
906.272	4440
906.389	4432
906.506	4329
906.623	4356
906.74	4360
906.857	4280
906.974	4352
907.091	4538
907.208	4653
907.324	4603
907.441	4478
907.557	4363
907.674	4356
907.79	4325
907.907	4352
908.023	4508
908.139	4493
908.256	4405
908.372	4470
908.488	4421
908.604	4344
908.72	4348
908.836	4379
908.952	4375
909.068	4405
909.184	4516
909.3	4485
909.415	4538
909.531	4580
909.647	4363
909.762	4386
909.878	4306
909.993	4462
910.108	4402
910.224	4421
910.339	4459
910.454	4390
910.57	4344
910.685	4295
910.8	4675
910.915	4626
911.03	4489
911.145	4333
911.259	4337
911.374	4379
911.489	4306
911.604	4238
911.718	4181
911.833	4207
911.947	4055
912.062	4002
912.176	4204
912.291	4249
912.405	4272
912.519	4478
912.633	4470
912.748	4356
912.862	4303
912.976	4234
913.09	4143
913.204	4173
913.318	4253
913.431	4348
913.545	4341
913.659	4417
913.772	4333
913.886	4219
914	4211
914.113	4398
914.226	4428
914.34	4344
914.453	4253
914.566	4402
914.68	4268
914.793	4310
914.906	4166
915.019	4101
915.132	4048
915.245	4223
915.358	4196
915.47	4227
915.583	4310
915.696	4329
915.809	4379
915.921	4409
916.034	4227
916.146	4181
916.259	4230
916.371	4367
916.483	4348
916.595	4276
916.708	4291
916.82	4310
916.932	4303
917.044	4284
917.156	4314
917.268	4261
917.38	4246
917.491	4253
917.603	4360
917.715	4436
917.826	4443
917.938	4341
918.049	4181
918.161	4413
918.272	4550
918.384	4497
918.495	4485
918.606	4261
918.717	4242
918.828	4314
918.939	4360
919.05	4276
919.161	4306
919.272	4162
919.383	4230
919.494	4432
919.604	4641
919.715	4432
919.826	4375
919.936	4398
920.047	4573
920.157	4519
920.267	4649
920.378	4523
920.488	4485
920.598	4679
920.708	4858
920.818	4740
920.928	4733
921.038	4968
921.148	4908
921.258	4596
921.368	4607
921.477	4504
921.587	4436
921.697	4363
921.806	4573
921.916	4421
922.025	4280
922.134	4249
922.244	4192
922.353	4341
922.462	4166
922.571	4150
922.68	3979
922.789	3994
922.898	4036
923.007	3960
923.116	4105
923.224	4048
923.333	4063
923.442	3960
923.55	3960
923.659	3991
923.767	4090
923.876	3991
923.984	4131
924.092	3975
924.201	4082
924.309	4071
924.417	4101
924.525	4086
924.633	4074
924.741	5029
924.849	3956
924.956	4147
925.064	3964
925.172	3918
925.279	3945
925.387	4059
925.494	4036
925.602	4234
925.709	4192
925.816	4036
925.924	4120
926.031	4204
926.138	4185
926.245	4230
926.352	4082
926.459	4211
926.566	4272
926.673	4139
926.779	4097
926.886	4059
926.993	3956
927.099	3972
927.206	3907
927.312	3975
927.419	4048
927.525	3983
927.631	4055
927.737	3937
927.843	3918
927.95	3816
928.056	3930
928.162	3968
928.267	4059
928.373	4672
928.479	4093
928.585	3850
928.69	4013
928.796	4074
928.901	4013
929.007	3869
929.112	3998
929.218	3979
929.323	3915
929.428	3934
929.533	4082
929.638	3880
929.743	3922
929.848	4063
929.953	4006
930.058	3949
930.163	3778
930.267	3812
930.372	3975
930.477	3800
930.581	4086
930.685	3926
930.79	3797
930.894	3899
930.998	3823
931.103	4055
931.207	3686
931.311	3686
931.415	3652
931.519	3534
931.623	3538
