Data from test_V78500241_1657.txt Node
Date: Fri Mar 25 17:00:31 CST 2022
User: usil
Spectrometer: V785-0024
Trigger mode: 0
Integration Time (sec): 4.000000E-1
Scans to average: 1
Nonlinearity correction enabled: false
Boxcar width: 0
Storing dark spectrum: false
XAxis mode: Wavelengths
Number of Pixels in Spectrum: 1024
>>>>>Begin Spectral Data<<<<<
801.071	8054
801.214	8005
801.356	7852
801.499	7864
801.641	7776
801.783	7845
801.926	7970
802.068	7928
802.211	7951
802.353	7997
802.496	7852
802.638	7951
802.78	7871
802.923	7906
803.065	7887
803.208	7894
803.35	8020
803.492	8157
803.635	8130
803.777	8031
803.919	8103
804.061	8438
804.204	8168
804.346	8027
804.488	7951
804.63	8096
804.773	7974
804.915	8126
805.057	8389
805.199	8199
805.341	8256
805.483	8320
805.626	8263
805.768	8145
805.91	8263
806.052	8225
806.194	8130
806.336	8282
806.478	8088
806.62	8081
806.762	8161
806.904	8271
807.046	8457
807.188	8423
807.33	8332
807.472	8328
807.614	8206
807.756	8138
807.898	8016
808.04	7879
808.182	7894
808.324	7890
808.465	7890
808.607	8138
808.749	8164
808.891	8168
809.033	8309
809.174	8256
809.316	8119
809.458	8115
809.6	8103
809.741	8031
809.883	8035
810.025	8046
810.166	8111
810.308	8001
810.45	7970
810.591	7864
810.733	7681
810.875	7636
811.016	7578
811.158	7487
811.299	7613
811.441	7670
811.582	7639
811.724	7533
811.865	7514
812.007	7575
812.148	7613
812.29	7594
812.431	7788
812.573	7898
812.714	8001
812.855	8130
812.997	8210
813.138	8362
813.279	8218
813.421	8103
813.562	7932
813.703	7841
813.845	7769
813.986	7445
814.127	7270
814.268	7263
814.41	7225
814.551	7228
814.692	7209
814.833	7099
814.974	7088
815.115	7171
815.256	7004
815.397	6920
815.539	6996
815.68	6882
815.821	6810
815.962	6814
816.103	6829
816.244	6726
816.385	6593
816.526	6502
816.666	6502
816.807	6346
816.948	6433
817.089	6452
817.23	6429
817.371	6395
817.512	6350
817.653	6399
817.793	6308
817.934	6395
818.075	6467
818.216	6418
818.356	6445
818.497	6213
818.638	6140
818.778	6121
818.919	6152
819.06	6167
819.2	6369
819.341	6308
819.481	6399
819.622	6528
819.762	6802
819.903	6703
820.043	6650
820.184	6563
820.324	6604
820.465	6722
820.605	6787
820.746	6646
820.886	6551
821.026	6707
821.167	6719
821.307	6806
821.447	6783
821.588	6665
821.728	6578
821.868	6517
822.008	6285
822.149	6388
822.289	6414
822.429	6148
822.569	6095
822.709	6155
822.849	5946
822.99	5927
823.13	5904
823.27	5904
823.41	5805
823.55	5805
823.69	5729
823.83	5798
823.97	5699
824.11	5547
824.25	5474
824.389	5551
824.529	5558
824.669	5463
824.809	5672
824.949	5634
825.089	5634
825.228	5505
825.368	5387
825.508	5379
825.648	5349
825.787	5417
825.927	5353
826.067	5322
826.206	5288
826.346	5334
826.485	5440
826.625	5410
826.765	5562
826.904	5474
827.044	5280
827.183	5189
827.323	5143
827.462	5227
827.601	5220
827.741	5162
827.88	5193
828.02	5109
828.159	5208
828.298	5330
828.437	5402
828.577	5284
828.716	5448
828.855	5303
828.994	5132
829.134	5170
829.273	5242
829.412	5102
829.551	5140
829.69	5208
829.829	5231
829.968	5337
830.107	5265
830.246	5265
830.385	5143
830.524	5166
830.663	5102
830.802	5003
830.941	4873
831.08	4873
831.219	4965
831.357	4976
831.496	5132
831.635	4946
831.774	4862
831.913	4831
832.051	4744
832.19	4744
832.329	4866
832.467	4729
832.606	4656
832.744	4809
832.883	4740
833.022	4744
833.16	4786
833.299	4782
833.437	4835
833.576	4828
833.714	4805
833.852	4793
833.991	4881
834.129	4923
834.267	4957
834.406	4885
834.544	5010
834.682	5006
834.821	4965
834.959	5170
835.097	4991
835.235	5109
835.373	5102
835.511	5067
835.65	5022
835.788	4965
835.926	4930
836.064	4889
836.202	4915
836.34	5181
836.478	5258
836.615	5105
836.753	5208
836.891	5311
837.029	5242
837.167	5204
837.305	5189
837.443	5170
837.58	5071
837.718	5242
837.856	5174
837.993	5159
838.131	5269
838.269	5193
838.406	5204
838.544	5212
838.681	5006
838.819	4995
838.956	4915
839.094	4938
839.231	4953
839.369	5117
839.506	5421
839.643	5223
839.781	5048
839.918	5025
840.055	5136
840.193	5075
840.33	5071
840.467	5174
840.604	5181
840.742	5402
840.879	5102
841.016	5086
841.153	5178
841.29	5345
841.427	5372
841.564	5330
841.701	5345
841.838	5265
841.975	5204
842.112	5239
842.249	5201
842.385	5094
842.522	5296
842.659	5162
842.796	5151
842.933	5178
843.069	5128
843.206	5162
843.343	5315
843.479	5265
843.616	5212
843.752	5041
843.889	5033
844.025	5227
844.162	5022
844.298	5204
844.435	5086
844.571	5067
844.708	5185
844.844	5311
844.98	5345
845.117	5258
845.253	5174
845.389	5079
845.525	5147
845.661	5117
845.798	5018
845.934	5090
846.07	5079
846.206	5204
846.342	5330
846.478	5178
846.614	4946
846.75	4934
846.886	4946
847.022	5197
847.158	4968
847.294	5029
847.429	5079
847.565	5056
847.701	5307
847.837	4881
847.972	4828
848.108	4991
848.244	4881
848.379	4816
848.515	4672
848.65	4702
848.786	4778
848.921	4755
849.057	4877
849.192	4915
849.328	4782
849.463	4862
849.598	4733
849.734	4740
849.869	4698
850.004	4656
850.14	4660
850.275	4603
850.41	4531
850.545	4508
850.68	4618
850.815	4596
850.95	4596
851.085	4828
851.22	4782
851.355	4675
851.49	4660
851.625	4596
851.76	4694
851.895	4577
852.03	4474
852.165	4683
852.299	4729
852.434	4763
852.569	4752
852.703	4733
852.838	4778
852.973	4938
853.107	4881
853.242	4740
853.376	4637
853.511	4550
853.645	4630
853.78	4824
853.914	4691
854.048	4645
854.183	4691
854.317	4740
854.451	4812
854.585	4679
854.72	4596
854.854	4778
854.988	4569
855.122	4634
855.256	4531
855.39	4641
855.524	4782
855.658	4729
855.792	4653
855.926	4702
856.06	4782
856.194	4797
856.327	4660
856.461	4630
856.595	4668
856.729	4653
856.862	4767
856.996	4668
857.13	4687
857.263	4774
857.397	4850
857.53	4668
857.664	4710
857.797	4763
857.931	4763
858.064	4687
858.197	4679
858.331	4645
858.464	4630
858.597	4497
858.731	4611
858.864	4679
858.997	4580
859.13	4664
859.263	4653
859.396	4733
859.529	4584
859.662	4531
859.795	4508
859.928	4607
860.061	4687
860.194	4721
860.327	4599
860.46	4538
860.592	4683
860.725	4729
860.858	4733
860.99	4584
861.123	4462
861.256	4550
861.388	4588
861.521	5337
861.653	4500
861.786	4424
861.918	4455
862.05	4550
862.183	4554
862.315	4626
862.447	4664
862.58	4550
862.712	4432
862.844	4337
862.976	4424
863.108	4462
863.24	4748
863.372	4306
863.504	4379
863.636	4405
863.768	4481
863.9	4409
864.032	4383
864.164	4356
864.296	4455
864.428	4497
864.559	4584
864.691	4497
864.823	4516
864.954	4493
865.086	4516
865.217	4424
865.349	4421
865.48	4478
865.612	4527
865.743	4599
865.875	4470
866.006	4417
866.137	4504
866.269	4447
866.4	4356
866.531	4440
866.662	4394
866.793	4443
866.924	4481
867.055	4508
867.186	4455
867.317	4428
867.448	4413
867.579	4375
867.71	4413
867.841	4394
867.972	4440
868.103	4462
868.233	4470
868.364	4459
868.495	4504
868.625	4694
868.756	4691
868.886	4618
869.017	4611
869.147	4767
869.278	4793
869.408	4679
869.539	4668
869.669	4664
869.799	4653
869.929	4778
870.06	4729
870.19	4980
870.32	4911
870.45	4976
870.58	5045
870.71	5071
870.84	5109
870.97	4927
871.1	4911
871.23	5121
871.36	5166
871.489	5029
871.619	5105
871.749	5060
871.879	5105
872.008	5189
872.138	5102
872.267	4995
872.397	4858
872.526	4809
872.656	4725
872.785	4801
872.915	4965
873.044	5052
873.173	4885
873.303	4957
873.432	4946
873.561	5029
873.69	4892
873.819	4854
873.948	4934
874.077	4786
874.206	4809
874.335	4809
874.464	4881
874.593	5067
874.722	4900
874.851	5094
874.979	5071
875.108	5018
875.237	4904
875.365	4870
875.494	4927
875.623	4984
875.751	4793
875.88	4847
876.008	4965
876.136	5003
876.265	5220
876.393	5315
876.521	5246
876.65	5216
876.778	5193
876.906	5083
877.034	5025
877.162	5018
877.29	4976
877.418	5010
877.546	5052
877.674	5003
877.802	5006
877.93	4942
878.058	4923
878.185	4858
878.313	4980
878.441	4961
878.568	4797
878.696	4877
878.824	4968
878.951	4999
879.079	5113
879.206	5261
879.333	5109
879.461	4995
879.588	4953
879.715	5155
879.842	5216
879.97	5018
880.097	4790
880.224	4782
880.351	4839
880.478	4816
880.605	4816
880.732	4744
880.859	5121
880.986	4915
881.112	4896
881.239	4778
881.366	4672
881.493	4596
881.619	4565
881.746	4649
881.872	4607
881.999	4660
882.125	4664
882.252	4763
882.378	4847
882.505	4965
882.631	4755
882.757	4649
882.883	4725
883.01	4721
883.136	4615
883.262	4618
883.388	4565
883.514	4774
883.64	4858
883.766	4812
883.892	4675
884.018	4717
884.143	4900
884.269	4938
884.395	4679
884.52	4592
884.646	4649
884.772	4607
884.897	4542
885.023	4653
885.148	4793
885.274	4889
885.399	4828
885.524	4702
885.65	4679
885.775	4736
885.9	4736
886.025	4824
886.15	4778
886.275	4721
886.4	4641
886.525	4717
886.65	4660
886.775	4664
886.9	4892
887.025	5033
887.149	4820
887.274	4668
887.399	4565
887.523	4592
887.648	4584
887.773	4542
887.897	4744
888.021	4797
888.146	4694
888.27	4847
888.395	4919
888.519	4782
888.643	4835
888.767	4816
888.891	4687
889.015	4645
889.139	4710
889.263	4603
889.387	4767
889.511	4854
889.635	4763
889.759	4626
889.883	4634
890.006	4763
890.13	4866
890.254	4683
890.377	4675
890.501	4542
890.624	4493
890.748	4645
890.871	4523
890.995	4432
891.118	4363
891.241	4481
891.364	4531
891.488	4637
891.611	4531
891.734	4493
891.857	4565
891.98	4565
892.103	4607
892.226	4561
892.349	4550
892.471	4417
892.594	4535
892.717	4550
892.839	4596
892.962	4599
893.085	4622
893.207	4607
893.33	4451
893.452	4493
893.575	4694
893.697	4573
893.819	4797
893.941	4843
894.064	4771
894.186	4592
894.308	4565
894.43	4736
894.552	4771
894.674	4702
894.796	4550
894.918	4546
895.04	4558
895.161	4675
895.283	4698
895.405	4569
895.526	4611
895.648	4660
895.769	4645
895.891	4740
896.012	4721
896.134	4656
896.255	4672
896.376	4622
896.498	4626
896.619	4668
896.74	4584
896.861	4706
896.982	4843
897.103	5075
897.224	4850
897.345	4744
897.466	4634
897.587	4736
897.708	4843
897.828	4744
897.949	4634
898.07	4561
898.19	4611
898.311	4831
898.431	4664
898.552	4729
898.672	4828
898.792	4805
898.913	4721
899.033	4584
899.153	4538
899.273	4413
899.393	4481
899.513	4523
899.633	4519
899.753	4500
899.873	4485
899.993	4577
900.113	4478
900.232	4508
900.352	4497
900.472	4481
900.591	4371
900.711	4474
900.83	4409
900.95	4626
901.069	4622
901.189	4516
901.308	4325
901.427	4299
901.546	4356
901.665	4459
901.784	4531
901.904	4348
902.023	4303
902.141	4196
902.26	4162
902.379	4291
902.498	4234
902.617	4204
902.735	4360
902.854	4344
902.973	4360
903.091	4196
903.21	4230
903.328	4257
903.446	4261
903.565	4227
903.683	4348
903.801	4211
903.919	4409
904.038	4379
904.156	4287
904.274	4443
904.392	4432
904.51	4417
904.627	4462
904.745	4558
904.863	4611
904.981	4443
905.098	4299
905.216	4341
905.334	4424
905.451	4386
905.569	4447
905.686	4516
905.803	4584
905.921	4413
906.038	4527
906.155	4508
906.272	4352
906.389	4474
906.506	4363
906.623	4383
906.74	4383
906.857	4318
906.974	4356
907.091	4573
907.208	4725
907.324	4538
907.441	4462
907.557	4306
907.674	4329
907.79	4318
907.907	4390
908.023	4478
908.139	4470
908.256	4428
908.372	4474
908.488	4466
908.604	4318
908.72	4325
908.836	4383
908.952	4402
909.068	4394
909.184	4546
909.3	4474
909.415	4618
909.531	4577
909.647	4352
909.762	4348
909.878	4344
909.993	4447
910.108	4371
910.224	4360
910.339	4474
910.454	4424
910.57	4356
910.685	4337
910.8	4596
910.915	4603
911.03	4481
911.145	4333
911.259	4341
911.374	4344
911.489	4272
911.604	4246
911.718	4177
911.833	4192
911.947	4097
912.062	4067
912.176	4234
912.291	4188
912.405	4303
912.519	4436
912.633	4443
912.748	4379
912.862	4318
912.976	4223
913.09	4128
913.204	4150
913.318	4272
913.431	4363
913.545	4318
913.659	4417
913.772	4360
913.886	4276
914	4188
914.113	4379
914.226	4443
914.34	4398
914.453	4211
914.566	4417
914.68	4329
914.793	4310
914.906	4150
915.019	4162
915.132	4090
915.245	4131
915.358	4188
915.47	4219
915.583	4276
915.696	4284
915.809	4421
915.921	4360
916.034	4242
916.146	4257
916.259	4223
916.371	4402
916.483	4394
916.595	4253
916.708	4367
916.82	4299
916.932	4325
917.044	4356
917.156	4375
917.268	4253
917.38	4299
917.491	4284
917.603	4348
917.715	4436
917.826	4424
917.938	4333
918.049	4238
918.161	4383
918.272	4584
918.384	4577
918.495	4466
918.606	4280
918.717	4253
918.828	4360
918.939	4383
919.05	4287
919.161	4299
919.272	4067
919.383	4227
919.494	4390
919.604	4596
919.715	4447
919.826	4318
919.936	4432
920.047	4519
920.157	4447
920.267	4691
920.378	4542
920.488	4523
920.598	4752
920.708	4881
920.818	4710
920.928	4759
921.038	4919
921.148	4915
921.258	4634
921.368	4577
921.477	4493
921.587	4489
921.697	4348
921.806	4558
921.916	4459
922.025	4257
922.134	4246
922.244	4249
922.353	4303
922.462	4192
922.571	4169
922.68	3979
922.789	3968
922.898	4071
923.007	4002
923.116	4063
923.224	4036
923.333	4071
923.442	3956
923.55	3979
923.659	4029
923.767	4040
923.876	4021
923.984	4188
924.092	4021
924.201	4051
924.309	4093
924.417	4135
924.525	4078
924.633	4143
924.741	4881
924.849	3960
924.956	4109
925.064	3915
925.172	3915
925.279	3937
925.387	4036
925.494	4025
925.602	4185
925.709	4185
925.816	4063
925.924	4109
926.031	4253
926.138	4200
926.245	4246
926.352	4048
926.459	4303
926.566	4265
926.673	4188
926.779	4067
926.886	4059
926.993	3964
927.099	3968
927.206	3968
927.312	3926
927.419	4029
927.525	4017
927.631	4112
927.737	3960
927.843	4010
927.95	3880
928.056	3915
928.162	3960
928.267	4055
928.373	4558
928.479	4135
928.585	3876
928.69	4059
928.796	4078
928.901	3975
929.007	3854
929.112	4002
929.218	3994
929.323	3949
929.428	3941
929.533	4082
929.638	3915
929.743	4002
929.848	3987
929.953	4010
930.058	3941
930.163	3812
930.267	3842
930.372	3998
930.477	3804
930.581	4074
930.685	3926
930.79	3827
930.894	3861
930.998	3819
931.103	4010
931.207	3709
931.311	3705
931.415	3671
931.519	3538
931.623	3572
