Data from test_V78500241_1174.txt Node
Date: Fri Mar 25 16:57:09 CST 2022
User: usil
Spectrometer: V785-0024
Trigger mode: 0
Integration Time (sec): 4.000000E-1
Scans to average: 1
Nonlinearity correction enabled: false
Boxcar width: 0
Storing dark spectrum: false
XAxis mode: Wavelengths
Number of Pixels in Spectrum: 1024
>>>>>Begin Spectral Data<<<<<
801.071	8077
801.214	8050
801.356	7898
801.499	7811
801.641	7788
801.783	7830
801.926	7970
802.068	7928
802.211	7989
802.353	7883
802.496	7803
802.638	7894
802.78	7875
802.923	7936
803.065	7849
803.208	7849
803.35	7982
803.492	8111
803.635	8259
803.777	8016
803.919	8153
804.061	8495
804.204	8183
804.346	8092
804.488	7997
804.63	8050
804.773	7982
804.915	8130
805.057	8237
805.199	8191
805.341	8183
805.483	8244
805.626	8195
805.768	8130
805.91	8168
806.052	8199
806.194	8050
806.336	8267
806.478	8138
806.62	8020
806.762	8138
806.904	8275
807.046	8450
807.188	8332
807.33	8237
807.472	8282
807.614	8126
807.756	8100
807.898	7974
808.04	7841
808.182	7887
808.324	7868
808.465	7963
808.607	8050
808.749	8145
808.891	8157
809.033	8355
809.174	8191
809.316	8081
809.458	8046
809.6	8016
809.741	8039
809.883	8027
810.025	8054
810.166	8096
810.308	8016
810.45	8035
810.591	7883
810.733	7643
810.875	7704
811.016	7571
811.158	7491
811.299	7639
811.441	7689
811.582	7689
811.724	7575
811.865	7521
812.007	7628
812.148	7586
812.29	7662
812.431	7761
812.573	7879
812.714	7909
812.855	8100
812.997	8237
813.138	8313
813.279	8298
813.421	8164
813.562	8096
813.703	7890
813.845	7803
813.986	7567
814.127	7274
814.268	7240
814.41	7175
814.551	7183
814.692	7263
814.833	7160
814.974	7129
815.115	7133
815.256	7019
815.397	6863
815.539	6985
815.68	6920
815.821	6825
815.962	6871
816.103	6878
816.244	6772
816.385	6658
816.526	6665
816.666	6498
816.807	6308
816.948	6471
817.089	6506
817.23	6467
817.371	6395
817.512	6471
817.653	6414
817.793	6365
817.934	6399
818.075	6486
818.216	6486
818.356	6433
818.497	6254
818.638	6136
818.778	6232
818.919	6155
819.06	6228
819.2	6376
819.341	6380
819.481	6391
819.622	6578
819.762	6749
819.903	6730
820.043	6593
820.184	6555
820.324	6585
820.465	6719
820.605	6715
820.746	6681
820.886	6563
821.026	6639
821.167	6745
821.307	6867
821.447	6802
821.588	6669
821.728	6547
821.868	6464
822.008	6361
822.149	6369
822.289	6361
822.429	6087
822.569	6114
822.709	6205
822.849	5965
822.99	5908
823.13	5958
823.27	5958
823.41	5794
823.55	5764
823.69	5824
823.83	5824
823.97	5714
824.11	5558
824.25	5558
824.389	5589
824.529	5589
824.669	5509
824.809	5695
824.949	5710
825.089	5615
825.228	5577
825.368	5402
825.508	5364
825.648	5391
825.787	5311
825.927	5444
826.067	5299
826.206	5364
826.346	5387
826.485	5410
826.625	5486
826.765	5573
826.904	5471
827.044	5227
827.183	5181
827.323	5124
827.462	5220
827.601	5166
827.741	5212
827.88	5223
828.02	5204
828.159	5231
828.298	5349
828.437	5360
828.577	5334
828.716	5486
828.855	5318
828.994	5155
829.134	5117
829.273	5178
829.412	5109
829.551	5105
829.69	5216
829.829	5277
829.968	5452
830.107	5288
830.246	5258
830.385	5189
830.524	5109
830.663	5124
830.802	5006
830.941	4911
831.08	4873
831.219	5025
831.357	4965
831.496	5197
831.635	4873
831.774	4881
831.913	4824
832.051	4706
832.19	4744
832.329	4919
832.467	4740
832.606	4637
832.744	4721
832.883	4763
833.022	4767
833.16	4816
833.299	4831
833.437	4801
833.576	4843
833.714	4862
833.852	4873
833.991	4900
834.129	5003
834.267	4984
834.406	4949
834.544	5010
834.682	4930
834.821	4980
834.959	5166
835.097	5025
835.235	5143
835.373	5109
835.511	5147
835.65	5045
835.788	5079
835.926	4965
836.064	4866
836.202	4927
836.34	5223
836.478	5250
836.615	5128
836.753	5216
836.891	5284
837.029	5284
837.167	5193
837.305	5220
837.443	5113
837.58	5079
837.718	5231
837.856	5193
837.993	5159
838.131	5246
838.269	5242
838.406	5235
838.544	5235
838.681	5067
838.819	5056
838.956	4915
839.094	4908
839.231	4991
839.369	5056
839.506	5452
839.643	5269
839.781	5067
839.918	5033
840.055	5124
840.193	5132
840.33	5124
840.467	5162
840.604	5223
840.742	5398
840.879	5086
841.016	5086
841.153	5181
841.29	5383
841.427	5357
841.564	5284
841.701	5406
841.838	5258
841.975	5250
842.112	5223
842.249	5140
842.385	5132
842.522	5360
842.659	5166
842.796	5193
842.933	5220
843.069	5197
843.206	5181
843.343	5337
843.479	5216
843.616	5265
843.752	5064
843.889	5052
844.025	5223
844.162	5045
844.298	5246
844.435	5056
844.571	5083
844.708	5178
844.844	5303
844.98	5353
845.117	5341
845.253	5117
845.389	5143
845.525	5178
845.661	5170
845.798	4995
845.934	5113
846.07	5086
846.206	5265
846.342	5334
846.478	5189
846.614	5041
846.75	4980
846.886	4930
847.022	5105
847.158	5056
847.294	5094
847.429	5113
847.565	5048
847.701	5326
847.837	4835
847.972	4801
848.108	5006
848.244	4942
848.379	4824
848.515	4725
848.65	4755
848.786	4729
848.921	4824
849.057	4885
849.192	4911
849.328	4847
849.463	4839
849.598	4786
849.734	4793
849.869	4698
850.004	4622
850.14	4664
850.275	4592
850.41	4512
850.545	4603
850.68	4637
850.815	4630
850.95	4653
851.085	4858
851.22	4752
851.355	4656
851.49	4668
851.625	4630
851.76	4641
851.895	4596
852.03	4531
852.165	4645
852.299	4782
852.434	4843
852.569	4793
852.703	4706
852.838	4858
852.973	4889
853.107	4946
853.242	4721
853.376	4630
853.511	4558
853.645	4573
853.78	4835
853.914	4725
854.048	4691
854.183	4649
854.317	4687
854.451	4847
854.585	4660
854.72	4603
854.854	4736
854.988	4634
855.122	4679
855.256	4546
855.39	4664
855.524	4786
855.658	4717
855.792	4694
855.926	4729
856.06	4725
856.194	4843
856.327	4694
856.461	4565
856.595	4656
856.729	4656
856.862	4748
856.996	4679
857.13	4698
857.263	4752
857.397	4824
857.53	4694
857.664	4774
857.797	4797
857.931	4805
858.064	4683
858.197	4744
858.331	4664
858.464	4645
858.597	4554
858.731	4637
858.864	4637
858.997	4611
859.13	4618
859.263	4668
859.396	4706
859.529	4550
859.662	4599
859.795	4481
859.928	4660
860.061	4786
860.194	4801
860.327	4607
860.46	4550
860.592	4729
860.725	4733
860.858	4733
860.99	4626
861.123	4546
861.256	4497
861.388	4634
861.521	5212
861.653	4466
861.786	4451
861.918	4462
862.05	4516
862.183	4535
862.315	4630
862.447	4668
862.58	4569
862.712	4440
862.844	4318
862.976	4519
863.108	4474
863.24	4889
863.372	4356
863.504	4447
863.636	4390
863.768	4527
863.9	4409
864.032	4371
864.164	4402
864.296	4436
864.428	4565
864.559	4599
864.691	4561
864.823	4516
864.954	4489
865.086	4485
865.217	4459
865.349	4440
865.48	4432
865.612	4512
865.743	4618
865.875	4466
866.006	4413
866.137	4455
866.269	4443
866.4	4417
866.531	4402
866.662	4356
866.793	4440
866.924	4424
867.055	4508
867.186	4493
867.317	4443
867.448	4398
867.579	4413
867.71	4409
867.841	4386
867.972	4451
868.103	4550
868.233	4478
868.364	4485
868.495	4497
868.625	4683
868.756	4793
868.886	4561
869.017	4618
869.147	4767
869.278	4816
869.408	4687
869.539	4641
869.669	4664
869.799	4683
869.929	4778
870.06	4763
870.19	4911
870.32	4919
870.45	4942
870.58	4999
870.71	5090
870.84	5113
870.97	4980
871.1	4873
871.23	5151
871.36	5124
871.489	5033
871.619	5067
871.749	5128
871.879	5136
872.008	5181
872.138	5128
872.267	5022
872.397	4805
872.526	4805
872.656	4679
872.785	4889
872.915	4942
873.044	5067
873.173	4927
873.303	4942
873.432	5014
873.561	4946
873.69	4904
873.819	4873
873.948	4896
874.077	4809
874.206	4763
874.335	4812
874.464	4946
874.593	5079
874.722	4987
874.851	5086
874.979	5064
875.108	5014
875.237	4904
875.365	4843
875.494	4854
875.623	4968
875.751	4820
875.88	4877
876.008	4987
876.136	5052
876.265	5159
876.393	5391
876.521	5292
876.65	5242
876.778	5170
876.906	5105
877.034	5094
877.162	5071
877.29	4995
877.418	5105
877.546	4995
877.674	5109
877.802	5025
877.93	5014
878.058	4953
878.185	4911
878.313	4965
878.441	4949
878.568	4778
878.696	4881
878.824	4949
878.951	5025
879.079	5136
879.206	5284
879.333	5064
879.461	4991
879.588	4999
879.715	5143
879.842	5269
879.97	5010
880.097	4748
880.224	4744
880.351	4782
880.478	4858
880.605	4812
880.732	4744
880.859	5056
880.986	4824
881.112	4900
881.239	4790
881.366	4679
881.493	4615
881.619	4561
881.746	4653
881.872	4668
881.999	4672
882.125	4664
882.252	4744
882.378	4843
882.505	4987
882.631	4767
882.757	4706
882.883	4767
883.01	4763
883.136	4664
883.262	4577
883.388	4660
883.514	4763
883.64	4847
883.766	4752
883.892	4687
884.018	4653
884.143	4858
884.269	5006
884.395	4698
884.52	4607
884.646	4637
884.772	4569
884.897	4599
885.023	4672
885.148	4797
885.274	4805
885.399	4774
885.524	4790
885.65	4664
885.775	4733
885.9	4721
886.025	4850
886.15	4847
886.275	4725
886.4	4702
886.525	4698
886.65	4694
886.775	4626
886.9	4915
887.025	5022
887.149	4793
887.274	4649
887.399	4565
887.523	4592
887.648	4588
887.773	4577
887.897	4828
888.021	4786
888.146	4691
888.27	4850
888.395	4885
888.519	4805
888.643	4786
888.767	4797
888.891	4714
889.015	4592
889.139	4679
889.263	4607
889.387	4786
889.511	4850
889.635	4786
889.759	4607
889.883	4656
890.006	4687
890.13	4805
890.254	4626
890.377	4672
890.501	4565
890.624	4531
890.748	4649
890.871	4527
890.995	4421
891.118	4394
891.241	4516
891.364	4561
891.488	4672
891.611	4538
891.734	4527
891.857	4603
891.98	4565
892.103	4653
892.226	4584
892.349	4516
892.471	4428
892.594	4580
892.717	4645
892.839	4558
892.962	4561
893.085	4714
893.207	4596
893.33	4417
893.452	4504
893.575	4675
893.697	4580
893.819	4767
893.941	4782
894.064	4733
894.186	4573
894.308	4569
894.43	4721
894.552	4797
894.674	4790
894.796	4584
894.918	4573
895.04	4561
895.161	4702
895.283	4649
895.405	4577
895.526	4637
895.648	4717
895.769	4645
895.891	4660
896.012	4691
896.134	4748
896.255	4679
896.376	4637
896.498	4656
896.619	4683
896.74	4611
896.861	4630
896.982	4885
897.103	5048
897.224	4843
897.345	4725
897.466	4687
897.587	4725
897.708	4835
897.828	4782
897.949	4694
898.07	4569
898.19	4599
898.311	4816
898.431	4653
898.552	4687
898.672	4752
898.792	4801
898.913	4694
899.033	4626
899.153	4519
899.273	4383
899.393	4508
899.513	4554
899.633	4519
899.753	4512
899.873	4493
899.993	4558
900.113	4561
900.232	4599
900.352	4531
900.472	4481
900.591	4413
900.711	4504
900.83	4421
900.95	4618
901.069	4664
901.189	4478
901.308	4360
901.427	4318
901.546	4363
901.665	4493
901.784	4493
901.904	4375
902.023	4329
902.141	4162
902.26	4177
902.379	4287
902.498	4261
902.617	4211
902.735	4424
902.854	4375
902.973	4375
903.091	4188
903.21	4204
903.328	4310
903.446	4329
903.565	4230
903.683	4360
903.801	4280
903.919	4394
904.038	4398
904.156	4272
904.274	4428
904.392	4337
904.51	4447
904.627	4455
904.745	4599
904.863	4656
904.981	4428
905.098	4337
905.216	4356
905.334	4352
905.451	4462
905.569	4455
905.686	4588
905.803	4554
905.921	4409
906.038	4554
906.155	4493
906.272	4386
906.389	4440
906.506	4386
906.623	4390
906.74	4348
906.857	4318
906.974	4356
907.091	4584
907.208	4634
907.324	4607
907.441	4481
907.557	4379
907.674	4398
907.79	4322
907.907	4367
908.023	4443
908.139	4504
908.256	4440
908.372	4470
908.488	4451
908.604	4348
908.72	4322
908.836	4322
908.952	4348
909.068	4466
909.184	4577
909.3	4500
909.415	4565
909.531	4527
909.647	4352
909.762	4390
909.878	4379
909.993	4424
910.108	4421
910.224	4386
910.339	4485
910.454	4371
910.57	4348
910.685	4333
910.8	4656
910.915	4607
911.03	4535
911.145	4314
911.259	4337
911.374	4383
911.489	4299
911.604	4325
911.718	4169
911.833	4215
911.947	4013
912.062	3994
912.176	4211
912.291	4246
912.405	4257
912.519	4466
912.633	4447
912.748	4344
912.862	4375
912.976	4242
913.09	4124
913.204	4150
913.318	4257
913.431	4390
913.545	4352
913.659	4436
913.772	4337
913.886	4272
914	4234
914.113	4375
914.226	4443
914.34	4383
914.453	4188
914.566	4405
914.68	4325
914.793	4310
914.906	4135
915.019	4139
915.132	4116
915.245	4192
915.358	4192
915.47	4234
915.583	4265
915.696	4310
915.809	4383
915.921	4421
916.034	4261
916.146	4230
916.259	4181
916.371	4348
916.483	4371
916.595	4306
916.708	4329
916.82	4306
916.932	4322
917.044	4318
917.156	4303
917.268	4257
917.38	4276
917.491	4223
917.603	4329
917.715	4424
917.826	4428
917.938	4333
918.049	4265
918.161	4413
918.272	4500
918.384	4542
918.495	4443
918.606	4287
918.717	4265
918.828	4344
918.939	4337
919.05	4284
919.161	4306
919.272	4112
919.383	4242
919.494	4432
919.604	4573
919.715	4409
919.826	4310
919.936	4356
920.047	4493
920.157	4455
920.267	4660
920.378	4554
920.488	4478
920.598	4702
920.708	4858
920.818	4778
920.928	4752
921.038	4949
921.148	4930
921.258	4653
921.368	4592
921.477	4493
921.587	4508
921.697	4386
921.806	4577
921.916	4386
922.025	4303
922.134	4268
922.244	4249
922.353	4360
922.462	4204
922.571	4105
922.68	3983
922.789	3934
922.898	4013
923.007	3991
923.116	4074
923.224	4093
923.333	4116
923.442	3998
923.55	3956
923.659	4025
923.767	4120
923.876	4044
923.984	4097
924.092	3968
924.201	4082
924.309	4036
924.417	4131
924.525	4040
924.633	4131
924.741	5041
924.849	3926
924.956	4147
925.064	3956
925.172	3884
925.279	3964
925.387	4048
925.494	4040
925.602	4192
925.709	4150
925.816	4071
925.924	4131
926.031	4200
926.138	4188
926.245	4196
926.352	4074
926.459	4253
926.566	4246
926.673	4135
926.779	4086
926.886	4074
926.993	3945
927.099	3956
927.206	3953
927.312	3972
927.419	4082
927.525	3960
927.631	4051
927.737	3983
927.843	3949
927.95	3812
928.056	3941
928.162	3975
928.267	4059
928.373	4653
928.479	4135
928.585	3880
928.69	4006
928.796	4071
928.901	3949
929.007	3808
929.112	3983
929.218	3945
929.323	3949
929.428	3918
929.533	4135
929.638	3926
929.743	3991
929.848	4017
929.953	3972
930.058	3915
930.163	3797
930.267	3854
930.372	3983
930.477	3774
930.581	4109
930.685	3945
930.79	3793
930.894	3880
930.998	3896
931.103	4051
931.207	3698
931.311	3690
931.415	3644
931.519	3496
931.623	3568
