Data from test_V78500241_2731.txt Node
Date: Fri Mar 25 17:07:59 CST 2022
User: usil
Spectrometer: V785-0024
Trigger mode: 0
Integration Time (sec): 4.000000E-1
Scans to average: 1
Nonlinearity correction enabled: false
Boxcar width: 0
Storing dark spectrum: false
XAxis mode: Wavelengths
Number of Pixels in Spectrum: 1024
>>>>>Begin Spectral Data<<<<<
801.071	8001
801.214	7997
801.356	7887
801.499	7875
801.641	7860
801.783	7818
801.926	8001
802.068	7909
802.211	8012
802.353	7955
802.496	7868
802.638	7917
802.78	7944
802.923	7940
803.065	7856
803.208	7898
803.35	7951
803.492	8138
803.635	8119
803.777	8115
803.919	8145
804.061	8408
804.204	8123
804.346	8073
804.488	7997
804.63	8119
804.773	8027
804.915	8153
805.057	8263
805.199	8161
805.341	8183
805.483	8279
805.626	8214
805.768	8153
805.91	8271
806.052	8290
806.194	8168
806.336	8279
806.478	8073
806.62	8134
806.762	8107
806.904	8214
807.046	8469
807.188	8408
807.33	8317
807.472	8355
807.614	8214
807.756	8168
807.898	7970
808.04	7902
808.182	7852
808.324	7955
808.465	7974
808.607	8065
808.749	8206
808.891	8225
809.033	8347
809.174	8229
809.316	8115
809.458	8069
809.6	7947
809.741	8069
809.883	8039
810.025	8195
810.166	8020
810.308	8008
810.45	8054
810.591	7894
810.733	7776
810.875	7689
811.016	7571
811.158	7521
811.299	7571
811.441	7738
811.582	7674
811.724	7590
811.865	7525
812.007	7533
812.148	7582
812.29	7620
812.431	7731
812.573	7879
812.714	8035
812.855	8199
812.997	8233
813.138	8301
813.279	8206
813.421	8134
813.562	8027
813.703	7913
813.845	7769
813.986	7457
814.127	7297
814.268	7198
814.41	7217
814.551	7183
814.692	7152
814.833	7091
814.974	7107
815.115	7126
815.256	7000
815.397	6954
815.539	6947
815.68	6833
815.821	6768
815.962	6875
816.103	6837
816.244	6688
816.385	6650
816.526	6642
816.666	6483
816.807	6327
816.948	6422
817.089	6517
817.23	6437
817.371	6319
817.512	6315
817.653	6365
817.793	6384
817.934	6433
818.075	6407
818.216	6433
818.356	6395
818.497	6235
818.638	6121
818.778	6186
818.919	6194
819.06	6163
819.2	6323
819.341	6350
819.481	6334
819.622	6467
819.762	6692
819.903	6722
820.043	6585
820.184	6604
820.324	6582
820.465	6711
820.605	6726
820.746	6642
820.886	6521
821.026	6700
821.167	6681
821.307	6806
821.447	6779
821.588	6665
821.728	6578
821.868	6483
822.008	6331
822.149	6388
822.289	6365
822.429	6171
822.569	6079
822.709	6083
822.849	5950
822.99	5893
823.13	5923
823.27	5954
823.41	5745
823.55	5824
823.69	5756
823.83	5817
823.97	5649
824.11	5547
824.25	5505
824.389	5535
824.529	5611
824.669	5547
824.809	5630
824.949	5695
825.089	5592
825.228	5551
825.368	5383
825.508	5357
825.648	5383
825.787	5410
825.927	5345
826.067	5353
826.206	5246
826.346	5398
826.485	5402
826.625	5383
826.765	5551
826.904	5486
827.044	5265
827.183	5189
827.323	5117
827.462	5254
827.601	5147
827.741	5201
827.88	5212
828.02	5083
828.159	5185
828.298	5277
828.437	5318
828.577	5341
828.716	5478
828.855	5322
828.994	5204
829.134	5147
829.273	5185
829.412	5121
829.551	5121
829.69	5189
829.829	5277
829.968	5429
830.107	5258
830.246	5261
830.385	5151
830.524	5098
830.663	5052
830.802	4965
830.941	4858
831.08	4854
831.219	4995
831.357	4999
831.496	5159
831.635	4949
831.774	4892
831.913	4839
832.051	4771
832.19	4740
832.329	4820
832.467	4691
832.606	4637
832.744	4752
832.883	4725
833.022	4733
833.16	4854
833.299	4835
833.437	4839
833.576	4847
833.714	4877
833.852	4843
833.991	4843
834.129	4968
834.267	4949
834.406	4892
834.544	4927
834.682	4965
834.821	4972
834.959	5204
835.097	4949
835.235	5151
835.373	5056
835.511	5094
835.65	5003
835.788	4984
835.926	4904
836.064	4866
836.202	4877
836.34	5181
836.478	5246
836.615	5124
836.753	5239
836.891	5318
837.029	5227
837.167	5181
837.305	5181
837.443	5159
837.58	5071
837.718	5246
837.856	5189
837.993	5143
838.131	5193
838.269	5162
838.406	5223
838.544	5181
838.681	5045
838.819	5003
838.956	4892
839.094	4900
839.231	4923
839.369	5098
839.506	5448
839.643	5216
839.781	5094
839.918	5014
840.055	5132
840.193	5090
840.33	5109
840.467	5117
840.604	5189
840.742	5364
840.879	5056
841.016	5132
841.153	5143
841.29	5322
841.427	5296
841.564	5341
841.701	5292
841.838	5303
841.975	5250
842.112	5231
842.249	5098
842.385	5147
842.522	5360
842.659	5170
842.796	5174
842.933	5227
843.069	5166
843.206	5143
843.343	5307
843.479	5193
843.616	5288
843.752	5029
843.889	5010
844.025	5216
844.162	4953
844.298	5170
844.435	5067
844.571	5064
844.708	5208
844.844	5315
844.98	5311
845.117	5288
845.253	5185
845.389	5071
845.525	5162
845.661	5105
845.798	5037
845.934	5109
846.07	5048
846.206	5185
846.342	5250
846.478	5124
846.614	5018
846.75	5003
846.886	4934
847.022	5121
847.158	5025
847.294	5079
847.429	5109
847.565	5052
847.701	5330
847.837	4816
847.972	4759
848.108	4968
848.244	4873
848.379	4801
848.515	4736
848.65	4706
848.786	4740
848.921	4809
849.057	4862
849.192	4915
849.328	4812
849.463	4835
849.598	4812
849.734	4752
849.869	4687
850.004	4603
850.14	4660
850.275	4584
850.41	4508
850.545	4588
850.68	4584
850.815	4630
850.95	4641
851.085	4812
851.22	4729
851.355	4622
851.49	4599
851.625	4630
851.76	4683
851.895	4538
852.03	4550
852.165	4653
852.299	4744
852.434	4805
852.569	4752
852.703	4771
852.838	4858
852.973	4911
853.107	4919
853.242	4721
853.376	4637
853.511	4584
853.645	4569
853.78	4790
853.914	4717
854.048	4630
854.183	4618
854.317	4698
854.451	4866
854.585	4656
854.72	4596
854.854	4706
854.988	4603
855.122	4634
855.256	4523
855.39	4656
855.524	4767
855.658	4710
855.792	4675
855.926	4710
856.06	4729
856.194	4824
856.327	4691
856.461	4634
856.595	4630
856.729	4656
856.862	4744
856.996	4637
857.13	4710
857.263	4721
857.397	4786
857.53	4637
857.664	4744
857.797	4755
857.931	4805
858.064	4687
858.197	4793
858.331	4702
858.464	4596
858.597	4550
858.731	4637
858.864	4645
858.997	4626
859.13	4691
859.263	4622
859.396	4687
859.529	4599
859.662	4577
859.795	4569
859.928	4683
860.061	4714
860.194	4786
860.327	4618
860.46	4596
860.592	4679
860.725	4679
860.858	4698
860.99	4588
861.123	4443
861.256	4481
861.388	4607
861.521	5318
861.653	4432
861.786	4443
861.918	4459
862.05	4558
862.183	4569
862.315	4664
862.447	4634
862.58	4497
862.712	4409
862.844	4333
862.976	4462
863.108	4447
863.24	4759
863.372	4356
863.504	4390
863.636	4428
863.768	4462
863.9	4455
864.032	4318
864.164	4363
864.296	4481
864.428	4546
864.559	4527
864.691	4523
864.823	4523
864.954	4459
865.086	4531
865.217	4424
865.349	4504
865.48	4478
865.612	4462
865.743	4653
865.875	4424
866.006	4443
866.137	4470
866.269	4459
866.4	4405
866.531	4447
866.662	4386
866.793	4398
866.924	4432
867.055	4535
867.186	4462
867.317	4421
867.448	4367
867.579	4432
867.71	4413
867.841	4367
867.972	4459
868.103	4485
868.233	4512
868.364	4451
868.495	4474
868.625	4637
868.756	4744
868.886	4565
869.017	4622
869.147	4725
869.278	4752
869.408	4637
869.539	4622
869.669	4721
869.799	4683
869.929	4793
870.06	4740
870.19	4953
870.32	4911
870.45	4972
870.58	5067
870.71	5064
870.84	5117
870.97	4968
871.1	4915
871.23	5155
871.36	5075
871.489	5014
871.619	5048
871.749	5067
871.879	5105
872.008	5155
872.138	5041
872.267	5014
872.397	4873
872.526	4801
872.656	4698
872.785	4812
872.915	4923
873.044	5033
873.173	4938
873.303	4946
873.432	4957
873.561	4968
873.69	4847
873.819	4843
873.948	4927
874.077	4850
874.206	4748
874.335	4824
874.464	4949
874.593	5079
874.722	4984
874.851	5075
874.979	5079
875.108	5052
875.237	4904
875.365	4877
875.494	4835
875.623	4961
875.751	4839
875.88	4908
876.008	5006
876.136	5045
876.265	5258
876.393	5280
876.521	5269
876.65	5231
876.778	5132
876.906	5079
877.034	5045
877.162	5045
877.29	4987
877.418	5048
877.546	5029
877.674	5094
877.802	5041
877.93	5025
878.058	4919
878.185	4873
878.313	4987
878.441	4953
878.568	4824
878.696	4854
878.824	4942
878.951	5018
879.079	5109
879.206	5269
879.333	5094
879.461	4984
879.588	4972
879.715	5098
879.842	5220
879.97	5003
880.097	4786
880.224	4744
880.351	4847
880.478	4862
880.605	4774
880.732	4809
880.859	5041
880.986	4877
881.112	4942
881.239	4744
881.366	4641
881.493	4664
881.619	4584
881.746	4672
881.872	4634
881.999	4615
882.125	4691
882.252	4778
882.378	4816
882.505	4991
882.631	4786
882.757	4694
882.883	4729
883.01	4717
883.136	4721
883.262	4584
883.388	4622
883.514	4805
883.64	4831
883.766	4809
883.892	4687
884.018	4725
884.143	4900
884.269	4987
884.395	4660
884.52	4656
884.646	4645
884.772	4565
884.897	4527
885.023	4641
885.148	4774
885.274	4892
885.399	4771
885.524	4729
885.65	4672
885.775	4736
885.9	4675
886.025	4805
886.15	4782
886.275	4755
886.4	4611
886.525	4744
886.65	4717
886.775	4683
886.9	4904
887.025	5010
887.149	4755
887.274	4645
887.399	4588
887.523	4603
887.648	4611
887.773	4641
887.897	4805
888.021	4839
888.146	4694
888.27	4824
888.395	4965
888.519	4801
888.643	4873
888.767	4843
888.891	4702
889.015	4588
889.139	4641
889.263	4596
889.387	4771
889.511	4850
889.635	4774
889.759	4672
889.883	4641
890.006	4706
890.13	4801
890.254	4596
890.377	4675
890.501	4516
890.624	4485
890.748	4634
890.871	4516
890.995	4474
891.118	4367
891.241	4466
891.364	4546
891.488	4599
891.611	4500
891.734	4561
891.857	4603
891.98	4577
892.103	4653
892.226	4584
892.349	4516
892.471	4436
892.594	4523
892.717	4592
892.839	4561
892.962	4588
893.085	4668
893.207	4630
893.33	4436
893.452	4489
893.575	4698
893.697	4584
893.819	4782
893.941	4801
894.064	4721
894.186	4577
894.308	4565
894.43	4752
894.552	4793
894.674	4748
894.796	4558
894.918	4573
895.04	4550
895.161	4630
895.283	4691
895.405	4573
895.526	4626
895.648	4698
895.769	4664
895.891	4721
896.012	4744
896.134	4717
896.255	4679
896.376	4653
896.498	4577
896.619	4687
896.74	4573
896.861	4626
896.982	4915
897.103	5086
897.224	4805
897.345	4740
897.466	4702
897.587	4672
897.708	4870
897.828	4786
897.949	4626
898.07	4577
898.19	4630
898.311	4790
898.431	4687
898.552	4740
898.672	4782
898.792	4797
898.913	4778
899.033	4622
899.153	4516
899.273	4436
899.393	4523
899.513	4519
899.633	4504
899.753	4573
899.873	4508
899.993	4561
900.113	4573
900.232	4599
900.352	4519
900.472	4462
900.591	4428
900.711	4455
900.83	4394
900.95	4588
901.069	4672
901.189	4478
901.308	4318
901.427	4314
901.546	4352
901.665	4440
901.784	4527
901.904	4337
902.023	4318
902.141	4188
902.26	4204
902.379	4299
902.498	4242
902.617	4227
902.735	4379
902.854	4409
902.973	4344
903.091	4223
903.21	4230
903.328	4284
903.446	4242
903.565	4303
903.683	4375
903.801	4291
903.919	4417
904.038	4394
904.156	4314
904.274	4432
904.392	4367
904.51	4481
904.627	4504
904.745	4596
904.863	4611
904.981	4421
905.098	4314
905.216	4344
905.334	4417
905.451	4440
905.569	4421
905.686	4527
905.803	4538
905.921	4413
906.038	4527
906.155	4447
906.272	4424
906.389	4459
906.506	4322
906.623	4383
906.74	4405
906.857	4306
906.974	4363
907.091	4580
907.208	4660
907.324	4645
907.441	4493
907.557	4348
907.674	4310
907.79	4375
907.907	4409
908.023	4516
908.139	4478
908.256	4447
908.372	4443
908.488	4466
908.604	4341
908.72	4352
908.836	4375
908.952	4341
909.068	4455
909.184	4588
909.3	4440
909.415	4580
909.531	4584
909.647	4375
909.762	4417
909.878	4352
909.993	4424
910.108	4440
910.224	4436
910.339	4500
910.454	4459
910.57	4341
910.685	4295
910.8	4656
910.915	4607
911.03	4478
911.145	4352
911.259	4322
911.374	4322
911.489	4246
911.604	4257
911.718	4154
911.833	4207
911.947	4055
912.062	4051
912.176	4200
912.291	4219
912.405	4268
912.519	4478
912.633	4531
912.748	4383
912.862	4303
912.976	4181
913.09	4093
913.204	4192
913.318	4242
913.431	4375
913.545	4375
913.659	4405
913.772	4333
913.886	4253
914	4238
914.113	4352
914.226	4409
914.34	4337
914.453	4257
914.566	4424
914.68	4329
914.793	4318
914.906	4147
915.019	4116
915.132	4097
915.245	4169
915.358	4207
915.47	4257
915.583	4246
915.696	4306
915.809	4417
915.921	4409
916.034	4265
916.146	4299
916.259	4219
916.371	4367
916.483	4360
916.595	4242
916.708	4310
916.82	4337
916.932	4306
917.044	4299
917.156	4348
917.268	4249
917.38	4299
917.491	4223
917.603	4341
917.715	4390
917.826	4455
917.938	4348
918.049	4215
918.161	4409
918.272	4527
918.384	4561
918.495	4436
918.606	4280
918.717	4265
918.828	4341
918.939	4348
919.05	4287
919.161	4344
919.272	4124
919.383	4276
919.494	4447
919.604	4630
919.715	4405
919.826	4348
919.936	4394
920.047	4523
920.157	4440
920.267	4698
920.378	4542
920.488	4535
920.598	4790
920.708	4854
920.818	4763
920.928	4755
921.038	4961
921.148	4968
921.258	4565
921.368	4565
921.477	4542
921.587	4455
921.697	4360
921.806	4596
921.916	4428
922.025	4223
922.134	4325
922.244	4158
922.353	4303
922.462	4181
922.571	4147
922.68	4010
922.789	3934
922.898	4029
923.007	4013
923.116	4135
923.224	4074
923.333	4032
923.442	3983
923.55	4006
923.659	4013
923.767	4067
923.876	3987
923.984	4105
924.092	4002
924.201	4074
924.309	4090
924.417	4128
924.525	4063
924.633	4101
924.741	5029
924.849	3930
924.956	4128
925.064	3972
925.172	3854
925.279	3945
925.387	4074
925.494	4055
925.602	4223
925.709	4124
925.816	4051
925.924	4090
926.031	4192
926.138	4158
926.245	4181
926.352	4093
926.459	4207
926.566	4265
926.673	4200
926.779	4078
926.886	4048
926.993	3994
927.099	3998
927.206	3945
927.312	3934
927.419	4055
927.525	4025
927.631	4055
927.737	3892
927.843	3975
927.95	3819
928.056	3945
928.162	3960
928.267	4078
928.373	4588
928.479	4086
928.585	3854
928.69	4017
928.796	4090
928.901	3972
929.007	3823
929.112	3972
929.218	4002
929.323	3941
929.428	3968
929.533	4147
929.638	3922
929.743	3945
929.848	4013
929.953	3926
930.058	3918
930.163	3759
930.267	3835
930.372	3956
930.477	3789
930.581	4082
930.685	3903
930.79	3812
930.894	3876
930.998	3892
931.103	4036
931.207	3736
931.311	3671
931.415	3682
931.519	3507
931.623	3561
