Data from test_V78500241_2501.txt Node
Date: Fri Mar 25 17:06:23 CST 2022
User: usil
Spectrometer: V785-0024
Trigger mode: 0
Integration Time (sec): 4.000000E-1
Scans to average: 1
Nonlinearity correction enabled: false
Boxcar width: 0
Storing dark spectrum: false
XAxis mode: Wavelengths
Number of Pixels in Spectrum: 1024
>>>>>Begin Spectral Data<<<<<
801.071	8024
801.214	8054
801.356	7909
801.499	7883
801.641	7792
801.783	7830
801.926	7913
802.068	7879
802.211	7875
802.353	7978
802.496	7845
802.638	7841
802.78	7894
802.923	7871
803.065	7837
803.208	7803
803.35	7887
803.492	8119
803.635	8123
803.777	7986
803.919	8149
804.061	8488
804.204	8206
804.346	8043
804.488	7936
804.63	7986
804.773	7978
804.915	8111
805.057	8259
805.199	8145
805.341	8191
805.483	8275
805.626	8275
805.768	8142
805.91	8183
806.052	8164
806.194	8145
806.336	8286
806.478	8130
806.62	8062
806.762	8081
806.904	8221
807.046	8465
807.188	8290
807.33	8305
807.472	8427
807.614	8092
807.756	8107
807.898	8005
808.04	7902
808.182	7852
808.324	7890
808.465	7928
808.607	8100
808.749	8107
808.891	8271
809.033	8305
809.174	8168
809.316	8107
809.458	8062
809.6	8081
809.741	8020
809.883	8001
810.025	8073
810.166	8035
810.308	7993
810.45	8008
810.591	7879
810.733	7738
810.875	7677
811.016	7552
811.158	7483
811.299	7613
811.441	7731
811.582	7670
811.724	7514
811.865	7571
812.007	7533
812.148	7616
812.29	7559
812.431	7719
812.573	7864
812.714	8008
812.855	8111
812.997	8252
813.138	8225
813.279	8138
813.421	8069
813.562	7925
813.703	7852
813.845	7734
813.986	7457
814.127	7270
814.268	7209
814.41	7179
814.551	7179
814.692	7179
814.833	7072
814.974	7126
815.115	7122
815.256	6954
815.397	6958
815.539	6977
815.68	6738
815.821	6757
815.962	6833
816.103	6875
816.244	6715
816.385	6528
816.526	6662
816.666	6486
816.807	6311
816.948	6422
817.089	6502
817.23	6418
817.371	6372
817.512	6395
817.653	6365
817.793	6395
817.934	6448
818.075	6479
818.216	6448
818.356	6429
818.497	6289
818.638	6110
818.778	6186
818.919	6129
819.06	6148
819.2	6342
819.341	6369
819.481	6346
819.622	6544
819.762	6741
819.903	6692
820.043	6620
820.184	6582
820.324	6570
820.465	6692
820.605	6654
820.746	6669
820.886	6441
821.026	6604
821.167	6749
821.307	6859
821.447	6787
821.588	6722
821.728	6528
821.868	6506
822.008	6342
822.149	6331
822.289	6391
822.429	6178
822.569	6060
822.709	6106
822.849	5954
822.99	5923
823.13	5984
823.27	5958
823.41	5783
823.55	5821
823.69	5748
823.83	5813
823.97	5668
824.11	5524
824.25	5501
824.389	5532
824.529	5585
824.669	5562
824.809	5672
824.949	5710
825.089	5611
825.228	5577
825.368	5387
825.508	5360
825.648	5376
825.787	5387
825.927	5357
826.067	5292
826.206	5307
826.346	5376
826.485	5379
826.625	5410
826.765	5558
826.904	5509
827.044	5269
827.183	5220
827.323	5102
827.462	5250
827.601	5170
827.741	5181
827.88	5185
828.02	5094
828.159	5223
828.298	5311
828.437	5349
828.577	5250
828.716	5433
828.855	5311
828.994	5113
829.134	5140
829.273	5189
829.412	5071
829.551	5086
829.69	5162
829.829	5162
829.968	5360
830.107	5280
830.246	5227
830.385	5174
830.524	5105
830.663	5071
830.802	5010
830.941	4870
831.08	4866
831.219	4980
831.357	4965
831.496	5090
831.635	4919
831.774	4896
831.913	4892
832.051	4721
832.19	4687
832.329	4835
832.467	4725
832.606	4710
832.744	4774
832.883	4721
833.022	4702
833.16	4763
833.299	4839
833.437	4854
833.576	4824
833.714	4889
833.852	4885
833.991	4847
834.129	4949
834.267	4949
834.406	4911
834.544	4957
834.682	4987
834.821	4976
834.959	5155
835.097	4953
835.235	5155
835.373	5041
835.511	5090
835.65	5064
835.788	5041
835.926	4911
836.064	4870
836.202	4915
836.34	5121
836.478	5235
836.615	5117
836.753	5227
836.891	5269
837.029	5273
837.167	5231
837.305	5170
837.443	5147
837.58	5098
837.718	5280
837.856	5201
837.993	5185
838.131	5220
838.269	5254
838.406	5227
838.544	5201
838.681	4999
838.819	4995
838.956	4881
839.094	4927
839.231	4957
839.369	5060
839.506	5414
839.643	5258
839.781	5090
839.918	4991
840.055	5105
840.193	5121
840.33	5121
840.467	5132
840.604	5147
840.742	5436
840.879	5075
841.016	5102
841.153	5121
841.29	5372
841.427	5330
841.564	5292
841.701	5395
841.838	5303
841.975	5208
842.112	5345
842.249	5147
842.385	5113
842.522	5334
842.659	5170
842.796	5140
842.933	5181
843.069	5159
843.206	5174
843.343	5235
843.479	5220
843.616	5296
843.752	5037
843.889	4976
844.025	5227
844.162	5029
844.298	5170
844.435	5098
844.571	5060
844.708	5166
844.844	5277
844.98	5334
845.117	5326
845.253	5159
845.389	5132
845.525	5197
845.661	5159
845.798	5025
845.934	5132
846.07	5083
846.206	5197
846.342	5254
846.478	5189
846.614	5033
846.75	4957
846.886	4904
847.022	5102
847.158	5037
847.294	5075
847.429	5136
847.565	5048
847.701	5326
847.837	4900
847.972	4820
848.108	4987
848.244	4927
848.379	4820
848.515	4714
848.65	4706
848.786	4725
848.921	4801
849.057	4828
849.192	4892
849.328	4816
849.463	4816
849.598	4771
849.734	4767
849.869	4683
850.004	4630
850.14	4653
850.275	4596
850.41	4504
850.545	4584
850.68	4599
850.815	4622
850.95	4641
851.085	4812
851.22	4748
851.355	4698
851.49	4596
851.625	4622
851.76	4637
851.895	4538
852.03	4538
852.165	4634
852.299	4694
852.434	4828
852.569	4740
852.703	4748
852.838	4816
852.973	4873
853.107	4908
853.242	4736
853.376	4679
853.511	4538
853.645	4626
853.78	4862
853.914	4721
854.048	4656
854.183	4641
854.317	4759
854.451	4862
854.585	4653
854.72	4679
854.854	4748
854.988	4634
855.122	4637
855.256	4512
855.39	4679
855.524	4729
855.658	4717
855.792	4702
855.926	4740
856.06	4748
856.194	4858
856.327	4683
856.461	4550
856.595	4626
856.729	4599
856.862	4740
856.996	4679
857.13	4714
857.263	4786
857.397	4801
857.53	4634
857.664	4774
857.797	4763
857.931	4835
858.064	4698
858.197	4698
858.331	4622
858.464	4607
858.597	4500
858.731	4634
858.864	4626
858.997	4618
859.13	4664
859.263	4645
859.396	4687
859.529	4569
859.662	4546
859.795	4538
859.928	4596
860.061	4755
860.194	4759
860.327	4573
860.46	4569
860.592	4668
860.725	4714
860.858	4748
860.99	4504
861.123	4561
861.256	4531
861.388	4607
861.521	5208
861.653	4504
861.786	4470
861.918	4455
862.05	4504
862.183	4569
862.315	4607
862.447	4637
862.58	4561
862.712	4390
862.844	4314
862.976	4470
863.108	4466
863.24	4919
863.372	4344
863.504	4409
863.636	4394
863.768	4466
863.9	4417
864.032	4356
864.164	4409
864.296	4470
864.428	4542
864.559	4599
864.691	4512
864.823	4538
864.954	4489
865.086	4519
865.217	4443
865.349	4409
865.48	4474
865.612	4459
865.743	4603
865.875	4470
866.006	4436
866.137	4459
866.269	4417
866.4	4443
866.531	4432
866.662	4394
866.793	4421
866.924	4421
867.055	4474
867.186	4462
867.317	4413
867.448	4379
867.579	4398
867.71	4421
867.841	4371
867.972	4428
868.103	4386
868.233	4432
868.364	4462
868.495	4500
868.625	4668
868.756	4721
868.886	4565
869.017	4641
869.147	4755
869.278	4752
869.408	4683
869.539	4630
869.669	4725
869.799	4714
869.929	4767
870.06	4774
870.19	4896
870.32	4858
870.45	4957
870.58	4991
870.71	5067
870.84	5098
870.97	4946
871.1	4885
871.23	5128
871.36	5121
871.489	5029
871.619	5045
871.749	5075
871.879	5113
872.008	5170
872.138	5071
872.267	4987
872.397	4915
872.526	4805
872.656	4733
872.785	4828
872.915	4984
873.044	5041
873.173	4923
873.303	4949
873.432	4892
873.561	4968
873.69	4889
873.819	4854
873.948	4961
874.077	4835
874.206	4748
874.335	4797
874.464	4976
874.593	5071
874.722	4984
874.851	5060
874.979	5075
875.108	5006
875.237	4919
875.365	4858
875.494	4908
875.623	5029
875.751	4835
875.88	4889
876.008	4972
876.136	5071
876.265	5208
876.393	5330
876.521	5273
876.65	5201
876.778	5140
876.906	5105
877.034	4999
877.162	5052
877.29	5022
877.418	5086
877.546	5041
877.674	5041
877.802	5003
877.93	5071
878.058	4995
878.185	4843
878.313	4976
878.441	4949
878.568	4797
878.696	4881
878.824	4976
878.951	4919
879.079	5128
879.206	5296
879.333	5102
879.461	5010
879.588	5022
879.715	5143
879.842	5288
879.97	5037
880.097	4767
880.224	4740
880.351	4824
880.478	4858
880.605	4767
880.732	4793
880.859	5067
880.986	4847
881.112	4889
881.239	4797
881.366	4634
881.493	4596
881.619	4573
881.746	4630
881.872	4577
881.999	4634
882.125	4698
882.252	4767
882.378	4828
882.505	4980
882.631	4816
882.757	4675
882.883	4656
883.01	4748
883.136	4683
883.262	4584
883.388	4603
883.514	4782
883.64	4870
883.766	4782
883.892	4653
884.018	4729
884.143	4923
884.269	5010
884.395	4706
884.52	4630
884.646	4656
884.772	4569
884.897	4584
885.023	4702
885.148	4767
885.274	4835
885.399	4839
885.524	4687
885.65	4679
885.775	4721
885.9	4694
886.025	4847
886.15	4778
886.275	4698
886.4	4630
886.525	4660
886.65	4702
886.775	4725
886.9	4889
887.025	5045
887.149	4816
887.274	4645
887.399	4584
887.523	4538
887.648	4569
887.773	4569
887.897	4763
888.021	4774
888.146	4691
888.27	4850
888.395	4892
888.519	4797
888.643	4824
888.767	4812
888.891	4691
889.015	4588
889.139	4622
889.263	4603
889.387	4740
889.511	4828
889.635	4771
889.759	4641
889.883	4649
890.006	4744
890.13	4858
890.254	4618
890.377	4683
890.501	4569
890.624	4500
890.748	4656
890.871	4489
890.995	4428
891.118	4398
891.241	4512
891.364	4550
891.488	4649
891.611	4497
891.734	4485
891.857	4622
891.98	4569
892.103	4626
892.226	4580
892.349	4546
892.471	4424
892.594	4542
892.717	4607
892.839	4538
892.962	4527
893.085	4615
893.207	4584
893.33	4462
893.452	4500
893.575	4694
893.697	4592
893.819	4790
893.941	4847
894.064	4748
894.186	4558
894.308	4596
894.43	4706
894.552	4843
894.674	4664
894.796	4611
894.918	4588
895.04	4538
895.161	4679
895.283	4668
895.405	4599
895.526	4675
895.648	4714
895.769	4736
895.891	4733
896.012	4706
896.134	4729
896.255	4660
896.376	4618
896.498	4584
896.619	4634
896.74	4607
896.861	4668
896.982	4927
897.103	5090
897.224	4805
897.345	4748
897.466	4679
897.587	4733
897.708	4870
897.828	4801
897.949	4687
898.07	4546
898.19	4634
898.311	4831
898.431	4694
898.552	4694
898.672	4793
898.792	4767
898.913	4717
899.033	4603
899.153	4481
899.273	4447
899.393	4531
899.513	4512
899.633	4478
899.753	4523
899.873	4558
899.993	4584
900.113	4504
900.232	4603
900.352	4569
900.472	4504
900.591	4428
900.711	4481
900.83	4405
900.95	4637
901.069	4634
901.189	4542
901.308	4272
901.427	4322
901.546	4375
901.665	4462
901.784	4516
901.904	4375
902.023	4356
902.141	4234
902.26	4207
902.379	4303
902.498	4204
902.617	4211
902.735	4367
902.854	4386
902.973	4363
903.091	4177
903.21	4291
903.328	4265
903.446	4261
903.565	4276
903.683	4322
903.801	4310
903.919	4413
904.038	4466
904.156	4310
904.274	4409
904.392	4394
904.51	4424
904.627	4485
904.745	4592
904.863	4653
904.981	4390
905.098	4265
905.216	4356
905.334	4398
905.451	4375
905.569	4428
905.686	4611
905.803	4561
905.921	4398
906.038	4531
906.155	4459
906.272	4386
906.389	4466
906.506	4421
906.623	4371
906.74	4379
906.857	4287
906.974	4363
907.091	4519
907.208	4649
907.324	4573
907.441	4489
907.557	4390
907.674	4318
907.79	4299
907.907	4386
908.023	4535
908.139	4497
908.256	4428
908.372	4451
908.488	4470
908.604	4383
908.72	4360
908.836	4383
908.952	4367
909.068	4447
909.184	4588
909.3	4493
909.415	4577
909.531	4538
909.647	4409
909.762	4360
909.878	4337
909.993	4409
910.108	4394
910.224	4402
910.339	4466
910.454	4386
910.57	4333
910.685	4318
910.8	4702
910.915	4649
911.03	4470
911.145	4348
911.259	4363
911.374	4363
911.489	4314
911.604	4306
911.718	4131
911.833	4196
911.947	4048
912.062	3983
912.176	4234
912.291	4291
912.405	4257
912.519	4421
912.633	4470
912.748	4363
912.862	4310
912.976	4238
913.09	4078
913.204	4162
913.318	4272
913.431	4360
913.545	4367
913.659	4398
913.772	4363
913.886	4234
914	4257
914.113	4356
914.226	4432
914.34	4413
914.453	4268
914.566	4413
914.68	4284
914.793	4318
914.906	4196
915.019	4131
915.132	4040
915.245	4124
915.358	4200
915.47	4257
915.583	4246
915.696	4268
915.809	4344
915.921	4386
916.034	4261
916.146	4276
916.259	4246
916.371	4367
916.483	4356
916.595	4310
916.708	4299
916.82	4337
916.932	4246
917.044	4333
917.156	4268
917.268	4211
917.38	4261
917.491	4284
917.603	4352
917.715	4424
917.826	4440
917.938	4371
918.049	4261
918.161	4409
918.272	4538
918.384	4527
918.495	4466
918.606	4242
918.717	4223
918.828	4318
918.939	4303
919.05	4246
919.161	4287
919.272	4166
919.383	4246
919.494	4478
919.604	4634
919.715	4417
919.826	4310
919.936	4459
920.047	4508
920.157	4516
920.267	4706
920.378	4527
920.488	4516
920.598	4672
920.708	4896
920.818	4759
920.928	4721
921.038	4866
921.148	4911
921.258	4615
921.368	4618
921.477	4440
921.587	4466
921.697	4386
921.806	4542
921.916	4417
922.025	4276
922.134	4257
922.244	4196
922.353	4344
922.462	4120
922.571	4120
922.68	3983
922.789	4002
922.898	4010
923.007	3941
923.116	4078
923.224	4071
923.333	4055
923.442	4036
923.55	3972
923.659	4051
923.767	4101
923.876	3964
923.984	4154
924.092	4013
924.201	4078
924.309	4093
924.417	4135
924.525	4048
924.633	4078
924.741	4877
924.849	3922
924.956	4162
925.064	3983
925.172	3865
925.279	3983
925.387	4040
925.494	4032
925.602	4215
925.709	4207
925.816	4051
925.924	4109
926.031	4242
926.138	4158
926.245	4261
926.352	4154
926.459	4219
926.566	4272
926.673	4166
926.779	4097
926.886	4078
926.993	4002
927.099	3968
927.206	3850
927.312	3930
927.419	4086
927.525	4040
927.631	4101
927.737	4025
927.843	3922
927.95	3865
928.056	3964
928.162	3949
928.267	4078
928.373	4577
928.479	4112
928.585	3896
928.69	4029
928.796	4116
928.901	3953
929.007	3827
929.112	4002
929.218	4006
929.323	3934
929.428	3941
929.533	4071
929.638	3899
929.743	3941
929.848	4055
929.953	3983
930.058	3880
930.163	3762
930.267	3812
930.372	3979
930.477	3804
930.581	4105
930.685	3972
930.79	3816
930.894	3873
930.998	3865
931.103	4032
931.207	3671
931.311	3671
931.415	3660
931.519	3534
931.623	3542
