Data from test_V78500241_1317.txt Node
Date: Fri Mar 25 16:58:09 CST 2022
User: usil
Spectrometer: V785-0024
Trigger mode: 0
Integration Time (sec): 4.000000E-1
Scans to average: 1
Nonlinearity correction enabled: false
Boxcar width: 0
Storing dark spectrum: false
XAxis mode: Wavelengths
Number of Pixels in Spectrum: 1024
>>>>>Begin Spectral Data<<<<<
801.071	8027
801.214	8020
801.356	7902
801.499	7902
801.641	7723
801.783	7792
801.926	7947
802.068	7913
802.211	8005
802.353	7932
802.496	7818
802.638	7868
802.78	7955
802.923	7940
803.065	7890
803.208	7807
803.35	8012
803.492	8138
803.635	8111
803.777	8027
803.919	8142
804.061	8423
804.204	8126
804.346	8039
804.488	7993
804.63	8191
804.773	8008
804.915	8069
805.057	8267
805.199	8195
805.341	8145
805.483	8317
805.626	8138
805.768	8088
805.91	8214
806.052	8210
806.194	8100
806.336	8347
806.478	8138
806.62	8031
806.762	8187
806.904	8290
807.046	8526
807.188	8427
807.33	8279
807.472	8339
807.614	8187
807.756	8145
807.898	8039
808.04	7898
808.182	7951
808.324	7887
808.465	7928
808.607	8096
808.749	8100
808.891	8138
809.033	8370
809.174	8164
809.316	8134
809.458	8084
809.6	7982
809.741	7989
809.883	8065
810.025	8115
810.166	8054
810.308	8046
810.45	8027
810.591	7811
810.733	7772
810.875	7700
811.016	7525
811.158	7480
811.299	7632
811.441	7731
811.582	7666
811.724	7552
811.865	7483
812.007	7521
812.148	7540
812.29	7605
812.431	7731
812.573	7875
812.714	7951
812.855	8081
812.997	8271
813.138	8290
813.279	8142
813.421	8100
813.562	8027
813.703	7868
813.845	7727
813.986	7506
814.127	7228
814.268	7236
814.41	7179
814.551	7126
814.692	7187
814.833	7072
814.974	7053
815.115	7164
815.256	6973
815.397	6901
815.539	6985
815.68	6791
815.821	6791
815.962	6814
816.103	6844
816.244	6703
816.385	6635
816.526	6616
816.666	6498
816.807	6304
816.948	6460
817.089	6483
817.23	6414
817.371	6384
817.512	6365
817.653	6372
817.793	6365
817.934	6433
818.075	6502
818.216	6422
818.356	6407
818.497	6224
818.638	6125
818.778	6121
818.919	6182
819.06	6030
819.2	6304
819.341	6289
819.481	6391
819.622	6540
819.762	6776
819.903	6650
820.043	6601
820.184	6555
820.324	6631
820.465	6692
820.605	6597
820.746	6608
820.886	6456
821.026	6677
821.167	6738
821.307	6757
821.447	6741
821.588	6642
821.728	6570
821.868	6464
822.008	6311
822.149	6369
822.289	6327
822.429	6159
822.569	6053
822.709	6079
822.849	5893
822.99	5908
823.13	5882
823.27	5942
823.41	5794
823.55	5756
823.69	5726
823.83	5775
823.97	5657
824.11	5577
824.25	5486
824.389	5562
824.529	5585
824.669	5493
824.809	5627
824.949	5688
825.089	5661
825.228	5554
825.368	5368
825.508	5330
825.648	5364
825.787	5379
825.927	5398
826.067	5307
826.206	5292
826.346	5395
826.485	5368
826.625	5395
826.765	5493
826.904	5486
827.044	5204
827.183	5132
827.323	5105
827.462	5250
827.601	5143
827.741	5178
827.88	5223
828.02	5086
828.159	5193
828.298	5292
828.437	5307
828.577	5242
828.716	5455
828.855	5341
828.994	5166
829.134	5124
829.273	5151
829.412	5083
829.551	5143
829.69	5170
829.829	5220
829.968	5379
830.107	5216
830.246	5311
830.385	5204
830.524	5102
830.663	5045
830.802	4934
830.941	4881
831.08	4877
831.219	5003
831.357	5006
831.496	5170
831.635	4885
831.774	4839
831.913	4847
832.051	4767
832.19	4744
832.329	4862
832.467	4660
832.606	4641
832.744	4710
832.883	4717
833.022	4733
833.16	4698
833.299	4812
833.437	4839
833.576	4809
833.714	4824
833.852	4889
833.991	4862
834.129	5018
834.267	4999
834.406	4915
834.544	4968
834.682	4991
834.821	4900
834.959	5136
835.097	4976
835.235	5128
835.373	5067
835.511	5079
835.65	5060
835.788	5018
835.926	4919
836.064	4835
836.202	4904
836.34	5132
836.478	5216
836.615	5064
836.753	5216
836.891	5227
837.029	5235
837.167	5155
837.305	5143
837.443	5121
837.58	5117
837.718	5155
837.856	5181
837.993	5109
838.131	5216
838.269	5178
838.406	5212
838.544	5155
838.681	5003
838.819	5025
838.956	4862
839.094	4908
839.231	5029
839.369	5052
839.506	5349
839.643	5231
839.781	5029
839.918	5029
840.055	5075
840.193	5067
840.33	5086
840.467	5121
840.604	5181
840.742	5421
840.879	5056
841.016	5143
841.153	5132
841.29	5376
841.427	5288
841.564	5322
841.701	5353
841.838	5254
841.975	5189
842.112	5322
842.249	5094
842.385	5128
842.522	5292
842.659	5174
842.796	5140
842.933	5155
843.069	5121
843.206	5121
843.343	5284
843.479	5204
843.616	5254
843.752	4976
843.889	4984
844.025	5185
844.162	4980
844.298	5189
844.435	5060
844.571	5075
844.708	5212
844.844	5307
844.98	5322
845.117	5284
845.253	5121
845.389	4991
845.525	5197
845.661	5128
845.798	5014
845.934	5121
846.07	5075
846.206	5147
846.342	5269
846.478	5212
846.614	4968
846.75	4991
846.886	4946
847.022	5102
847.158	5014
847.294	5056
847.429	5083
847.565	5071
847.701	5292
847.837	4843
847.972	4812
848.108	4953
848.244	4972
848.379	4717
848.515	4694
848.65	4714
848.786	4733
848.921	4793
849.057	4828
849.192	4885
849.328	4778
849.463	4820
849.598	4809
849.734	4816
849.869	4698
850.004	4596
850.14	4683
850.275	4584
850.41	4538
850.545	4542
850.68	4634
850.815	4637
850.95	4584
851.085	4820
851.22	4790
851.355	4672
851.49	4618
851.625	4611
851.76	4584
851.895	4546
852.03	4508
852.165	4630
852.299	4714
852.434	4755
852.569	4691
852.703	4774
852.838	4812
852.973	4915
853.107	4892
853.242	4725
853.376	4691
853.511	4550
853.645	4615
853.78	4793
853.914	4683
854.048	4664
854.183	4607
854.317	4698
854.451	4870
854.585	4733
854.72	4645
854.854	4714
854.988	4615
855.122	4653
855.256	4531
855.39	4649
855.524	4793
855.658	4706
855.792	4664
855.926	4740
856.06	4771
856.194	4786
856.327	4691
856.461	4588
856.595	4577
856.729	4622
856.862	4729
856.996	4698
857.13	4683
857.263	4736
857.397	4778
857.53	4630
857.664	4664
857.797	4736
857.931	4790
858.064	4714
858.197	4721
858.331	4675
858.464	4599
858.597	4512
858.731	4637
858.864	4649
858.997	4569
859.13	4649
859.263	4653
859.396	4691
859.529	4542
859.662	4592
859.795	4550
859.928	4630
860.061	4706
860.194	4767
860.327	4630
860.46	4603
860.592	4710
860.725	4679
860.858	4733
860.99	4561
861.123	4535
861.256	4481
861.388	4641
861.521	5166
861.653	4481
861.786	4390
861.918	4470
862.05	4512
862.183	4516
862.315	4634
862.447	4637
862.58	4519
862.712	4360
862.844	4356
862.976	4474
863.108	4447
863.24	4900
863.372	4280
863.504	4436
863.636	4440
863.768	4440
863.9	4421
864.032	4344
864.164	4363
864.296	4447
864.428	4542
864.559	4569
864.691	4508
864.823	4508
864.954	4493
865.086	4466
865.217	4440
865.349	4371
865.48	4440
865.612	4462
865.743	4607
865.875	4440
866.006	4405
866.137	4459
866.269	4428
866.4	4417
866.531	4432
866.662	4459
866.793	4409
866.924	4424
867.055	4470
867.186	4443
867.317	4409
867.448	4402
867.579	4367
867.71	4341
867.841	4363
867.972	4398
868.103	4455
868.233	4417
868.364	4455
868.495	4493
868.625	4603
868.756	4740
868.886	4550
869.017	4588
869.147	4763
869.278	4748
869.408	4694
869.539	4660
869.669	4679
869.799	4630
869.929	4748
870.06	4752
870.19	4957
870.32	4885
870.45	4911
870.58	4965
870.71	5075
870.84	5048
870.97	4892
871.1	4870
871.23	5136
871.36	5113
871.489	5037
871.619	5075
871.749	5075
871.879	5098
872.008	5189
872.138	5064
872.267	5014
872.397	4790
872.526	4767
872.656	4710
872.785	4771
872.915	4949
873.044	4984
873.173	4919
873.303	4885
873.432	4915
873.561	4984
873.69	4862
873.819	4831
873.948	4877
874.077	4824
874.206	4748
874.335	4778
874.464	4877
874.593	5071
874.722	4900
874.851	5060
874.979	5094
875.108	5022
875.237	4896
875.365	4862
875.494	4839
875.623	4987
875.751	4828
875.88	4892
876.008	5029
876.136	5048
876.265	5170
876.393	5292
876.521	5246
876.65	5174
876.778	5140
876.906	5064
877.034	4991
877.162	5048
877.29	4972
877.418	5014
877.546	4991
877.674	5022
877.802	5014
877.93	5022
878.058	4942
878.185	4908
878.313	4995
878.441	4961
878.568	4801
878.696	4854
878.824	4915
878.951	5022
879.079	5113
879.206	5288
879.333	5098
879.461	4987
879.588	4987
879.715	5083
879.842	5166
879.97	4957
880.097	4805
880.224	4706
880.351	4744
880.478	4831
880.605	4759
880.732	4816
880.859	5064
880.986	4892
881.112	4911
881.239	4744
881.366	4687
881.493	4519
881.619	4542
881.746	4626
881.872	4645
881.999	4672
882.125	4691
882.252	4759
882.378	4824
882.505	4930
882.631	4797
882.757	4637
882.883	4710
883.01	4717
883.136	4649
883.262	4592
883.388	4607
883.514	4816
883.64	4862
883.766	4797
883.892	4645
884.018	4694
884.143	4923
884.269	4999
884.395	4649
884.52	4634
884.646	4660
884.772	4596
884.897	4538
885.023	4637
885.148	4771
885.274	4877
885.399	4805
885.524	4698
885.65	4683
885.775	4717
885.9	4710
886.025	4820
886.15	4748
886.275	4729
886.4	4668
886.525	4714
886.65	4637
886.775	4672
886.9	4938
887.025	5033
887.149	4816
887.274	4630
887.399	4599
887.523	4558
887.648	4569
887.773	4588
887.897	4763
888.021	4809
888.146	4656
888.27	4786
888.395	4904
888.519	4778
888.643	4744
888.767	4797
888.891	4683
889.015	4626
889.139	4653
889.263	4584
889.387	4740
889.511	4805
889.635	4767
889.759	4683
889.883	4645
890.006	4721
890.13	4839
890.254	4596
890.377	4672
890.501	4516
890.624	4531
890.748	4588
890.871	4485
890.995	4455
891.118	4375
891.241	4508
891.364	4504
891.488	4615
891.611	4478
891.734	4519
891.857	4561
891.98	4550
892.103	4626
892.226	4588
892.349	4516
892.471	4428
892.594	4535
892.717	4554
892.839	4550
892.962	4611
893.085	4645
893.207	4569
893.33	4398
893.452	4485
893.575	4649
893.697	4588
893.819	4786
893.941	4797
894.064	4820
894.186	4599
894.308	4558
894.43	4706
894.552	4816
894.674	4733
894.796	4535
894.918	4649
895.04	4580
895.161	4706
895.283	4641
895.405	4565
895.526	4607
895.648	4649
895.769	4637
895.891	4717
896.012	4748
896.134	4698
896.255	4714
896.376	4683
896.498	4573
896.619	4679
896.74	4592
896.861	4679
896.982	4919
897.103	5056
897.224	4824
897.345	4725
897.466	4637
897.587	4733
897.708	4820
897.828	4755
897.949	4679
898.07	4580
898.19	4634
898.311	4790
898.431	4668
898.552	4740
898.672	4782
898.792	4790
898.913	4744
899.033	4603
899.153	4447
899.273	4398
899.393	4504
899.513	4558
899.633	4584
899.753	4538
899.873	4493
899.993	4538
900.113	4550
900.232	4577
900.352	4550
900.472	4474
900.591	4417
900.711	4462
900.83	4424
900.95	4558
901.069	4725
901.189	4573
901.308	4322
901.427	4314
901.546	4337
901.665	4466
901.784	4466
901.904	4405
902.023	4337
902.141	4158
902.26	4169
902.379	4272
902.498	4181
902.617	4211
902.735	4333
902.854	4409
902.973	4303
903.091	4223
903.21	4234
903.328	4284
903.446	4230
903.565	4276
903.683	4344
903.801	4299
903.919	4367
904.038	4398
904.156	4280
904.274	4386
904.392	4421
904.51	4405
904.627	4470
904.745	4592
904.863	4637
904.981	4363
905.098	4303
905.216	4333
905.334	4421
905.451	4424
905.569	4405
905.686	4519
905.803	4531
905.921	4363
906.038	4542
906.155	4462
906.272	4386
906.389	4405
906.506	4352
906.623	4402
906.74	4367
906.857	4295
906.974	4318
907.091	4561
907.208	4691
907.324	4569
907.441	4493
907.557	4322
907.674	4341
907.79	4253
907.907	4318
908.023	4436
908.139	4493
908.256	4413
908.372	4470
908.488	4428
908.604	4284
908.72	4329
908.836	4413
908.952	4394
909.068	4402
909.184	4542
909.3	4474
909.415	4565
909.531	4531
909.647	4363
909.762	4371
909.878	4360
909.993	4440
910.108	4402
910.224	4432
910.339	4485
910.454	4371
910.57	4383
910.685	4295
910.8	4611
910.915	4580
911.03	4500
911.145	4318
911.259	4303
911.374	4341
911.489	4299
911.604	4291
911.718	4192
911.833	4188
911.947	4051
912.062	4021
912.176	4185
912.291	4185
912.405	4246
912.519	4421
912.633	4451
912.748	4337
912.862	4303
912.976	4234
913.09	4105
913.204	4169
913.318	4211
913.431	4318
913.545	4310
913.659	4405
913.772	4333
913.886	4242
914	4215
914.113	4344
914.226	4394
914.34	4390
914.453	4257
914.566	4440
914.68	4276
914.793	4291
914.906	4143
915.019	4105
915.132	4139
915.245	4169
915.358	4219
915.47	4249
915.583	4215
915.696	4306
915.809	4383
915.921	4383
916.034	4253
916.146	4242
916.259	4230
916.371	4379
916.483	4333
916.595	4253
916.708	4314
916.82	4310
916.932	4325
917.044	4295
917.156	4280
917.268	4272
917.38	4249
917.491	4238
917.603	4379
917.715	4394
917.826	4417
917.938	4333
918.049	4223
918.161	4386
918.272	4512
918.384	4512
918.495	4462
918.606	4310
918.717	4246
918.828	4356
918.939	4398
919.05	4230
919.161	4348
919.272	4124
919.383	4223
919.494	4459
919.604	4630
919.715	4455
919.826	4428
919.936	4424
920.047	4470
920.157	4538
920.267	4660
920.378	4531
920.488	4462
920.598	4660
920.708	4858
920.818	4755
920.928	4763
921.038	4915
921.148	4938
921.258	4641
921.368	4554
921.477	4470
921.587	4485
921.697	4367
921.806	4512
921.916	4394
922.025	4246
922.134	4276
922.244	4200
922.353	4310
922.462	4181
922.571	4116
922.68	4051
922.789	3945
922.898	3991
923.007	3994
923.116	4128
923.224	4063
923.333	4051
923.442	3972
923.55	4002
923.659	3975
923.767	4082
923.876	3998
923.984	4128
924.092	3979
924.201	4040
924.309	4074
924.417	4074
924.525	4074
924.633	4128
924.741	4809
924.849	3922
924.956	4086
925.064	3945
925.172	3850
925.279	3926
925.387	4063
925.494	4021
925.602	4204
925.709	4128
925.816	4040
925.924	4086
926.031	4196
926.138	4116
926.245	4204
926.352	4086
926.459	4211
926.566	4257
926.673	4143
926.779	4071
926.886	4044
926.993	3930
927.099	3903
927.206	3930
927.312	3934
927.419	4021
927.525	4013
927.631	4059
927.737	3953
927.843	3915
927.95	3816
928.056	3941
928.162	3979
928.267	4055
928.373	4683
928.479	4124
928.585	3911
928.69	3983
928.796	4055
928.901	3941
929.007	3854
929.112	3930
929.218	3949
929.323	3949
929.428	3960
929.533	4112
929.638	3880
929.743	3979
929.848	4029
929.953	3964
930.058	3915
930.163	3755
930.267	3842
930.372	3922
930.477	3823
930.581	4124
930.685	3930
930.79	3819
930.894	3876
930.998	3873
931.103	4032
931.207	3740
931.311	3728
931.415	3671
931.519	3488
931.623	3576
