Data from test_V78500241_2594.txt Node
Date: Fri Mar 25 17:07:02 CST 2022
User: usil
Spectrometer: V785-0024
Trigger mode: 0
Integration Time (sec): 4.000000E-1
Scans to average: 1
Nonlinearity correction enabled: false
Boxcar width: 0
Storing dark spectrum: false
XAxis mode: Wavelengths
Number of Pixels in Spectrum: 1024
>>>>>Begin Spectral Data<<<<<
801.071	8062
801.214	8077
801.356	7875
801.499	7833
801.641	7784
801.783	7849
801.926	7997
802.068	7906
802.211	8001
802.353	8043
802.496	7883
802.638	7909
802.78	7925
802.923	7909
803.065	7932
803.208	7814
803.35	7997
803.492	8035
803.635	8183
803.777	8008
803.919	8088
804.061	8465
804.204	8172
804.346	8031
804.488	7959
804.63	8069
804.773	7989
804.915	8119
805.057	8229
805.199	8176
805.341	8225
805.483	8294
805.626	8168
805.768	8172
805.91	8183
806.052	8149
806.194	8103
806.336	8259
806.478	8176
806.62	8084
806.762	8161
806.904	8172
807.046	8454
807.188	8343
807.33	8294
807.472	8320
807.614	8111
807.756	8119
807.898	8005
808.04	7917
808.182	7887
808.324	7879
808.465	7887
808.607	8084
808.749	8081
808.891	8202
809.033	8343
809.174	8237
809.316	8081
809.458	8039
809.6	8046
809.741	8081
809.883	7993
810.025	8073
810.166	8149
810.308	7982
810.45	8008
810.591	7898
810.733	7761
810.875	7594
811.016	7525
811.158	7445
811.299	7597
811.441	7765
811.582	7746
811.724	7616
811.865	7556
812.007	7582
812.148	7601
812.29	7639
812.431	7734
812.573	7799
812.714	7986
812.855	8111
812.997	8267
813.138	8301
813.279	8123
813.421	8081
813.562	8039
813.703	7887
813.845	7780
813.986	7495
814.127	7209
814.268	7266
814.41	7198
814.551	7183
814.692	7202
814.833	7103
814.974	7107
815.115	7156
815.256	6996
815.397	6901
815.539	6947
815.68	6848
815.821	6787
815.962	6825
816.103	6909
816.244	6764
816.385	6639
816.526	6582
816.666	6521
816.807	6308
816.948	6395
817.089	6483
817.23	6452
817.371	6399
817.512	6365
817.653	6376
817.793	6300
817.934	6429
818.075	6445
818.216	6464
818.356	6388
818.497	6247
818.638	6102
818.778	6148
818.919	6121
819.06	6091
819.2	6289
819.341	6319
819.481	6273
819.622	6544
819.762	6753
819.903	6745
820.043	6635
820.184	6665
820.324	6669
820.465	6726
820.605	6776
820.746	6703
820.886	6528
821.026	6741
821.167	6730
821.307	6814
821.447	6806
821.588	6696
821.728	6597
821.868	6563
822.008	6346
822.149	6334
822.289	6399
822.429	6270
822.569	6095
822.709	6133
822.849	6041
822.99	5935
823.13	5969
823.27	5950
823.41	5817
823.55	5824
823.69	5817
823.83	5767
823.97	5703
824.11	5585
824.25	5520
824.389	5596
824.529	5638
824.669	5520
824.809	5672
824.949	5737
825.089	5653
825.228	5623
825.368	5448
825.508	5364
825.648	5383
825.787	5425
825.927	5379
826.067	5398
826.206	5318
826.346	5471
826.485	5444
826.625	5421
826.765	5676
826.904	5532
827.044	5280
827.183	5265
827.323	5189
827.462	5292
827.601	5246
827.741	5220
827.88	5246
828.02	5159
828.159	5265
828.298	5387
828.437	5368
828.577	5357
828.716	5478
828.855	5349
828.994	5250
829.134	5193
829.273	5284
829.412	5239
829.551	5155
829.69	5170
829.829	5284
829.968	5410
830.107	5315
830.246	5288
830.385	5239
830.524	5197
830.663	5105
830.802	5010
830.941	4953
831.08	4930
831.219	5048
831.357	5010
831.496	5159
831.635	4987
831.774	4870
831.913	4927
832.051	4828
832.19	4744
832.329	4900
832.467	4706
832.606	4694
832.744	4740
832.883	4812
833.022	4725
833.16	4805
833.299	4854
833.437	4820
833.576	4911
833.714	4881
833.852	4938
833.991	4927
834.129	5018
834.267	4953
834.406	4900
834.544	5067
834.682	5010
834.821	4984
834.959	5204
835.097	5033
835.235	5105
835.373	5090
835.511	5113
835.65	5075
835.788	5060
835.926	4900
836.064	4927
836.202	4946
836.34	5201
836.478	5258
836.615	5162
836.753	5242
836.891	5341
837.029	5318
837.167	5303
837.305	5212
837.443	5162
837.58	5079
837.718	5254
837.856	5216
837.993	5231
838.131	5220
838.269	5273
838.406	5235
838.544	5231
838.681	5060
838.819	5079
838.956	4930
839.094	4965
839.231	4991
839.369	5086
839.506	5471
839.643	5315
839.781	5105
839.918	5006
840.055	5109
840.193	5140
840.33	5140
840.467	5166
840.604	5231
840.742	5486
840.879	5105
841.016	5162
841.153	5220
841.29	5414
841.427	5368
841.564	5322
841.701	5349
841.838	5353
841.975	5231
842.112	5326
842.249	5223
842.385	5166
842.522	5334
842.659	5208
842.796	5201
842.933	5220
843.069	5220
843.206	5178
843.343	5299
843.479	5254
843.616	5277
843.752	5041
843.889	5033
844.025	5250
844.162	5048
844.298	5204
844.435	5094
844.571	5109
844.708	5216
844.844	5391
844.98	5417
845.117	5383
845.253	5185
845.389	5124
845.525	5246
845.661	5185
845.798	5086
845.934	5159
846.07	5147
846.206	5178
846.342	5299
846.478	5231
846.614	5060
846.75	5029
846.886	4980
847.022	5181
847.158	5075
847.294	5071
847.429	5136
847.565	5033
847.701	5341
847.837	4908
847.972	4824
848.108	4957
848.244	4972
848.379	4850
848.515	4801
848.65	4790
848.786	4831
848.921	4797
849.057	4870
849.192	4946
849.328	4858
849.463	4866
849.598	4744
849.734	4831
849.869	4774
850.004	4668
850.14	4641
850.275	4637
850.41	4596
850.545	4618
850.68	4630
850.815	4634
850.95	4672
851.085	4850
851.22	4771
851.355	4668
851.49	4675
851.625	4691
851.76	4672
851.895	4611
852.03	4546
852.165	4683
852.299	4778
852.434	4843
852.569	4744
852.703	4801
852.838	4824
852.973	4980
853.107	4972
853.242	4801
853.376	4717
853.511	4584
853.645	4641
853.78	4786
853.914	4717
854.048	4702
854.183	4645
854.317	4782
854.451	4873
854.585	4710
854.72	4679
854.854	4774
854.988	4653
855.122	4706
855.256	4550
855.39	4706
855.524	4839
855.658	4778
855.792	4729
855.926	4740
856.06	4778
856.194	4790
856.327	4702
856.461	4668
856.595	4649
856.729	4672
856.862	4752
856.996	4729
857.13	4725
857.263	4809
857.397	4858
857.53	4698
857.664	4748
857.797	4778
857.931	4816
858.064	4740
858.197	4740
858.331	4679
858.464	4611
858.597	4550
858.731	4687
858.864	4694
858.997	4626
859.13	4653
859.263	4691
859.396	4698
859.529	4599
859.662	4596
859.795	4607
859.928	4626
860.061	4793
860.194	4786
860.327	4649
860.46	4622
860.592	4748
860.725	4702
860.858	4687
860.99	4596
861.123	4569
861.256	4523
861.388	4626
861.521	5459
861.653	4485
861.786	4466
861.918	4451
862.05	4527
862.183	4611
862.315	4596
862.447	4649
862.58	4561
862.712	4440
862.844	4409
862.976	4474
863.108	4489
863.24	4805
863.372	4371
863.504	4478
863.636	4451
863.768	4474
863.9	4413
864.032	4394
864.164	4424
864.296	4512
864.428	4584
864.559	4584
864.691	4516
864.823	4558
864.954	4558
865.086	4561
865.217	4489
865.349	4436
865.48	4485
865.612	4519
865.743	4645
865.875	4504
866.006	4459
866.137	4531
866.269	4493
866.4	4447
866.531	4432
866.662	4424
866.793	4443
866.924	4459
867.055	4558
867.186	4519
867.317	4432
867.448	4409
867.579	4409
867.71	4424
867.841	4405
867.972	4489
868.103	4497
868.233	4459
868.364	4432
868.495	4523
868.625	4656
868.756	4778
868.886	4588
869.017	4653
869.147	4771
869.278	4805
869.408	4660
869.539	4706
869.669	4748
869.799	4679
869.929	4793
870.06	4755
870.19	4965
870.32	4946
870.45	4946
870.58	5022
870.71	5109
870.84	5109
870.97	4949
871.1	4892
871.23	5166
871.36	5140
871.489	5086
871.619	5064
871.749	5162
871.879	5181
872.008	5181
872.138	5136
872.267	4991
872.397	4908
872.526	4801
872.656	4752
872.785	4828
872.915	4987
873.044	5048
873.173	4984
873.303	4995
873.432	4949
873.561	4957
873.69	4904
873.819	4904
873.948	4930
874.077	4835
874.206	4778
874.335	4809
874.464	4911
874.593	5056
874.722	5014
874.851	5155
874.979	5060
875.108	5029
875.237	4927
875.365	4911
875.494	4877
875.623	4999
875.751	4873
875.88	4900
876.008	5014
876.136	4991
876.265	5185
876.393	5341
876.521	5318
876.65	5254
876.778	5162
876.906	5124
877.034	5067
877.162	5109
877.29	4999
877.418	5086
877.546	5098
877.674	5117
877.802	5060
877.93	5045
878.058	5014
878.185	4904
878.313	4923
878.441	4908
878.568	4820
878.696	4889
878.824	4972
878.951	4999
879.079	5121
879.206	5311
879.333	5132
879.461	5014
879.588	5006
879.715	5136
879.842	5292
879.97	5041
880.097	4828
880.224	4767
880.351	4828
880.478	4858
880.605	4828
880.732	4797
880.859	5079
880.986	4938
881.112	4885
881.239	4797
881.366	4672
881.493	4615
881.619	4637
881.746	4679
881.872	4641
881.999	4675
882.125	4706
882.252	4812
882.378	4820
882.505	4991
882.631	4801
882.757	4721
882.883	4729
883.01	4771
883.136	4691
883.262	4649
883.388	4645
883.514	4839
883.64	4915
883.766	4831
883.892	4721
884.018	4763
884.143	4900
884.269	4995
884.395	4710
884.52	4641
884.646	4668
884.772	4618
884.897	4577
885.023	4656
885.148	4782
885.274	4850
885.399	4790
885.524	4725
885.65	4710
885.775	4805
885.9	4740
886.025	4839
886.15	4839
886.275	4744
886.4	4683
886.525	4721
886.65	4725
886.775	4698
886.9	4904
887.025	5029
887.149	4812
887.274	4656
887.399	4592
887.523	4599
887.648	4588
887.773	4573
887.897	4793
888.021	4782
888.146	4755
888.27	4828
888.395	4984
888.519	4820
888.643	4778
888.767	4820
888.891	4736
889.015	4634
889.139	4641
889.263	4630
889.387	4793
889.511	4904
889.635	4805
889.759	4637
889.883	4672
890.006	4687
890.13	4847
890.254	4611
890.377	4725
890.501	4558
890.624	4592
890.748	4653
890.871	4523
890.995	4489
891.118	4428
891.241	4542
891.364	4561
891.488	4615
891.611	4508
891.734	4508
891.857	4622
891.98	4554
892.103	4649
892.226	4615
892.349	4531
892.471	4440
892.594	4580
892.717	4615
892.839	4580
892.962	4611
893.085	4672
893.207	4611
893.33	4436
893.452	4558
893.575	4687
893.697	4580
893.819	4824
893.941	4854
894.064	4748
894.186	4542
894.308	4580
894.43	4782
894.552	4812
894.674	4771
894.796	4558
894.918	4649
895.04	4634
895.161	4729
895.283	4656
895.405	4519
895.526	4607
895.648	4717
895.769	4725
895.891	4725
896.012	4740
896.134	4691
896.255	4706
896.376	4622
896.498	4615
896.619	4645
896.74	4630
896.861	4679
896.982	4949
897.103	5052
897.224	4835
897.345	4763
897.466	4630
897.587	4702
897.708	4881
897.828	4835
897.949	4679
898.07	4584
898.19	4679
898.311	4835
898.431	4683
898.552	4752
898.672	4866
898.792	4858
898.913	4778
899.033	4607
899.153	4462
899.273	4474
899.393	4523
899.513	4466
899.633	4596
899.753	4554
899.873	4558
899.993	4558
900.113	4554
900.232	4630
900.352	4516
900.472	4535
900.591	4409
900.711	4527
900.83	4466
900.95	4675
901.069	4691
901.189	4569
901.308	4375
901.427	4310
901.546	4379
901.665	4478
901.784	4558
901.904	4356
902.023	4348
902.141	4223
902.26	4192
902.379	4261
902.498	4295
902.617	4234
902.735	4371
902.854	4413
902.973	4341
903.091	4204
903.21	4253
903.328	4322
903.446	4303
903.565	4280
903.683	4333
903.801	4261
903.919	4432
904.038	4455
904.156	4303
904.274	4417
904.392	4455
904.51	4478
904.627	4508
904.745	4561
904.863	4656
904.981	4413
905.098	4325
905.216	4348
905.334	4462
905.451	4432
905.569	4493
905.686	4592
905.803	4538
905.921	4413
906.038	4554
906.155	4542
906.272	4394
906.389	4443
906.506	4360
906.623	4363
906.74	4409
906.857	4337
906.974	4352
907.091	4569
907.208	4675
907.324	4603
907.441	4516
907.557	4318
907.674	4333
907.79	4360
907.907	4394
908.023	4516
908.139	4489
908.256	4451
908.372	4481
908.488	4440
908.604	4356
908.72	4276
908.836	4413
908.952	4398
909.068	4455
909.184	4565
909.3	4478
909.415	4577
909.531	4558
909.647	4367
909.762	4363
909.878	4341
909.993	4417
910.108	4428
910.224	4474
910.339	4527
910.454	4337
910.57	4405
910.685	4303
910.8	4672
910.915	4599
911.03	4519
911.145	4341
911.259	4341
911.374	4356
911.489	4268
911.604	4272
911.718	4246
911.833	4227
911.947	4120
912.062	4082
912.176	4223
912.291	4249
912.405	4257
912.519	4447
912.633	4497
912.748	4379
912.862	4356
912.976	4158
913.09	4143
913.204	4131
913.318	4249
913.431	4371
913.545	4383
913.659	4440
913.772	4367
913.886	4265
914	4265
914.113	4390
914.226	4428
914.34	4363
914.453	4246
914.566	4421
914.68	4295
914.793	4322
914.906	4158
915.019	4169
915.132	4128
915.245	4173
915.358	4249
915.47	4249
915.583	4314
915.696	4318
915.809	4428
915.921	4386
916.034	4276
916.146	4234
916.259	4230
916.371	4329
916.483	4352
916.595	4238
916.708	4333
916.82	4310
916.932	4329
917.044	4314
917.156	4318
917.268	4295
917.38	4356
917.491	4284
917.603	4367
917.715	4413
917.826	4455
917.938	4341
918.049	4211
918.161	4371
918.272	4580
918.384	4561
918.495	4466
918.606	4295
918.717	4246
918.828	4341
918.939	4360
919.05	4261
919.161	4306
919.272	4177
919.383	4265
919.494	4443
919.604	4634
919.715	4440
919.826	4352
919.936	4474
920.047	4550
920.157	4451
920.267	4729
920.378	4561
920.488	4478
920.598	4759
920.708	4850
920.818	4797
920.928	4774
921.038	4923
921.148	4873
921.258	4645
921.368	4611
921.477	4497
921.587	4550
921.697	4383
921.806	4531
921.916	4440
922.025	4284
922.134	4276
922.244	4173
922.353	4333
922.462	4192
922.571	4166
922.68	3983
922.789	3972
922.898	4063
923.007	4010
923.116	4048
923.224	4078
923.333	4105
923.442	3987
923.55	3979
923.659	4048
923.767	4116
923.876	4013
923.984	4135
924.092	3991
924.201	4086
924.309	4086
924.417	4128
924.525	4055
924.633	4086
924.741	5067
924.849	3918
924.956	4169
925.064	3960
925.172	3880
925.279	3960
925.387	4090
925.494	4086
925.602	4230
925.709	4207
925.816	4048
925.924	4131
926.031	4223
926.138	4124
926.245	4204
926.352	4082
926.459	4249
926.566	4291
926.673	4196
926.779	4093
926.886	4059
926.993	3991
927.099	3968
927.206	3911
927.312	3941
927.419	4082
927.525	4040
927.631	4063
927.737	4017
927.843	3994
927.95	3857
928.056	3930
928.162	4010
928.267	4067
928.373	4607
928.479	4112
928.585	3854
928.69	4101
928.796	4071
928.901	3922
929.007	3804
929.112	4002
929.218	3975
929.323	3930
929.428	3960
929.533	4154
929.638	3926
929.743	3972
929.848	4074
929.953	3979
930.058	3972
930.163	3797
930.267	3850
930.372	3949
930.477	3827
930.581	4051
930.685	3949
930.79	3838
930.894	3903
930.998	3823
931.103	4021
931.207	3755
931.311	3751
931.415	3690
931.519	3530
931.623	3538
