Data from test_V78500241_2734.txt Node
Date: Fri Mar 25 17:08:00 CST 2022
User: usil
Spectrometer: V785-0024
Trigger mode: 0
Integration Time (sec): 4.000000E-1
Scans to average: 1
Nonlinearity correction enabled: false
Boxcar width: 0
Storing dark spectrum: false
XAxis mode: Wavelengths
Number of Pixels in Spectrum: 1024
>>>>>Begin Spectral Data<<<<<
801.071	7940
801.214	8100
801.356	7883
801.499	7822
801.641	7856
801.783	7807
801.926	7993
802.068	7982
802.211	8001
802.353	7963
802.496	7860
802.638	7909
802.78	7947
802.923	7959
803.065	7799
803.208	7837
803.35	7989
803.492	8081
803.635	8142
803.777	8027
803.919	8142
804.061	8526
804.204	8244
804.346	8077
804.488	7986
804.63	8062
804.773	8039
804.915	8145
805.057	8301
805.199	8153
805.341	8313
805.483	8233
805.626	8206
805.768	8157
805.91	8183
806.052	8244
806.194	8176
806.336	8370
806.478	8065
806.62	8043
806.762	8126
806.904	8195
807.046	8511
807.188	8389
807.33	8366
807.472	8298
807.614	8176
807.756	8145
807.898	8020
808.04	7833
808.182	7875
808.324	7864
808.465	7940
808.607	8115
808.749	8183
808.891	8240
809.033	8267
809.174	8256
809.316	8050
809.458	8077
809.6	8012
809.741	8024
809.883	8005
810.025	8073
810.166	8054
810.308	8073
810.45	8020
810.591	7879
810.733	7761
810.875	7712
811.016	7590
811.158	7499
811.299	7597
811.441	7742
811.582	7734
811.724	7636
811.865	7590
812.007	7525
812.148	7571
812.29	7685
812.431	7746
812.573	7890
812.714	7978
812.855	8153
812.997	8218
813.138	8332
813.279	8138
813.421	8081
813.562	7974
813.703	7940
813.845	7738
813.986	7392
814.127	7209
814.268	7305
814.41	7274
814.551	7190
814.692	7217
814.833	7065
814.974	7141
815.115	7057
815.256	6981
815.397	7023
815.539	6928
815.68	6802
815.821	6768
815.962	6825
816.103	6768
816.244	6738
816.385	6635
816.526	6616
816.666	6467
816.807	6292
816.948	6445
817.089	6547
817.23	6521
817.371	6376
817.512	6334
817.653	6353
817.793	6357
817.934	6433
818.075	6471
818.216	6407
818.356	6369
818.497	6251
818.638	6087
818.778	6144
818.919	6163
819.06	6129
819.2	6395
819.341	6266
819.481	6300
819.622	6528
819.762	6696
819.903	6654
820.043	6585
820.184	6574
820.324	6593
820.465	6700
820.605	6692
820.746	6639
820.886	6578
821.026	6593
821.167	6707
821.307	6810
821.447	6791
821.588	6585
821.728	6620
821.868	6517
822.008	6353
822.149	6403
822.289	6346
822.429	6148
822.569	6110
822.709	6106
822.849	5904
822.99	5908
823.13	5927
823.27	5935
823.41	5786
823.55	5809
823.69	5775
823.83	5745
823.97	5665
824.11	5566
824.25	5509
824.389	5627
824.529	5619
824.669	5547
824.809	5623
824.949	5615
825.089	5596
825.228	5577
825.368	5440
825.508	5334
825.648	5360
825.787	5433
825.927	5410
826.067	5261
826.206	5299
826.346	5379
826.485	5448
826.625	5429
826.765	5505
826.904	5471
827.044	5223
827.183	5197
827.323	5105
827.462	5258
827.601	5109
827.741	5208
827.88	5235
828.02	5098
828.159	5239
828.298	5239
828.437	5341
828.577	5315
828.716	5471
828.855	5345
828.994	5170
829.134	5170
829.273	5185
829.412	5140
829.551	5132
829.69	5124
829.829	5204
829.968	5372
830.107	5311
830.246	5273
830.385	5151
830.524	5113
830.663	5060
830.802	4927
830.941	4896
831.08	4892
831.219	5003
831.357	5010
831.496	5136
831.635	4987
831.774	4797
831.913	4835
832.051	4752
832.19	4736
832.329	4850
832.467	4763
832.606	4645
832.744	4706
832.883	4733
833.022	4733
833.16	4786
833.299	4801
833.437	4839
833.576	4824
833.714	4870
833.852	4816
833.991	4892
834.129	4957
834.267	4949
834.406	4927
834.544	4919
834.682	4942
834.821	4984
834.959	5189
835.097	4991
835.235	5136
835.373	5064
835.511	5113
835.65	5018
835.788	5041
835.926	4911
836.064	4904
836.202	4953
836.34	5185
836.478	5197
836.615	5155
836.753	5239
836.891	5277
837.029	5265
837.167	5193
837.305	5197
837.443	5124
837.58	5102
837.718	5311
837.856	5155
837.993	5140
838.131	5189
838.269	5216
838.406	5197
838.544	5136
838.681	5083
838.819	5003
838.956	4877
839.094	4889
839.231	5003
839.369	5143
839.506	5444
839.643	5265
839.781	5067
839.918	4991
840.055	5109
840.193	5121
840.33	5109
840.467	5075
840.604	5185
840.742	5368
840.879	5060
841.016	5094
841.153	5151
841.29	5391
841.427	5334
841.564	5322
841.701	5345
841.838	5307
841.975	5189
842.112	5292
842.249	5128
842.385	5060
842.522	5326
842.659	5181
842.796	5166
842.933	5197
843.069	5159
843.206	5109
843.343	5326
843.479	5231
843.616	5315
843.752	4976
843.889	4991
844.025	5227
844.162	5010
844.298	5212
844.435	5086
844.571	5064
844.708	5204
844.844	5280
844.98	5391
845.117	5318
845.253	5140
845.389	5090
845.525	5174
845.661	5185
845.798	5025
845.934	5121
846.07	5014
846.206	5189
846.342	5269
846.478	5204
846.614	4995
846.75	5010
846.886	4957
847.022	5178
847.158	5025
847.294	5029
847.429	5090
847.565	5124
847.701	5334
847.837	4858
847.972	4816
848.108	4946
848.244	4870
848.379	4809
848.515	4698
848.65	4706
848.786	4725
848.921	4740
849.057	4892
849.192	4854
849.328	4774
849.463	4847
849.598	4748
849.734	4763
849.869	4729
850.004	4603
850.14	4679
850.275	4580
850.41	4535
850.545	4538
850.68	4599
850.815	4645
850.95	4656
851.085	4824
851.22	4812
851.355	4675
851.49	4607
851.625	4618
851.76	4592
851.895	4569
852.03	4485
852.165	4649
852.299	4721
852.434	4740
852.569	4710
852.703	4793
852.838	4820
852.973	4915
853.107	4896
853.242	4733
853.376	4653
853.511	4535
853.645	4626
853.78	4778
853.914	4725
854.048	4672
854.183	4565
854.317	4733
854.451	4809
854.585	4664
854.72	4702
854.854	4759
854.988	4599
855.122	4596
855.256	4535
855.39	4675
855.524	4774
855.658	4755
855.792	4660
855.926	4694
856.06	4771
856.194	4782
856.327	4672
856.461	4634
856.595	4634
856.729	4618
856.862	4786
856.996	4645
857.13	4714
857.263	4755
857.397	4858
857.53	4611
857.664	4675
857.797	4744
857.931	4736
858.064	4714
858.197	4740
858.331	4679
858.464	4615
858.597	4493
858.731	4637
858.864	4660
858.997	4588
859.13	4622
859.263	4683
859.396	4660
859.529	4630
859.662	4550
859.795	4538
859.928	4683
860.061	4774
860.194	4809
860.327	4592
860.46	4626
860.592	4698
860.725	4763
860.858	4714
860.99	4592
861.123	4546
861.256	4512
861.388	4626
861.521	5292
861.653	4497
861.786	4440
861.918	4466
862.05	4508
862.183	4535
862.315	4569
862.447	4637
862.58	4531
862.712	4424
862.844	4303
862.976	4504
863.108	4462
863.24	4767
863.372	4360
863.504	4409
863.636	4402
863.768	4440
863.9	4455
864.032	4348
864.164	4390
864.296	4523
864.428	4554
864.559	4527
864.691	4512
864.823	4523
864.954	4489
865.086	4523
865.217	4451
865.349	4424
865.48	4436
865.612	4493
865.743	4630
865.875	4455
866.006	4421
866.137	4447
866.269	4440
866.4	4394
866.531	4466
866.662	4375
866.793	4383
866.924	4409
867.055	4508
867.186	4440
867.317	4470
867.448	4424
867.579	4390
867.71	4375
867.841	4318
867.972	4413
868.103	4485
868.233	4424
868.364	4436
868.495	4481
868.625	4675
868.756	4782
868.886	4584
869.017	4618
869.147	4835
869.278	4816
869.408	4683
869.539	4687
869.669	4736
869.799	4687
869.929	4744
870.06	4744
870.19	4965
870.32	4908
870.45	4957
870.58	4995
870.71	5109
870.84	5098
870.97	4919
871.1	4885
871.23	5136
871.36	5155
871.489	5045
871.619	5102
871.749	5083
871.879	5155
872.008	5178
872.138	5060
872.267	4953
872.397	4816
872.526	4839
872.656	4717
872.785	4793
872.915	4965
873.044	5018
873.173	4942
873.303	4953
873.432	4942
873.561	4980
873.69	4835
873.819	4805
873.948	4919
874.077	4797
874.206	4774
874.335	4812
874.464	4938
874.593	5071
874.722	4953
874.851	5113
874.979	5090
875.108	5014
875.237	4911
875.365	4843
875.494	4896
875.623	5041
875.751	4816
875.88	4934
876.008	4968
876.136	5029
876.265	5170
876.393	5345
876.521	5269
876.65	5235
876.778	5170
876.906	5075
877.034	5064
877.162	5056
877.29	4972
877.418	5025
877.546	5029
877.674	5052
877.802	5022
877.93	4961
878.058	4934
878.185	4866
878.313	4987
878.441	4946
878.568	4839
878.696	4889
878.824	4942
878.951	4965
879.079	5124
879.206	5292
879.333	5102
879.461	4961
879.588	5006
879.715	5136
879.842	5178
879.97	5010
880.097	4752
880.224	4748
880.351	4782
880.478	4786
880.605	4843
880.732	4790
880.859	5086
880.986	4892
881.112	4923
881.239	4793
881.366	4694
881.493	4687
881.619	4580
881.746	4622
881.872	4717
881.999	4645
882.125	4717
882.252	4763
882.378	4824
882.505	4915
882.631	4870
882.757	4672
882.883	4694
883.01	4752
883.136	4683
883.262	4599
883.388	4607
883.514	4839
883.64	4889
883.766	4786
883.892	4637
884.018	4736
884.143	4911
884.269	5014
884.395	4630
884.52	4592
884.646	4596
884.772	4573
884.897	4580
885.023	4672
885.148	4778
885.274	4873
885.399	4805
885.524	4729
885.65	4687
885.775	4790
885.9	4694
886.025	4889
886.15	4786
886.275	4694
886.4	4653
886.525	4714
886.65	4656
886.775	4672
886.9	4896
887.025	5045
887.149	4839
887.274	4660
887.399	4596
887.523	4580
887.648	4573
887.773	4584
887.897	4748
888.021	4774
888.146	4668
888.27	4740
888.395	4873
888.519	4824
888.643	4812
888.767	4816
888.891	4656
889.015	4637
889.139	4660
889.263	4584
889.387	4771
889.511	4889
889.635	4782
889.759	4649
889.883	4626
890.006	4706
890.13	4828
890.254	4607
890.377	4717
890.501	4542
890.624	4527
890.748	4675
890.871	4512
890.995	4436
891.118	4352
891.241	4523
891.364	4607
891.488	4672
891.611	4508
891.734	4577
891.857	4649
891.98	4538
892.103	4672
892.226	4542
892.349	4550
892.471	4424
892.594	4558
892.717	4577
892.839	4618
892.962	4580
893.085	4675
893.207	4592
893.33	4443
893.452	4497
893.575	4691
893.697	4626
893.819	4793
893.941	4816
894.064	4778
894.186	4523
894.308	4592
894.43	4706
894.552	4782
894.674	4733
894.796	4573
894.918	4607
895.04	4550
895.161	4717
895.283	4588
895.405	4649
895.526	4607
895.648	4763
895.769	4656
895.891	4733
896.012	4736
896.134	4706
896.255	4668
896.376	4637
896.498	4596
896.619	4668
896.74	4603
896.861	4637
896.982	4919
897.103	5094
897.224	4885
897.345	4706
897.466	4694
897.587	4733
897.708	4862
897.828	4763
897.949	4691
898.07	4546
898.19	4626
898.311	4805
898.431	4672
898.552	4778
898.672	4786
898.792	4774
898.913	4721
899.033	4649
899.153	4478
899.273	4383
899.393	4500
899.513	4550
899.633	4512
899.753	4497
899.873	4504
899.993	4542
900.113	4519
900.232	4538
900.352	4558
900.472	4497
900.591	4432
900.711	4432
900.83	4481
900.95	4584
901.069	4687
901.189	4577
901.308	4348
901.427	4287
901.546	4360
901.665	4451
901.784	4516
901.904	4352
902.023	4325
902.141	4211
902.26	4192
902.379	4280
902.498	4249
902.617	4230
902.735	4417
902.854	4409
902.973	4322
903.091	4192
903.21	4246
903.328	4310
903.446	4272
903.565	4257
903.683	4303
903.801	4291
903.919	4367
904.038	4440
904.156	4310
904.274	4451
904.392	4379
904.51	4413
904.627	4432
904.745	4565
904.863	4622
904.981	4428
905.098	4261
905.216	4356
905.334	4470
905.451	4489
905.569	4436
905.686	4546
905.803	4531
905.921	4421
906.038	4504
906.155	4504
906.272	4402
906.389	4443
906.506	4348
906.623	4360
906.74	4394
906.857	4363
906.974	4394
907.091	4550
907.208	4694
907.324	4580
907.441	4481
907.557	4333
907.674	4367
907.79	4246
907.907	4447
908.023	4504
908.139	4478
908.256	4455
908.372	4459
908.488	4474
908.604	4344
908.72	4333
908.836	4352
908.952	4363
909.068	4405
909.184	4580
909.3	4462
909.415	4577
909.531	4596
909.647	4344
909.762	4390
909.878	4295
909.993	4386
910.108	4394
910.224	4413
910.339	4466
910.454	4417
910.57	4386
910.685	4253
910.8	4618
910.915	4584
911.03	4485
911.145	4360
911.259	4352
911.374	4394
911.489	4306
911.604	4238
911.718	4173
911.833	4242
911.947	4093
912.062	4025
912.176	4166
912.291	4215
912.405	4253
912.519	4443
912.633	4504
912.748	4367
912.862	4318
912.976	4147
913.09	4116
913.204	4124
913.318	4265
913.431	4337
913.545	4375
913.659	4474
913.772	4379
913.886	4238
914	4223
914.113	4386
914.226	4432
914.34	4383
914.453	4234
914.566	4402
914.68	4348
914.793	4344
914.906	4120
915.019	4131
915.132	4093
915.245	4188
915.358	4177
915.47	4227
915.583	4257
915.696	4310
915.809	4352
915.921	4443
916.034	4287
916.146	4234
916.259	4188
916.371	4379
916.483	4348
916.595	4238
916.708	4329
916.82	4344
916.932	4310
917.044	4363
917.156	4284
917.268	4211
917.38	4253
917.491	4223
917.603	4337
917.715	4459
917.826	4417
917.938	4348
918.049	4211
918.161	4413
918.272	4580
918.384	4573
918.495	4481
918.606	4284
918.717	4272
918.828	4306
918.939	4371
919.05	4242
919.161	4341
919.272	4116
919.383	4223
919.494	4443
919.604	4653
919.715	4379
919.826	4348
919.936	4432
920.047	4508
920.157	4489
920.267	4660
920.378	4546
920.488	4497
920.598	4763
920.708	4858
920.818	4759
920.928	4721
921.038	4946
921.148	4873
921.258	4653
921.368	4580
921.477	4478
921.587	4466
921.697	4394
921.806	4538
921.916	4421
922.025	4265
922.134	4284
922.244	4211
922.353	4291
922.462	4185
922.571	4071
922.68	4029
922.789	3998
922.898	3979
923.007	3949
923.116	4101
923.224	4029
923.333	4086
923.442	3983
923.55	3964
923.659	4029
923.767	4074
923.876	3994
923.984	4097
924.092	4006
924.201	4044
924.309	4097
924.417	4090
924.525	4124
924.633	4082
924.741	5022
924.849	3918
924.956	4093
925.064	3953
925.172	3888
925.279	3907
925.387	4044
925.494	4082
925.602	4211
925.709	4158
925.816	4097
925.924	4150
926.031	4242
926.138	4200
926.245	4173
926.352	4090
926.459	4284
926.566	4325
926.673	4139
926.779	4082
926.886	4048
926.993	3994
927.099	3968
927.206	3915
927.312	3930
927.419	4029
927.525	4021
927.631	4109
927.737	3968
927.843	3911
927.95	3846
928.056	3975
928.162	3994
928.267	3994
928.373	4569
928.479	4097
928.585	3869
928.69	4025
928.796	4032
928.901	3915
929.007	3880
929.112	3972
929.218	3975
929.323	3972
929.428	3945
929.533	4082
929.638	3922
929.743	3987
929.848	4059
929.953	4029
930.058	3975
930.163	3812
930.267	3816
930.372	4040
930.477	3808
930.581	4124
930.685	3937
930.79	3804
930.894	3892
930.998	3865
931.103	4013
931.207	3720
931.311	3732
931.415	3641
931.519	3542
931.623	3576
