Data from test_V78500241_2430.txt Node
Date: Fri Mar 25 17:05:53 CST 2022
User: usil
Spectrometer: V785-0024
Trigger mode: 0
Integration Time (sec): 4.000000E-1
Scans to average: 1
Nonlinearity correction enabled: false
Boxcar width: 0
Storing dark spectrum: false
XAxis mode: Wavelengths
Number of Pixels in Spectrum: 1024
>>>>>Begin Spectral Data<<<<<
801.071	8001
801.214	7989
801.356	7837
801.499	7833
801.641	7852
801.783	7765
801.926	7909
802.068	7959
802.211	7959
802.353	8001
802.496	7902
802.638	7875
802.78	7856
802.923	7913
803.065	7856
803.208	7875
803.35	7928
803.492	8096
803.635	8149
803.777	8092
803.919	8180
804.061	8431
804.204	8183
804.346	8054
804.488	8020
804.63	8084
804.773	8050
804.915	8130
805.057	8301
805.199	8206
805.341	8259
805.483	8347
805.626	8286
805.768	8123
805.91	8263
806.052	8199
806.194	8096
806.336	8301
806.478	8103
806.62	8020
806.762	8134
806.904	8233
807.046	8434
807.188	8305
807.33	8237
807.472	8343
807.614	8161
807.756	8111
807.898	8031
808.04	7879
808.182	7868
808.324	7841
808.465	7887
808.607	7982
808.749	8103
808.891	8172
809.033	8317
809.174	8233
809.316	8107
809.458	8119
809.6	7974
809.741	8001
809.883	8058
810.025	8088
810.166	8024
810.308	8020
810.45	8035
810.591	7841
810.733	7788
810.875	7632
811.016	7548
811.158	7491
811.299	7613
811.441	7738
811.582	7700
811.724	7620
811.865	7586
812.007	7624
812.148	7594
812.29	7590
812.431	7795
812.573	7909
812.714	7982
812.855	8164
812.997	8286
813.138	8259
813.279	8126
813.421	8115
813.562	7963
813.703	7841
813.845	7712
813.986	7533
814.127	7251
814.268	7187
814.41	7145
814.551	7126
814.692	7213
814.833	7088
814.974	7095
815.115	7099
815.256	7042
815.397	6871
815.539	6932
815.68	6787
815.821	6806
815.962	6821
816.103	6806
816.244	6654
816.385	6601
816.526	6623
816.666	6521
816.807	6323
816.948	6410
817.089	6441
817.23	6448
817.371	6426
817.512	6380
817.653	6361
817.793	6319
817.934	6372
818.075	6445
818.216	6418
818.356	6422
818.497	6273
818.638	6148
818.778	6182
818.919	6129
819.06	6159
819.2	6353
819.341	6323
819.481	6407
819.622	6509
819.762	6741
819.903	6715
820.043	6604
820.184	6604
820.324	6532
820.465	6665
820.605	6711
820.746	6692
820.886	6540
821.026	6650
821.167	6726
821.307	6875
821.447	6779
821.588	6662
821.728	6563
821.868	6574
822.008	6357
822.149	6429
822.289	6334
822.429	6209
822.569	6076
822.709	6102
822.849	5961
822.99	5897
823.13	5958
823.27	5973
823.41	5802
823.55	5794
823.69	5859
823.83	5828
823.97	5733
824.11	5490
824.25	5554
824.389	5630
824.529	5551
824.669	5532
824.809	5722
824.949	5733
825.089	5627
825.228	5600
825.368	5429
825.508	5387
825.648	5353
825.787	5478
825.927	5433
826.067	5360
826.206	5337
826.346	5383
826.485	5444
826.625	5414
826.765	5554
826.904	5471
827.044	5299
827.183	5288
827.323	5128
827.462	5277
827.601	5220
827.741	5178
827.88	5212
828.02	5185
828.159	5261
828.298	5349
828.437	5372
828.577	5360
828.716	5539
828.855	5337
828.994	5201
829.134	5181
829.273	5242
829.412	5143
829.551	5147
829.69	5193
829.829	5299
829.968	5383
830.107	5322
830.246	5330
830.385	5162
830.524	5136
830.663	5079
830.802	5014
830.941	4919
831.08	4934
831.219	5003
831.357	5029
831.496	5212
831.635	4942
831.774	4968
831.913	4892
832.051	4786
832.19	4790
832.329	4881
832.467	4729
832.606	4683
832.744	4816
832.883	4752
833.022	4774
833.16	4843
833.299	4866
833.437	4870
833.576	4858
833.714	4889
833.852	4892
833.991	4927
834.129	4949
834.267	5006
834.406	4923
834.544	5029
834.682	4995
834.821	4995
834.959	5284
835.097	5037
835.235	5201
835.373	5113
835.511	5174
835.65	5075
835.788	5006
835.926	4930
836.064	4908
836.202	4949
836.34	5223
836.478	5250
836.615	5204
836.753	5254
836.891	5337
837.029	5284
837.167	5277
837.305	5181
837.443	5204
837.58	5064
837.718	5265
837.856	5261
837.993	5170
838.131	5258
838.269	5261
838.406	5216
838.544	5242
838.681	5083
838.819	5022
838.956	4934
839.094	4965
839.231	5048
839.369	5113
839.506	5528
839.643	5334
839.781	5147
839.918	5052
840.055	5143
840.193	5121
840.33	5140
840.467	5162
840.604	5220
840.742	5471
840.879	5166
841.016	5136
841.153	5181
841.29	5406
841.427	5334
841.564	5326
841.701	5410
841.838	5288
841.975	5307
842.112	5360
842.249	5162
842.385	5155
842.522	5337
842.659	5231
842.796	5239
842.933	5223
843.069	5193
843.206	5166
843.343	5296
843.479	5242
843.616	5277
843.752	5041
843.889	5045
844.025	5280
844.162	5029
844.298	5242
844.435	5155
844.571	5102
844.708	5254
844.844	5326
844.98	5349
845.117	5307
845.253	5197
845.389	5143
845.525	5181
845.661	5208
845.798	5071
845.934	5109
846.07	5113
846.206	5220
846.342	5341
846.478	5201
846.614	5090
846.75	4995
846.886	5010
847.022	5159
847.158	5075
847.294	5067
847.429	5117
847.565	5105
847.701	5395
847.837	4873
847.972	4797
848.108	5022
848.244	4968
848.379	4850
848.515	4733
848.65	4782
848.786	4755
848.921	4793
849.057	4942
849.192	4889
849.328	4877
849.463	4927
849.598	4820
849.734	4782
849.869	4717
850.004	4675
850.14	4694
850.275	4679
850.41	4546
850.545	4634
850.68	4615
850.815	4653
850.95	4645
851.085	4870
851.22	4763
851.355	4763
851.49	4649
851.625	4694
851.76	4615
851.895	4565
852.03	4531
852.165	4748
852.299	4729
852.434	4820
852.569	4774
852.703	4812
852.838	4900
852.973	5010
853.107	4900
853.242	4774
853.376	4698
853.511	4546
853.645	4679
853.78	4847
853.914	4710
854.048	4687
854.183	4653
854.317	4740
854.451	4892
854.585	4702
854.72	4698
854.854	4797
854.988	4626
855.122	4729
855.256	4538
855.39	4706
855.524	4786
855.658	4694
855.792	4721
855.926	4740
856.06	4771
856.194	4828
856.327	4748
856.461	4615
856.595	4637
856.729	4641
856.862	4786
856.996	4710
857.13	4767
857.263	4763
857.397	4793
857.53	4630
857.664	4733
857.797	4778
857.931	4809
858.064	4714
858.197	4782
858.331	4698
858.464	4641
858.597	4573
858.731	4645
858.864	4622
858.997	4656
859.13	4683
859.263	4702
859.396	4714
859.529	4641
859.662	4618
859.795	4599
859.928	4656
860.061	4771
860.194	4812
860.327	4645
860.46	4615
860.592	4683
860.725	4752
860.858	4774
860.99	4596
861.123	4558
861.256	4558
861.388	4668
861.521	5292
861.653	4478
861.786	4527
861.918	4561
862.05	4584
862.183	4577
862.315	4649
862.447	4694
862.58	4596
862.712	4443
862.844	4299
862.976	4500
863.108	4489
863.24	4839
863.372	4394
863.504	4462
863.636	4443
863.768	4500
863.9	4466
864.032	4432
864.164	4470
864.296	4512
864.428	4569
864.559	4538
864.691	4561
864.823	4542
864.954	4516
865.086	4561
865.217	4508
865.349	4447
865.48	4470
865.612	4527
865.743	4630
865.875	4485
866.006	4474
866.137	4478
866.269	4466
866.4	4443
866.531	4462
866.662	4421
866.793	4493
866.924	4455
867.055	4478
867.186	4493
867.317	4383
867.448	4367
867.579	4440
867.71	4436
867.841	4398
867.972	4443
868.103	4470
868.233	4489
868.364	4481
868.495	4569
868.625	4664
868.756	4767
868.886	4584
869.017	4622
869.147	4809
869.278	4778
869.408	4668
869.539	4683
869.669	4710
869.799	4653
869.929	4771
870.06	4782
870.19	4923
870.32	4938
870.45	4991
870.58	5010
870.71	5090
870.84	5102
870.97	4999
871.1	4919
871.23	5143
871.36	5121
871.489	5086
871.619	5124
871.749	5136
871.879	5151
872.008	5170
872.138	5064
872.267	5014
872.397	4900
872.526	4870
872.656	4759
872.785	4828
872.915	4972
873.044	5056
873.173	4972
873.303	5003
873.432	4999
873.561	4957
873.69	4862
873.819	4881
873.948	4930
874.077	4877
874.206	4767
874.335	4873
874.464	4942
874.593	5071
874.722	4991
874.851	5124
874.979	5102
875.108	5048
875.237	4934
875.365	4949
875.494	4862
875.623	4965
875.751	4858
875.88	4923
876.008	4976
876.136	5071
876.265	5223
876.393	5326
876.521	5299
876.65	5280
876.778	5185
876.906	5067
877.034	5048
877.162	5056
877.29	4995
877.418	5128
877.546	5105
877.674	5056
877.802	5083
877.93	5060
878.058	5003
878.185	4862
878.313	4946
878.441	4942
878.568	4828
878.696	4911
878.824	4980
878.951	5018
879.079	5155
879.206	5337
879.333	5117
879.461	4984
879.588	5048
879.715	5124
879.842	5239
879.97	5033
880.097	4828
880.224	4782
880.351	4843
880.478	4820
880.605	4828
880.732	4843
880.859	5166
880.986	4900
881.112	4946
881.239	4812
881.366	4683
881.493	4622
881.619	4554
881.746	4683
881.872	4660
881.999	4618
882.125	4710
882.252	4824
882.378	4877
882.505	4968
882.631	4824
882.757	4744
882.883	4767
883.01	4759
883.136	4683
883.262	4641
883.388	4634
883.514	4847
883.64	4847
883.766	4801
883.892	4698
884.018	4748
884.143	4972
884.269	5029
884.395	4729
884.52	4656
884.646	4630
884.772	4607
884.897	4531
885.023	4664
885.148	4740
885.274	4873
885.399	4820
885.524	4729
885.65	4714
885.775	4740
885.9	4694
886.025	4847
886.15	4805
886.275	4710
886.4	4710
886.525	4778
886.65	4683
886.775	4694
886.9	4881
887.025	5056
887.149	4854
887.274	4679
887.399	4603
887.523	4611
887.648	4554
887.773	4599
887.897	4801
888.021	4790
888.146	4664
888.27	4877
888.395	4968
888.519	4801
888.643	4824
888.767	4831
888.891	4660
889.015	4607
889.139	4626
889.263	4592
889.387	4729
889.511	4908
889.635	4797
889.759	4672
889.883	4683
890.006	4759
890.13	4847
890.254	4656
890.377	4679
890.501	4588
890.624	4546
890.748	4649
890.871	4523
890.995	4443
891.118	4398
891.241	4512
891.364	4531
891.488	4634
891.611	4516
891.734	4569
891.857	4607
891.98	4542
892.103	4683
892.226	4561
892.349	4573
892.471	4402
892.594	4584
892.717	4615
892.839	4577
892.962	4573
893.085	4634
893.207	4637
893.33	4481
893.452	4546
893.575	4687
893.697	4558
893.819	4862
893.941	4850
894.064	4774
894.186	4603
894.308	4626
894.43	4759
894.552	4812
894.674	4748
894.796	4523
894.918	4573
895.04	4569
895.161	4683
895.283	4698
895.405	4599
895.526	4668
895.648	4672
895.769	4714
895.891	4679
896.012	4725
896.134	4744
896.255	4687
896.376	4573
896.498	4584
896.619	4679
896.74	4630
896.861	4611
896.982	4953
897.103	5075
897.224	4801
897.345	4778
897.466	4634
897.587	4710
897.708	4877
897.828	4797
897.949	4656
898.07	4569
898.19	4710
898.311	4862
898.431	4679
898.552	4748
898.672	4820
898.792	4862
898.913	4786
899.033	4630
899.153	4527
899.273	4455
899.393	4519
899.513	4535
899.633	4561
899.753	4565
899.873	4500
899.993	4599
900.113	4531
900.232	4596
900.352	4504
900.472	4523
900.591	4421
900.711	4527
900.83	4443
900.95	4622
901.069	4683
901.189	4561
901.308	4424
901.427	4318
901.546	4398
901.665	4504
901.784	4512
901.904	4367
902.023	4325
902.141	4169
902.26	4143
902.379	4306
902.498	4234
902.617	4246
902.735	4386
902.854	4421
902.973	4337
903.091	4227
903.21	4230
903.328	4284
903.446	4333
903.565	4227
903.683	4367
903.801	4303
903.919	4447
904.038	4390
904.156	4344
904.274	4421
904.392	4386
904.51	4398
904.627	4542
904.745	4611
904.863	4634
904.981	4447
905.098	4318
905.216	4344
905.334	4440
905.451	4417
905.569	4436
905.686	4546
905.803	4561
905.921	4409
906.038	4561
906.155	4481
906.272	4383
906.389	4478
906.506	4341
906.623	4348
906.74	4375
906.857	4314
906.974	4383
907.091	4603
907.208	4645
907.324	4569
907.441	4489
907.557	4344
907.674	4337
907.79	4318
907.907	4443
908.023	4497
908.139	4462
908.256	4459
908.372	4474
908.488	4451
908.604	4329
908.72	4348
908.836	4344
908.952	4405
909.068	4447
909.184	4588
909.3	4527
909.415	4550
909.531	4561
909.647	4348
909.762	4405
909.878	4341
909.993	4413
910.108	4443
910.224	4371
910.339	4508
910.454	4405
910.57	4394
910.685	4314
910.8	4710
910.915	4565
911.03	4451
911.145	4310
911.259	4314
911.374	4352
911.489	4318
911.604	4299
911.718	4207
911.833	4215
911.947	4139
912.062	4074
912.176	4211
912.291	4249
912.405	4207
912.519	4474
912.633	4504
912.748	4386
912.862	4318
912.976	4169
913.09	4112
913.204	4147
913.318	4257
913.431	4417
913.545	4363
913.659	4474
913.772	4371
913.886	4219
914	4188
914.113	4409
914.226	4421
914.34	4409
914.453	4215
914.566	4428
914.68	4322
914.793	4310
914.906	4143
915.019	4120
915.132	4101
915.245	4143
915.358	4215
915.47	4211
915.583	4272
915.696	4337
915.809	4405
915.921	4424
916.034	4325
916.146	4234
916.259	4249
916.371	4421
916.483	4367
916.595	4268
916.708	4341
916.82	4318
916.932	4310
917.044	4295
917.156	4337
917.268	4207
917.38	4325
917.491	4303
917.603	4325
917.715	4428
917.826	4516
917.938	4329
918.049	4192
918.161	4390
918.272	4550
918.384	4569
918.495	4470
918.606	4314
918.717	4227
918.828	4360
918.939	4356
919.05	4299
919.161	4322
919.272	4131
919.383	4242
919.494	4428
919.604	4634
919.715	4424
919.826	4348
919.936	4398
920.047	4489
920.157	4466
920.267	4744
920.378	4485
920.488	4531
920.598	4729
920.708	4858
920.818	4767
920.928	4767
921.038	4938
921.148	4930
921.258	4592
921.368	4580
921.477	4489
921.587	4447
921.697	4375
921.806	4527
921.916	4413
922.025	4261
922.134	4249
922.244	4253
922.353	4310
922.462	4219
922.571	4139
922.68	3972
922.789	3998
922.898	4048
923.007	4048
923.116	4071
923.224	4090
923.333	4071
923.442	3945
923.55	3964
923.659	3998
923.767	4116
923.876	3968
923.984	4090
924.092	4021
924.201	4071
924.309	4097
924.417	4131
924.525	4059
924.633	4105
924.741	5052
924.849	3926
924.956	4158
925.064	3949
925.172	3896
925.279	3975
925.387	4036
925.494	4074
925.602	4207
925.709	4173
925.816	4051
925.924	4120
926.031	4261
926.138	4166
926.245	4192
926.352	4074
926.459	4227
926.566	4337
926.673	4116
926.779	4097
926.886	4040
926.993	3960
927.099	3964
927.206	3930
927.312	3975
927.419	4063
927.525	4010
927.631	4059
927.737	3987
927.843	3945
927.95	3861
928.056	3991
928.162	3994
928.267	4059
928.373	4702
928.479	4097
928.585	3873
928.69	3987
928.796	4055
928.901	4010
929.007	3865
929.112	3998
929.218	3987
929.323	3930
929.428	3953
929.533	4067
929.638	3918
929.743	3975
929.848	4017
929.953	4021
930.058	3972
930.163	3785
930.267	3778
930.372	3972
930.477	3857
930.581	4063
930.685	3968
930.79	3819
930.894	3915
930.998	3869
931.103	3934
931.207	3709
931.311	3724
931.415	3663
931.519	3519
931.623	3568
