Data from test_V78500241_2553.txt Node
Date: Fri Mar 25 17:06:45 CST 2022
User: usil
Spectrometer: V785-0024
Trigger mode: 0
Integration Time (sec): 4.000000E-1
Scans to average: 1
Nonlinearity correction enabled: false
Boxcar width: 0
Storing dark spectrum: false
XAxis mode: Wavelengths
Number of Pixels in Spectrum: 1024
>>>>>Begin Spectral Data<<<<<
801.071	8035
801.214	7986
801.356	7913
801.499	7864
801.641	7734
801.783	7830
801.926	7928
802.068	7906
802.211	8008
802.353	7955
802.496	7890
802.638	7860
802.78	7898
802.923	7898
803.065	7890
803.208	7845
803.35	7959
803.492	8046
803.635	8218
803.777	8100
803.919	8115
804.061	8438
804.204	8142
804.346	8107
804.488	7963
804.63	8054
804.773	8054
804.915	8123
805.057	8298
805.199	8176
805.341	8161
805.483	8240
805.626	8176
805.768	8172
805.91	8218
806.052	8221
806.194	8119
806.336	8328
806.478	8084
806.62	8024
806.762	8180
806.904	8214
807.046	8522
807.188	8317
807.33	8218
807.472	8339
807.614	8123
807.756	8115
807.898	8054
808.04	7928
808.182	7894
808.324	7837
808.465	7868
808.607	8092
808.749	8123
808.891	8191
809.033	8286
809.174	8248
809.316	8084
809.458	8107
809.6	8035
809.741	8016
809.883	8024
810.025	8058
810.166	8096
810.308	7989
810.45	7982
810.591	7921
810.733	7833
810.875	7639
811.016	7514
811.158	7468
811.299	7567
811.441	7769
811.582	7628
811.724	7620
811.865	7540
812.007	7639
812.148	7556
812.29	7582
812.431	7803
812.573	7940
812.714	7955
812.855	8164
812.997	8252
813.138	8313
813.279	8157
813.421	8088
813.562	7940
813.703	7856
813.845	7826
813.986	7499
814.127	7308
814.268	7247
814.41	7255
814.551	7168
814.692	7171
814.833	7118
814.974	7076
815.115	7137
815.256	6966
815.397	6977
815.539	6970
815.68	6749
815.821	6783
815.962	6901
816.103	6856
816.244	6715
816.385	6719
816.526	6604
816.666	6513
816.807	6270
816.948	6422
817.089	6486
817.23	6460
817.371	6433
817.512	6395
817.653	6429
817.793	6376
817.934	6494
818.075	6471
818.216	6414
818.356	6448
818.497	6304
818.638	6159
818.778	6175
818.919	6171
819.06	6190
819.2	6308
819.341	6315
819.481	6361
819.622	6566
819.762	6738
819.903	6654
820.043	6616
820.184	6551
820.324	6585
820.465	6677
820.605	6669
820.746	6688
820.886	6517
821.026	6696
821.167	6749
821.307	6806
821.447	6825
821.588	6688
821.728	6593
821.868	6490
822.008	6270
822.149	6380
822.289	6410
822.429	6190
822.569	6102
822.709	6171
822.849	5969
822.99	5923
823.13	5946
823.27	5920
823.41	5767
823.55	5798
823.69	5802
823.83	5790
823.97	5646
824.11	5547
824.25	5547
824.389	5501
824.529	5581
824.669	5478
824.809	5642
824.949	5672
825.089	5684
825.228	5604
825.368	5360
825.508	5368
825.648	5311
825.787	5376
825.927	5395
826.067	5299
826.206	5307
826.346	5406
826.485	5357
826.625	5398
826.765	5516
826.904	5512
827.044	5246
827.183	5246
827.323	5098
827.462	5239
827.601	5151
827.741	5185
827.88	5201
828.02	5117
828.159	5204
828.298	5360
828.437	5280
828.577	5280
828.716	5478
828.855	5337
828.994	5181
829.134	5208
829.273	5197
829.412	5124
829.551	5117
829.69	5170
829.829	5292
829.968	5372
830.107	5246
830.246	5269
830.385	5166
830.524	5159
830.663	5029
830.802	4923
830.941	4908
831.08	4885
831.219	4984
831.357	4965
831.496	5056
831.635	4991
831.774	4889
831.913	4904
832.051	4679
832.19	4797
832.329	4820
832.467	4649
832.606	4687
832.744	4736
832.883	4725
833.022	4721
833.16	4793
833.299	4839
833.437	4850
833.576	4858
833.714	4835
833.852	4828
833.991	4881
834.129	4927
834.267	4938
834.406	4900
834.544	4949
834.682	4976
834.821	4972
834.959	5124
835.097	4968
835.235	5155
835.373	5086
835.511	5067
835.65	5010
835.788	5037
835.926	4900
836.064	4892
836.202	4881
836.34	5185
836.478	5189
836.615	5239
836.753	5189
836.891	5254
837.029	5250
837.167	5220
837.305	5193
837.443	5151
837.58	5071
837.718	5216
837.856	5155
837.993	5166
838.131	5235
838.269	5189
838.406	5162
838.544	5178
838.681	5022
838.819	5045
838.956	4896
839.094	4915
839.231	4980
839.369	5029
839.506	5417
839.643	5261
839.781	5064
839.918	4991
840.055	5048
840.193	5079
840.33	5124
840.467	5113
840.604	5197
840.742	5474
840.879	5052
841.016	5033
841.153	5159
841.29	5372
841.427	5345
841.564	5315
841.701	5296
841.838	5292
841.975	5231
842.112	5315
842.249	5102
842.385	5079
842.522	5357
842.659	5212
842.796	5136
842.933	5220
843.069	5155
843.206	5136
843.343	5318
843.479	5242
843.616	5288
843.752	5056
843.889	4961
844.025	5258
844.162	4987
844.298	5220
844.435	5067
844.571	5022
844.708	5220
844.844	5261
844.98	5360
845.117	5246
845.253	5162
845.389	5105
845.525	5140
845.661	5155
845.798	5067
845.934	5124
846.07	5083
846.206	5181
846.342	5227
846.478	5185
846.614	5041
846.75	4953
846.886	4915
847.022	5117
847.158	5056
847.294	5045
847.429	5090
847.565	5010
847.701	5391
847.837	4828
847.972	4820
848.108	4961
848.244	4942
848.379	4736
848.515	4717
848.65	4691
848.786	4736
848.921	4805
849.057	4850
849.192	4862
849.328	4843
849.463	4839
849.598	4805
849.734	4774
849.869	4691
850.004	4622
850.14	4691
850.275	4603
850.41	4516
850.545	4527
850.68	4569
850.815	4569
850.95	4607
851.085	4858
851.22	4755
851.355	4672
851.49	4675
851.625	4615
851.76	4618
851.895	4527
852.03	4508
852.165	4599
852.299	4733
852.434	4774
852.569	4755
852.703	4748
852.838	4824
852.973	4919
853.107	4904
853.242	4755
853.376	4645
853.511	4573
853.645	4611
853.78	4816
853.914	4668
854.048	4637
854.183	4607
854.317	4645
854.451	4805
854.585	4618
854.72	4611
854.854	4714
854.988	4611
855.122	4599
855.256	4500
855.39	4649
855.524	4774
855.658	4710
855.792	4710
855.926	4683
856.06	4740
856.194	4786
856.327	4660
856.461	4645
856.595	4580
856.729	4656
856.862	4725
856.996	4675
857.13	4752
857.263	4733
857.397	4797
857.53	4634
857.664	4721
857.797	4729
857.931	4748
858.064	4645
858.197	4729
858.331	4668
858.464	4634
858.597	4546
858.731	4622
858.864	4645
858.997	4569
859.13	4672
859.263	4702
859.396	4698
859.529	4573
859.662	4565
859.795	4523
859.928	4660
860.061	4774
860.194	4755
860.327	4611
860.46	4546
860.592	4656
860.725	4706
860.858	4717
860.99	4596
861.123	4535
861.256	4538
861.388	4634
861.521	5189
861.653	4493
861.786	4474
861.918	4485
862.05	4478
862.183	4596
862.315	4622
862.447	4618
862.58	4573
862.712	4428
862.844	4329
862.976	4462
863.108	4428
863.24	4797
863.372	4348
863.504	4375
863.636	4413
863.768	4485
863.9	4375
864.032	4352
864.164	4413
864.296	4493
864.428	4550
864.559	4481
864.691	4489
864.823	4512
864.954	4519
865.086	4459
865.217	4428
865.349	4443
865.48	4451
865.612	4500
865.743	4634
865.875	4470
866.006	4440
866.137	4489
866.269	4466
866.4	4424
866.531	4455
866.662	4421
866.793	4409
866.924	4432
867.055	4481
867.186	4440
867.317	4436
867.448	4344
867.579	4424
867.71	4390
867.841	4356
867.972	4443
868.103	4466
868.233	4478
868.364	4451
868.495	4466
868.625	4653
868.756	4782
868.886	4527
869.017	4615
869.147	4771
869.278	4748
869.408	4698
869.539	4577
869.669	4698
869.799	4656
869.929	4755
870.06	4748
870.19	4965
870.32	4877
870.45	4938
870.58	4949
870.71	5155
870.84	5124
870.97	4980
871.1	4873
871.23	5151
871.36	5075
871.489	5022
871.619	5086
871.749	5117
871.879	5132
872.008	5178
872.138	5033
872.267	4961
872.397	4805
872.526	4797
872.656	4748
872.785	4790
872.915	4942
873.044	5025
873.173	4919
873.303	4949
873.432	4968
873.561	4942
873.69	4892
873.819	4870
873.948	4919
874.077	4809
874.206	4771
874.335	4858
874.464	4904
874.593	5033
874.722	4949
874.851	5121
874.979	5083
875.108	5052
875.237	4900
875.365	4870
875.494	4866
875.623	5010
875.751	4839
875.88	4873
876.008	4946
876.136	5090
876.265	5204
876.393	5311
876.521	5284
876.65	5208
876.778	5151
876.906	5121
877.034	4999
877.162	4999
877.29	5022
877.418	5064
877.546	5056
877.674	4995
877.802	5018
877.93	5018
878.058	4900
878.185	4862
878.313	4946
878.441	4953
878.568	4782
878.696	4847
878.824	4934
878.951	5010
879.079	5136
879.206	5330
879.333	5071
879.461	4949
879.588	4999
879.715	5090
879.842	5185
879.97	4957
880.097	4824
880.224	4763
880.351	4801
880.478	4778
880.605	4767
880.732	4755
880.859	5090
880.986	4870
881.112	4927
881.239	4820
881.366	4675
881.493	4565
881.619	4603
881.746	4622
881.872	4637
881.999	4672
882.125	4645
882.252	4740
882.378	4793
882.505	4927
882.631	4774
882.757	4702
882.883	4664
883.01	4733
883.136	4611
883.262	4542
883.388	4599
883.514	4786
883.64	4850
883.766	4744
883.892	4618
884.018	4710
884.143	4877
884.269	5018
884.395	4664
884.52	4634
884.646	4630
884.772	4561
884.897	4531
885.023	4649
885.148	4767
885.274	4782
885.399	4759
885.524	4725
885.65	4691
885.775	4759
885.9	4714
886.025	4828
886.15	4755
886.275	4736
886.4	4672
886.525	4717
886.65	4702
886.775	4660
886.9	4930
887.025	5041
887.149	4797
887.274	4668
887.399	4630
887.523	4596
887.648	4538
887.773	4546
887.897	4740
888.021	4763
888.146	4694
888.27	4835
888.395	4930
888.519	4809
888.643	4824
888.767	4793
888.891	4698
889.015	4615
889.139	4664
889.263	4615
889.387	4714
889.511	4949
889.635	4828
889.759	4634
889.883	4622
890.006	4714
890.13	4858
890.254	4626
890.377	4687
890.501	4531
890.624	4523
890.748	4672
890.871	4554
890.995	4432
891.118	4417
891.241	4516
891.364	4573
891.488	4660
891.611	4561
891.734	4577
891.857	4645
891.98	4622
892.103	4691
892.226	4577
892.349	4603
892.471	4481
892.594	4573
892.717	4611
892.839	4603
892.962	4637
893.085	4637
893.207	4615
893.33	4523
893.452	4569
893.575	4691
893.697	4599
893.819	4843
893.941	4866
894.064	4839
894.186	4649
894.308	4653
894.43	4771
894.552	4850
894.674	4729
894.796	4626
894.918	4679
895.04	4626
895.161	4736
895.283	4694
895.405	4622
895.526	4637
895.648	4675
895.769	4725
895.891	4755
896.012	4805
896.134	4809
896.255	4675
896.376	4649
896.498	4683
896.619	4763
896.74	4668
896.861	4729
896.982	4972
897.103	5060
897.224	4911
897.345	4797
897.466	4683
897.587	4793
897.708	4904
897.828	4816
897.949	4694
898.07	4603
898.19	4653
898.311	4816
898.431	4702
898.552	4790
898.672	4831
898.792	4820
898.913	4782
899.033	4630
899.153	4546
899.273	4432
899.393	4565
899.513	4523
899.633	4519
899.753	4573
899.873	4519
899.993	4618
900.113	4573
900.232	4611
900.352	4546
900.472	4542
900.591	4481
900.711	4516
900.83	4481
900.95	4656
901.069	4717
901.189	4584
901.308	4398
901.427	4352
901.546	4421
901.665	4489
901.784	4527
901.904	4417
902.023	4299
902.141	4196
902.26	4211
902.379	4325
902.498	4265
902.617	4280
902.735	4390
902.854	4436
902.973	4443
903.091	4249
903.21	4276
903.328	4322
903.446	4272
903.565	4284
903.683	4367
903.801	4341
903.919	4390
904.038	4447
904.156	4356
904.274	4474
904.392	4428
904.51	4443
904.627	4500
904.745	4603
904.863	4675
904.981	4375
905.098	4363
905.216	4375
905.334	4432
905.451	4443
905.569	4447
905.686	4615
905.803	4577
905.921	4390
906.038	4569
906.155	4512
906.272	4451
906.389	4497
906.506	4371
906.623	4390
906.74	4428
906.857	4329
906.974	4375
907.091	4599
907.208	4710
907.324	4561
907.441	4519
907.557	4398
907.674	4409
907.79	4386
907.907	4413
908.023	4535
908.139	4512
908.256	4485
908.372	4436
908.488	4493
908.604	4402
908.72	4341
908.836	4417
908.952	4424
909.068	4451
909.184	4603
909.3	4516
909.415	4580
909.531	4592
909.647	4402
909.762	4363
909.878	4398
909.993	4485
910.108	4462
910.224	4489
910.339	4554
910.454	4459
910.57	4383
910.685	4337
910.8	4694
910.915	4599
911.03	4489
911.145	4379
911.259	4352
911.374	4409
911.489	4333
911.604	4325
911.718	4238
911.833	4234
911.947	4112
912.062	4105
912.176	4223
912.291	4242
912.405	4306
912.519	4459
912.633	4554
912.748	4440
912.862	4356
912.976	4257
913.09	4097
913.204	4253
913.318	4265
913.431	4402
913.545	4409
913.659	4462
913.772	4386
913.886	4261
914	4276
914.113	4447
914.226	4500
914.34	4363
914.453	4280
914.566	4436
914.68	4375
914.793	4352
914.906	4162
915.019	4166
915.132	4044
915.245	4227
915.358	4242
915.47	4299
915.583	4268
915.696	4371
915.809	4462
915.921	4421
916.034	4303
916.146	4257
916.259	4280
916.371	4398
916.483	4337
916.595	4299
916.708	4337
916.82	4329
916.932	4299
917.044	4371
917.156	4371
917.268	4268
917.38	4291
917.491	4303
917.603	4390
917.715	4451
917.826	4512
917.938	4356
918.049	4284
918.161	4386
918.272	4561
918.384	4561
918.495	4523
918.606	4333
918.717	4261
918.828	4322
918.939	4436
919.05	4295
919.161	4348
919.272	4162
919.383	4238
919.494	4462
919.604	4656
919.715	4485
919.826	4363
919.936	4421
920.047	4618
920.157	4512
920.267	4736
920.378	4592
920.488	4489
920.598	4710
920.708	4968
920.818	4809
920.928	4816
921.038	4949
921.148	4930
921.258	4679
921.368	4611
921.477	4523
921.587	4500
921.697	4379
921.806	4550
921.916	4478
922.025	4303
922.134	4265
922.244	4257
922.353	4348
922.462	4223
922.571	4093
922.68	4055
922.789	3968
922.898	4051
923.007	4025
923.116	4147
923.224	4078
923.333	4112
923.442	3983
923.55	4013
923.659	4078
923.767	4139
923.876	4029
923.984	4143
924.092	4040
924.201	4093
924.309	4143
924.417	4143
924.525	4059
924.633	4173
924.741	5071
924.849	3926
924.956	4150
925.064	3960
925.172	3972
925.279	4002
925.387	4097
925.494	4093
925.602	4257
925.709	4238
925.816	4021
925.924	4128
926.031	4295
926.138	4219
926.245	4238
926.352	4128
926.459	4291
926.566	4310
926.673	4188
926.779	4124
926.886	4074
926.993	4017
927.099	4002
927.206	3994
927.312	3945
927.419	4036
927.525	4044
927.631	4112
927.737	3983
927.843	3956
927.95	3892
928.056	3960
928.162	4029
928.267	4101
928.373	4618
928.479	4150
928.585	3949
928.69	4036
928.796	4090
928.901	4032
929.007	3873
929.112	4048
929.218	4002
929.323	3915
929.428	3987
929.533	4147
929.638	3918
929.743	3956
929.848	4074
929.953	4063
930.058	3911
930.163	3797
930.267	3873
930.372	3949
930.477	3827
930.581	4147
930.685	3994
930.79	3842
930.894	3915
930.998	3850
931.103	4036
931.207	3724
931.311	3762
931.415	3720
931.519	3595
931.623	3504
