Data from test_V78500241_1395.txt Node
Date: Fri Mar 25 16:58:42 CST 2022
User: usil
Spectrometer: V785-0024
Trigger mode: 0
Integration Time (sec): 4.000000E-1
Scans to average: 1
Nonlinearity correction enabled: false
Boxcar width: 0
Storing dark spectrum: false
XAxis mode: Wavelengths
Number of Pixels in Spectrum: 1024
>>>>>Begin Spectral Data<<<<<
801.071	8008
801.214	7986
801.356	7894
801.499	7868
801.641	7772
801.783	7784
801.926	7940
802.068	7940
802.211	7963
802.353	7932
802.496	7894
802.638	7856
802.78	7871
802.923	7947
803.065	7868
803.208	7822
803.35	7997
803.492	7993
803.635	8115
803.777	8039
803.919	8138
804.061	8377
804.204	8195
804.346	8054
804.488	7936
804.63	8020
804.773	7986
804.915	8145
805.057	8218
805.199	8149
805.341	8195
805.483	8214
805.626	8233
805.768	8157
805.91	8168
806.052	8142
806.194	8157
806.336	8286
806.478	8096
806.62	8058
806.762	8138
806.904	8332
807.046	8457
807.188	8400
807.33	8279
807.472	8298
807.614	8191
807.756	8149
807.898	7997
808.04	7913
808.182	7951
808.324	7890
808.465	7883
808.607	8126
808.749	8138
808.891	8191
809.033	8290
809.174	8233
809.316	8069
809.458	8027
809.6	8016
809.741	8016
809.883	8054
810.025	8024
810.166	8046
810.308	8043
810.45	8031
810.591	7814
810.733	7757
810.875	7639
811.016	7487
811.158	7506
811.299	7651
811.441	7689
811.582	7670
811.724	7537
811.865	7487
812.007	7632
812.148	7632
812.29	7582
812.431	7753
812.573	7894
812.714	7989
812.855	8111
812.997	8172
813.138	8233
813.279	8153
813.421	8111
813.562	8050
813.703	7845
813.845	7795
813.986	7411
814.127	7259
814.268	7301
814.41	7206
814.551	7179
814.692	7171
814.833	6981
814.974	7118
815.115	7099
815.256	6970
815.397	6951
815.539	6947
815.68	6810
815.821	6741
815.962	6905
816.103	6806
816.244	6658
816.385	6623
816.526	6547
816.666	6441
816.807	6289
816.948	6422
817.089	6460
817.23	6418
817.371	6380
817.512	6407
817.653	6361
817.793	6403
817.934	6407
818.075	6391
818.216	6403
818.356	6429
818.497	6247
818.638	6076
818.778	6140
818.919	6144
819.06	6159
819.2	6346
819.341	6319
819.481	6388
819.622	6483
819.762	6738
819.903	6688
820.043	6585
820.184	6566
820.324	6570
820.465	6662
820.605	6700
820.746	6635
820.886	6521
821.026	6631
821.167	6745
821.307	6814
821.447	6791
821.588	6677
821.728	6551
821.868	6502
822.008	6304
822.149	6372
822.289	6361
822.429	6091
822.569	6068
822.709	6087
822.849	5920
822.99	5870
823.13	5847
823.27	5874
823.41	5805
823.55	5722
823.69	5745
823.83	5779
823.97	5634
824.11	5547
824.25	5486
824.389	5528
824.529	5543
824.669	5570
824.809	5600
824.949	5646
825.089	5585
825.228	5524
825.368	5376
825.508	5326
825.648	5337
825.787	5345
825.927	5387
826.067	5311
826.206	5284
826.346	5383
826.485	5398
826.625	5383
826.765	5551
826.904	5414
827.044	5269
827.183	5151
827.323	5117
827.462	5254
827.601	5128
827.741	5223
827.88	5223
828.02	5136
828.159	5174
828.298	5322
828.437	5368
828.577	5280
828.716	5463
828.855	5292
828.994	5189
829.134	5155
829.273	5128
829.412	5117
829.551	5090
829.69	5136
829.829	5239
829.968	5364
830.107	5227
830.246	5277
830.385	5212
830.524	5181
830.663	5067
830.802	4995
830.941	4885
831.08	4881
831.219	4984
831.357	4968
831.496	5143
831.635	4911
831.774	4790
831.913	4801
832.051	4759
832.19	4740
832.329	4850
832.467	4725
832.606	4584
832.744	4740
832.883	4717
833.022	4721
833.16	4786
833.299	4759
833.437	4805
833.576	4797
833.714	4850
833.852	4843
833.991	4866
834.129	4889
834.267	4976
834.406	4889
834.544	4984
834.682	4976
834.821	4923
834.959	5124
835.097	4965
835.235	5147
835.373	5041
835.511	5060
835.65	5025
835.788	5064
835.926	4850
836.064	4885
836.202	4896
836.34	5121
836.478	5246
836.615	5117
836.753	5216
836.891	5269
837.029	5250
837.167	5147
837.305	5185
837.443	5151
837.58	5052
837.718	5220
837.856	5181
837.993	5143
838.131	5197
838.269	5246
838.406	5166
838.544	5178
838.681	5041
838.819	5045
838.956	4866
839.094	4892
839.231	4946
839.369	5041
839.506	5410
839.643	5273
839.781	5102
839.918	5041
840.055	5098
840.193	5060
840.33	5136
840.467	5079
840.604	5136
840.742	5372
840.879	5071
841.016	5090
841.153	5143
841.29	5330
841.427	5372
841.564	5334
841.701	5357
841.838	5250
841.975	5239
842.112	5292
842.249	5151
842.385	5052
842.522	5261
842.659	5113
842.796	5155
842.933	5185
843.069	5128
843.206	5155
843.343	5269
843.479	5166
843.616	5261
843.752	5045
843.889	5010
844.025	5208
844.162	5025
844.298	5212
844.435	5079
844.571	5029
844.708	5140
844.844	5269
844.98	5311
845.117	5292
845.253	5159
845.389	5033
845.525	5143
845.661	5094
845.798	5037
845.934	5113
846.07	4999
846.206	5151
846.342	5261
846.478	5151
846.614	4976
846.75	4965
846.886	4923
847.022	5105
847.158	5018
847.294	5037
847.429	5102
847.565	4995
847.701	5307
847.837	4805
847.972	4790
848.108	4946
848.244	4930
848.379	4801
848.515	4694
848.65	4706
848.786	4748
848.921	4828
849.057	4854
849.192	4870
849.328	4790
849.463	4847
849.598	4805
849.734	4729
849.869	4691
850.004	4611
850.14	4683
850.275	4588
850.41	4497
850.545	4569
850.68	4596
850.815	4599
850.95	4622
851.085	4797
851.22	4767
851.355	4637
851.49	4611
851.625	4637
851.76	4645
851.895	4546
852.03	4497
852.165	4615
852.299	4702
852.434	4763
852.569	4660
852.703	4748
852.838	4858
852.973	4911
853.107	4896
853.242	4729
853.376	4672
853.511	4500
853.645	4538
853.78	4763
853.914	4683
854.048	4706
854.183	4596
854.317	4729
854.451	4843
854.585	4641
854.72	4622
854.854	4729
854.988	4584
855.122	4641
855.256	4558
855.39	4679
855.524	4801
855.658	4706
855.792	4706
855.926	4694
856.06	4729
856.194	4805
856.327	4702
856.461	4622
856.595	4611
856.729	4626
856.862	4710
856.996	4721
857.13	4706
857.263	4771
857.397	4835
857.53	4626
857.664	4634
857.797	4721
857.931	4816
858.064	4660
858.197	4702
858.331	4634
858.464	4592
858.597	4516
858.731	4645
858.864	4626
858.997	4599
859.13	4653
859.263	4649
859.396	4687
859.529	4611
859.662	4569
859.795	4569
859.928	4641
860.061	4778
860.194	4748
860.327	4599
860.46	4573
860.592	4672
860.725	4744
860.858	4675
860.99	4573
861.123	4493
861.256	4466
861.388	4588
861.521	5368
861.653	4497
861.786	4375
861.918	4447
862.05	4527
862.183	4565
862.315	4615
862.447	4668
862.58	4493
862.712	4390
862.844	4348
862.976	4466
863.108	4470
863.24	4839
863.372	4337
863.504	4379
863.636	4428
863.768	4451
863.9	4443
864.032	4356
864.164	4413
864.296	4481
864.428	4531
864.559	4577
864.691	4474
864.823	4542
864.954	4497
865.086	4485
865.217	4462
865.349	4417
865.48	4436
865.612	4478
865.743	4607
865.875	4436
866.006	4447
866.137	4478
866.269	4421
866.4	4421
866.531	4394
866.662	4371
866.793	4409
866.924	4371
867.055	4497
867.186	4428
867.317	4413
867.448	4341
867.579	4367
867.71	4344
867.841	4386
867.972	4428
868.103	4432
868.233	4421
868.364	4417
868.495	4443
868.625	4664
868.756	4733
868.886	4588
869.017	4649
869.147	4816
869.278	4744
869.408	4615
869.539	4630
869.669	4744
869.799	4611
869.929	4733
870.06	4702
870.19	4961
870.32	4942
870.45	4919
870.58	4987
870.71	5079
870.84	5102
870.97	4934
871.1	4854
871.23	5147
871.36	5098
871.489	5045
871.619	5041
871.749	5045
871.879	5109
872.008	5197
872.138	5056
872.267	4949
872.397	4820
872.526	4736
872.656	4691
872.785	4786
872.915	4965
873.044	4995
873.173	4915
873.303	4949
873.432	4961
873.561	4923
873.69	4870
873.819	4889
873.948	4896
874.077	4816
874.206	4778
874.335	4797
874.464	4892
874.593	5010
874.722	4980
874.851	5083
874.979	5045
875.108	5029
875.237	4881
875.365	4866
875.494	4911
875.623	4972
875.751	4831
875.88	4904
876.008	4961
876.136	5006
876.265	5178
876.393	5337
876.521	5220
876.65	5201
876.778	5170
876.906	5071
877.034	5018
877.162	5079
877.29	4961
877.418	5064
877.546	5041
877.674	5029
877.802	4984
877.93	5014
878.058	4900
878.185	4862
878.313	4908
878.441	4889
878.568	4797
878.696	4858
878.824	4938
878.951	4991
879.079	5140
879.206	5353
879.333	5094
879.461	4961
879.588	5025
879.715	5067
879.842	5201
879.97	5018
880.097	4805
880.224	4774
880.351	4790
880.478	4801
880.605	4812
880.732	4774
880.859	5037
880.986	4866
881.112	4873
881.239	4748
881.366	4649
881.493	4565
881.619	4634
881.746	4622
881.872	4645
881.999	4618
882.125	4706
882.252	4733
882.378	4809
882.505	4927
882.631	4763
882.757	4691
882.883	4755
883.01	4759
883.136	4683
883.262	4607
883.388	4611
883.514	4831
883.64	4858
883.766	4771
883.892	4656
884.018	4714
884.143	4866
884.269	5071
884.395	4641
884.52	4653
884.646	4645
884.772	4573
884.897	4554
885.023	4588
885.148	4771
885.274	4889
885.399	4812
885.524	4675
885.65	4702
885.775	4759
885.9	4687
886.025	4873
886.15	4763
886.275	4710
886.4	4615
886.525	4729
886.65	4675
886.775	4664
886.9	4961
887.025	5041
887.149	4767
887.274	4630
887.399	4535
887.523	4558
887.648	4546
887.773	4584
887.897	4714
888.021	4809
888.146	4683
888.27	4812
888.395	4870
888.519	4793
888.643	4809
888.767	4801
888.891	4664
889.015	4603
889.139	4592
889.263	4649
889.387	4763
889.511	4858
889.635	4805
889.759	4637
889.883	4611
890.006	4714
890.13	4793
890.254	4634
890.377	4694
890.501	4512
890.624	4546
890.748	4611
890.871	4535
890.995	4451
891.118	4390
891.241	4538
891.364	4527
891.488	4672
891.611	4447
891.734	4531
891.857	4603
891.98	4558
892.103	4668
892.226	4538
892.349	4516
892.471	4432
892.594	4580
892.717	4577
892.839	4512
892.962	4516
893.085	4668
893.207	4550
893.33	4466
893.452	4538
893.575	4683
893.697	4546
893.819	4786
893.941	4797
894.064	4767
894.186	4554
894.308	4535
894.43	4694
894.552	4831
894.674	4702
894.796	4523
894.918	4569
895.04	4565
895.161	4683
895.283	4691
895.405	4584
895.526	4599
895.648	4744
895.769	4694
895.891	4698
896.012	4729
896.134	4698
896.255	4706
896.376	4664
896.498	4607
896.619	4634
896.74	4580
896.861	4660
896.982	4892
897.103	5083
897.224	4854
897.345	4721
897.466	4702
897.587	4721
897.708	4793
897.828	4786
897.949	4645
898.07	4531
898.19	4634
898.311	4797
898.431	4645
898.552	4744
898.672	4801
898.792	4740
898.913	4759
899.033	4641
899.153	4493
899.273	4428
899.393	4459
899.513	4538
899.633	4538
899.753	4554
899.873	4489
899.993	4603
900.113	4512
900.232	4565
900.352	4542
900.472	4531
900.591	4386
900.711	4485
900.83	4440
900.95	4558
901.069	4702
901.189	4618
901.308	4356
901.427	4341
901.546	4379
901.665	4440
901.784	4516
901.904	4402
902.023	4352
902.141	4207
902.26	4177
902.379	4268
902.498	4207
902.617	4219
902.735	4348
902.854	4386
902.973	4314
903.091	4211
903.21	4249
903.328	4272
903.446	4280
903.565	4242
903.683	4337
903.801	4234
903.919	4402
904.038	4440
904.156	4291
904.274	4428
904.392	4322
904.51	4417
904.627	4462
904.745	4584
904.863	4675
904.981	4371
905.098	4348
905.216	4371
905.334	4443
905.451	4424
905.569	4440
905.686	4538
905.803	4561
905.921	4398
906.038	4516
906.155	4451
906.272	4386
906.389	4428
906.506	4363
906.623	4310
906.74	4352
906.857	4287
906.974	4367
907.091	4527
907.208	4725
907.324	4573
907.441	4470
907.557	4344
907.674	4306
907.79	4341
907.907	4375
908.023	4470
908.139	4485
908.256	4428
908.372	4451
908.488	4432
908.604	4356
908.72	4329
908.836	4356
908.952	4344
909.068	4379
909.184	4577
909.3	4474
909.415	4565
909.531	4550
909.647	4322
909.762	4405
909.878	4352
909.993	4436
910.108	4398
910.224	4443
910.339	4466
910.454	4386
910.57	4337
910.685	4261
910.8	4622
910.915	4588
911.03	4527
911.145	4329
911.259	4322
911.374	4329
911.489	4249
911.604	4295
911.718	4143
911.833	4223
911.947	4086
912.062	4055
912.176	4219
912.291	4227
912.405	4238
912.519	4451
912.633	4493
912.748	4348
912.862	4314
912.976	4204
913.09	4128
913.204	4169
913.318	4253
913.431	4386
913.545	4375
913.659	4428
913.772	4306
913.886	4246
914	4200
914.113	4386
914.226	4443
914.34	4348
914.453	4268
914.566	4443
914.68	4329
914.793	4276
914.906	4143
915.019	4128
915.132	4040
915.245	4185
915.358	4181
915.47	4227
915.583	4238
915.696	4318
915.809	4413
915.921	4417
916.034	4230
916.146	4265
916.259	4238
916.371	4337
916.483	4348
916.595	4230
916.708	4337
916.82	4318
916.932	4318
917.044	4306
917.156	4306
917.268	4181
917.38	4238
917.491	4253
917.603	4322
917.715	4398
917.826	4390
917.938	4367
918.049	4249
918.161	4371
918.272	4527
918.384	4550
918.495	4421
918.606	4238
918.717	4276
918.828	4348
918.939	4344
919.05	4234
919.161	4303
919.272	4139
919.383	4211
919.494	4432
919.604	4618
919.715	4432
919.826	4337
919.936	4348
920.047	4489
920.157	4470
920.267	4672
920.378	4569
920.488	4474
920.598	4687
920.708	4934
920.818	4748
920.928	4748
921.038	4896
921.148	4889
921.258	4641
921.368	4535
921.477	4470
921.587	4455
921.697	4379
921.806	4466
921.916	4398
922.025	4238
922.134	4284
922.244	4207
922.353	4341
922.462	4131
922.571	4139
922.68	4010
922.789	3953
922.898	4051
923.007	3987
923.116	4067
923.224	3991
923.333	4071
923.442	4017
923.55	3968
923.659	3998
923.767	4078
923.876	4010
923.984	4090
924.092	3956
924.201	4051
924.309	4071
924.417	4067
924.525	4044
924.633	4116
924.741	5029
924.849	3911
924.956	4097
925.064	3937
925.172	3903
925.279	3915
925.387	4040
925.494	4063
925.602	4207
925.709	4223
925.816	4059
925.924	4086
926.031	4204
926.138	4116
926.245	4166
926.352	4128
926.459	4246
926.566	4287
926.673	4128
926.779	4048
926.886	4067
926.993	3983
927.099	3918
927.206	3922
927.312	3873
927.419	4025
927.525	4055
927.631	4044
927.737	3975
927.843	3926
927.95	3823
928.056	3956
928.162	3987
928.267	4044
928.373	4679
928.479	4059
928.585	3880
928.69	4029
928.796	4044
928.901	3975
929.007	3793
929.112	3987
929.218	3911
929.323	3941
929.428	3926
929.533	4112
929.638	3854
929.743	3956
929.848	4071
929.953	3953
930.058	3930
930.163	3694
930.267	3800
930.372	3937
930.477	3812
930.581	4032
930.685	3907
930.79	3823
930.894	3857
930.998	3854
931.103	3987
931.207	3682
931.311	3679
931.415	3656
931.519	3507
931.623	3591
