Data from test_V78500241_1333.txt Node
Date: Fri Mar 25 16:58:16 CST 2022
User: usil
Spectrometer: V785-0024
Trigger mode: 0
Integration Time (sec): 4.000000E-1
Scans to average: 1
Nonlinearity correction enabled: false
Boxcar width: 0
Storing dark spectrum: false
XAxis mode: Wavelengths
Number of Pixels in Spectrum: 1024
>>>>>Begin Spectral Data<<<<<
801.071	8035
801.214	7978
801.356	7875
801.499	7898
801.641	7723
801.783	7723
801.926	7875
802.068	7947
802.211	7978
802.353	7997
802.496	7841
802.638	7879
802.78	7909
802.923	7967
803.065	7883
803.208	7883
803.35	8012
803.492	8069
803.635	8157
803.777	8008
803.919	8157
804.061	8465
804.204	8233
804.346	8062
804.488	7967
804.63	8081
804.773	7944
804.915	8065
805.057	8328
805.199	8187
805.341	8248
805.483	8313
805.626	8210
805.768	8092
805.91	8180
806.052	8237
806.194	8123
806.336	8332
806.478	8130
806.62	8088
806.762	8096
806.904	8259
807.046	8495
807.188	8381
807.33	8343
807.472	8298
807.614	8195
807.756	8138
807.898	8027
808.04	7932
808.182	7978
808.324	7936
808.465	7982
808.607	8084
808.749	8157
808.891	8202
809.033	8317
809.174	8199
809.316	8020
809.458	8081
809.6	8050
809.741	8035
809.883	7978
810.025	8115
810.166	8073
810.308	8103
810.45	7993
810.591	7902
810.733	7826
810.875	7757
811.016	7605
811.158	7495
811.299	7590
811.441	7776
811.582	7658
811.724	7655
811.865	7571
812.007	7594
812.148	7655
812.29	7685
812.431	7811
812.573	7898
812.714	8020
812.855	8115
812.997	8187
813.138	8263
813.279	8210
813.421	8134
813.562	7993
813.703	7837
813.845	7795
813.986	7480
814.127	7228
814.268	7251
814.41	7270
814.551	7221
814.692	7206
814.833	7114
814.974	7088
815.115	7149
815.256	6970
815.397	6954
815.539	6901
815.68	6856
815.821	6802
815.962	6859
816.103	6798
816.244	6745
816.385	6631
816.526	6635
816.666	6513
816.807	6342
816.948	6494
817.089	6483
817.23	6456
817.371	6369
817.512	6410
817.653	6452
817.793	6342
817.934	6441
818.075	6407
818.216	6433
818.356	6410
818.497	6194
818.638	6171
818.778	6186
818.919	6182
819.06	6171
819.2	6365
819.341	6311
819.481	6357
819.622	6513
819.762	6802
819.903	6760
820.043	6631
820.184	6623
820.324	6597
820.465	6700
820.605	6715
820.746	6654
820.886	6532
821.026	6715
821.167	6700
821.307	6814
821.447	6749
821.588	6719
821.728	6620
821.868	6536
822.008	6304
822.149	6410
822.289	6365
822.429	6175
822.569	6098
822.709	6201
822.849	5916
822.99	5885
823.13	5961
823.27	5939
823.41	5794
823.55	5767
823.69	5767
823.83	5756
823.97	5691
824.11	5532
824.25	5554
824.389	5611
824.529	5604
824.669	5528
824.809	5668
824.949	5665
825.089	5611
825.228	5642
825.368	5433
825.508	5372
825.648	5379
825.787	5406
825.927	5402
826.067	5296
826.206	5337
826.346	5440
826.485	5436
826.625	5364
826.765	5486
826.904	5505
827.044	5288
827.183	5216
827.323	5147
827.462	5292
827.601	5212
827.741	5216
827.88	5193
828.02	5159
828.159	5261
828.298	5318
828.437	5414
828.577	5288
828.716	5505
828.855	5410
828.994	5178
829.134	5189
829.273	5159
829.412	5136
829.551	5102
829.69	5185
829.829	5212
829.968	5406
830.107	5311
830.246	5318
830.385	5181
830.524	5155
830.663	5079
830.802	5022
830.941	4949
831.08	4915
831.219	4995
831.357	4972
831.496	5151
831.635	4946
831.774	4889
831.913	4843
832.051	4729
832.19	4755
832.329	4896
832.467	4748
832.606	4675
832.744	4687
832.883	4744
833.022	4717
833.16	4809
833.299	4797
833.437	4843
833.576	4858
833.714	4858
833.852	4919
833.991	4972
834.129	4968
834.267	4968
834.406	4866
834.544	4976
834.682	4965
834.821	5056
834.959	5166
835.097	5010
835.235	5132
835.373	5086
835.511	5132
835.65	5064
835.788	4980
835.926	4927
836.064	4896
836.202	4968
836.34	5193
836.478	5269
836.615	5159
836.753	5204
836.891	5296
837.029	5212
837.167	5239
837.305	5185
837.443	5140
837.58	5029
837.718	5303
837.856	5201
837.993	5212
838.131	5227
838.269	5216
838.406	5220
838.544	5201
838.681	5041
838.819	4999
838.956	4900
839.094	4900
839.231	5006
839.369	5094
839.506	5459
839.643	5280
839.781	5113
839.918	5056
840.055	5132
840.193	5094
840.33	5151
840.467	5124
840.604	5201
840.742	5452
840.879	5124
841.016	5105
841.153	5162
841.29	5395
841.427	5318
841.564	5315
841.701	5372
841.838	5334
841.975	5269
842.112	5261
842.249	5143
842.385	5128
842.522	5372
842.659	5197
842.796	5181
842.933	5220
843.069	5178
843.206	5166
843.343	5345
843.479	5246
843.616	5318
843.752	5075
843.889	5071
844.025	5208
844.162	5064
844.298	5235
844.435	5086
844.571	5014
844.708	5216
844.844	5269
844.98	5341
845.117	5288
845.253	5117
845.389	5037
845.525	5204
845.661	5136
845.798	5048
845.934	5162
846.07	5071
846.206	5201
846.342	5288
846.478	5189
846.614	5060
846.75	5003
846.886	4957
847.022	5197
847.158	5056
847.294	5090
847.429	5086
847.565	5071
847.701	5357
847.837	4892
847.972	4831
848.108	4957
848.244	4995
848.379	4793
848.515	4763
848.65	4729
848.786	4752
848.921	4786
849.057	4881
849.192	4980
849.328	4835
849.463	4858
849.598	4809
849.734	4786
849.869	4691
850.004	4637
850.14	4641
850.275	4573
850.41	4584
850.545	4554
850.68	4622
850.815	4641
850.95	4653
851.085	4858
851.22	4759
851.355	4725
851.49	4592
851.625	4653
851.76	4649
851.895	4542
852.03	4577
852.165	4634
852.299	4683
852.434	4790
852.569	4752
852.703	4778
852.838	4839
852.973	4942
853.107	4923
853.242	4755
853.376	4637
853.511	4607
853.645	4603
853.78	4812
853.914	4691
854.048	4710
854.183	4634
854.317	4675
854.451	4885
854.585	4698
854.72	4660
854.854	4782
854.988	4599
855.122	4691
855.256	4527
855.39	4668
855.524	4748
855.658	4702
855.792	4668
855.926	4721
856.06	4782
856.194	4797
856.327	4748
856.461	4641
856.595	4607
856.729	4660
856.862	4763
856.996	4698
857.13	4702
857.263	4752
857.397	4820
857.53	4656
857.664	4755
857.797	4755
857.931	4828
858.064	4691
858.197	4771
858.331	4630
858.464	4603
858.597	4489
858.731	4649
858.864	4645
858.997	4630
859.13	4691
859.263	4679
859.396	4736
859.529	4611
859.662	4637
859.795	4558
859.928	4664
860.061	4771
860.194	4790
860.327	4615
860.46	4565
860.592	4710
860.725	4748
860.858	4691
860.99	4599
861.123	4561
861.256	4504
861.388	4596
861.521	5227
861.653	4481
861.786	4451
861.918	4424
862.05	4500
862.183	4554
862.315	4668
862.447	4691
862.58	4519
862.712	4394
862.844	4284
862.976	4493
863.108	4455
863.24	4885
863.372	4314
863.504	4500
863.636	4432
863.768	4474
863.9	4466
864.032	4375
864.164	4383
864.296	4470
864.428	4561
864.559	4580
864.691	4546
864.823	4516
864.954	4535
865.086	4554
865.217	4470
865.349	4440
865.48	4459
865.612	4500
865.743	4630
865.875	4519
866.006	4474
866.137	4466
866.269	4455
866.4	4497
866.531	4405
866.662	4356
866.793	4409
866.924	4367
867.055	4519
867.186	4413
867.317	4413
867.448	4348
867.579	4386
867.71	4402
867.841	4375
867.972	4478
868.103	4489
868.233	4500
868.364	4417
868.495	4470
868.625	4660
868.756	4729
868.886	4573
869.017	4596
869.147	4763
869.278	4771
869.408	4634
869.539	4596
869.669	4691
869.799	4660
869.929	4793
870.06	4729
870.19	4923
870.32	4949
870.45	4904
870.58	5045
870.71	5071
870.84	5128
870.97	4938
871.1	4889
871.23	5132
871.36	5159
871.489	5052
871.619	5052
871.749	5086
871.879	5140
872.008	5155
872.138	5094
872.267	4976
872.397	4850
872.526	4805
872.656	4729
872.785	4812
872.915	4908
873.044	5006
873.173	4885
873.303	4965
873.432	4908
873.561	4949
873.69	4862
873.819	4896
873.948	4877
874.077	4870
874.206	4755
874.335	4767
874.464	4976
874.593	5014
874.722	4980
874.851	5075
874.979	5075
875.108	5010
875.237	4908
875.365	4885
875.494	4820
875.623	4995
875.751	4801
875.88	4843
876.008	4930
876.136	4991
876.265	5227
876.393	5311
876.521	5246
876.65	5216
876.778	5102
876.906	5056
877.034	5029
877.162	4984
877.29	4934
877.418	5102
877.546	5048
877.674	5071
877.802	4980
877.93	4980
878.058	4919
878.185	4858
878.313	4965
878.441	4972
878.568	4828
878.696	4877
878.824	4984
878.951	5010
879.079	5159
879.206	5299
879.333	5128
879.461	5018
879.588	5045
879.715	5132
879.842	5239
879.97	5052
880.097	4839
880.224	4755
880.351	4839
880.478	4809
880.605	4816
880.732	4820
880.859	5094
880.986	4934
881.112	4923
881.239	4812
881.366	4725
881.493	4630
881.619	4573
881.746	4668
881.872	4702
881.999	4653
882.125	4778
882.252	4824
882.378	4866
882.505	5010
882.631	4866
882.757	4656
882.883	4755
883.01	4771
883.136	4710
883.262	4622
883.388	4687
883.514	4870
883.64	4908
883.766	4797
883.892	4672
884.018	4755
884.143	4942
884.269	5037
884.395	4733
884.52	4683
884.646	4660
884.772	4637
884.897	4626
885.023	4736
885.148	4824
885.274	4885
885.399	4885
885.524	4729
885.65	4721
885.775	4774
885.9	4771
886.025	4873
886.15	4854
886.275	4782
886.4	4706
886.525	4793
886.65	4679
886.775	4733
886.9	4972
887.025	5083
887.149	4839
887.274	4733
887.399	4588
887.523	4637
887.648	4577
887.773	4622
887.897	4805
888.021	4824
888.146	4710
888.27	4801
888.395	4904
888.519	4824
888.643	4850
888.767	4858
888.891	4771
889.015	4645
889.139	4668
889.263	4637
889.387	4782
889.511	4885
889.635	4809
889.759	4664
889.883	4725
890.006	4740
890.13	4835
890.254	4668
890.377	4748
890.501	4588
890.624	4542
890.748	4694
890.871	4558
890.995	4443
891.118	4424
891.241	4558
891.364	4592
891.488	4721
891.611	4531
891.734	4599
891.857	4622
891.98	4577
892.103	4687
892.226	4653
892.349	4546
892.471	4459
892.594	4580
892.717	4687
892.839	4622
892.962	4615
893.085	4694
893.207	4622
893.33	4489
893.452	4573
893.575	4725
893.697	4603
893.819	4835
893.941	4774
894.064	4870
894.186	4607
894.308	4603
894.43	4790
894.552	4896
894.674	4786
894.796	4603
894.918	4615
895.04	4630
895.161	4740
895.283	4683
895.405	4542
895.526	4668
895.648	4714
895.769	4729
895.891	4733
896.012	4759
896.134	4767
896.255	4714
896.376	4694
896.498	4641
896.619	4702
896.74	4664
896.861	4687
896.982	4965
897.103	5033
897.224	4870
897.345	4767
897.466	4698
897.587	4752
897.708	4900
897.828	4820
897.949	4702
898.07	4615
898.19	4649
898.311	4858
898.431	4675
898.552	4786
898.672	4881
898.792	4828
898.913	4721
899.033	4645
899.153	4584
899.273	4455
899.393	4489
899.513	4561
899.633	4462
899.753	4607
899.873	4588
899.993	4615
900.113	4588
900.232	4637
900.352	4538
900.472	4485
900.591	4417
900.711	4504
900.83	4459
900.95	4637
901.069	4714
901.189	4580
901.308	4360
901.427	4303
901.546	4363
901.665	4489
901.784	4554
901.904	4455
902.023	4333
902.141	4215
902.26	4169
902.379	4325
902.498	4284
902.617	4322
902.735	4402
902.854	4402
902.973	4413
903.091	4261
903.21	4249
903.328	4379
903.446	4287
903.565	4268
903.683	4390
903.801	4318
903.919	4394
904.038	4466
904.156	4348
904.274	4432
904.392	4466
904.51	4417
904.627	4512
904.745	4584
904.863	4622
904.981	4413
905.098	4352
905.216	4363
905.334	4508
905.451	4436
905.569	4466
905.686	4596
905.803	4618
905.921	4421
906.038	4603
906.155	4478
906.272	4436
906.389	4474
906.506	4379
906.623	4447
906.74	4371
906.857	4333
906.974	4436
907.091	4634
907.208	4668
907.324	4588
907.441	4516
907.557	4375
907.674	4348
907.79	4383
907.907	4409
908.023	4546
908.139	4542
908.256	4417
908.372	4409
908.488	4462
908.604	4379
908.72	4367
908.836	4428
908.952	4341
909.068	4474
909.184	4596
909.3	4535
909.415	4622
909.531	4599
909.647	4402
909.762	4451
909.878	4348
909.993	4516
910.108	4424
910.224	4451
910.339	4504
910.454	4405
910.57	4379
910.685	4303
910.8	4656
910.915	4615
911.03	4500
911.145	4379
911.259	4295
911.374	4352
911.489	4318
911.604	4284
911.718	4219
911.833	4200
911.947	4112
912.062	4067
912.176	4261
912.291	4238
912.405	4265
912.519	4535
912.633	4565
912.748	4390
912.862	4341
912.976	4207
913.09	4112
913.204	4169
913.318	4272
913.431	4398
913.545	4367
913.659	4451
913.772	4383
913.886	4242
914	4246
914.113	4371
914.226	4447
914.34	4432
914.453	4249
914.566	4459
914.68	4325
914.793	4333
914.906	4158
915.019	4158
915.132	4074
915.245	4242
915.358	4242
915.47	4295
915.583	4303
915.696	4344
915.809	4436
915.921	4500
916.034	4265
916.146	4246
916.259	4238
916.371	4371
916.483	4436
916.595	4272
916.708	4329
916.82	4333
916.932	4329
917.044	4329
917.156	4314
917.268	4268
917.38	4303
917.491	4295
917.603	4356
917.715	4432
917.826	4447
917.938	4375
918.049	4276
918.161	4402
918.272	4569
918.384	4538
918.495	4474
918.606	4291
918.717	4238
918.828	4356
918.939	4344
919.05	4207
919.161	4363
919.272	4139
919.383	4261
919.494	4478
919.604	4637
919.715	4367
919.826	4360
919.936	4462
920.047	4565
920.157	4519
920.267	4740
920.378	4577
920.488	4523
920.598	4744
920.708	4927
920.818	4774
920.928	4774
921.038	4892
921.148	4927
921.258	4653
921.368	4569
921.477	4508
921.587	4500
921.697	4390
921.806	4504
921.916	4493
922.025	4291
922.134	4314
922.244	4230
922.353	4348
922.462	4192
922.571	4166
922.68	4017
922.789	3983
922.898	4036
923.007	4032
923.116	4105
923.224	4067
923.333	4090
923.442	3945
923.55	4048
923.659	4010
923.767	4109
923.876	3998
923.984	4131
924.092	3972
924.201	4067
924.309	4067
924.417	4101
924.525	4067
924.633	4143
924.741	5033
924.849	3949
924.956	4120
925.064	3972
925.172	3949
925.279	3956
925.387	4074
925.494	4082
925.602	4265
925.709	4223
925.816	4051
925.924	4154
926.031	4215
926.138	4192
926.245	4207
926.352	4131
926.459	4234
926.566	4272
926.673	4181
926.779	4124
926.886	4055
926.993	3964
927.099	4006
927.206	4010
927.312	3994
927.419	4082
927.525	4029
927.631	4090
927.737	4002
927.843	3968
927.95	3888
928.056	3956
928.162	4010
928.267	4063
928.373	4740
928.479	4116
928.585	3937
928.69	4063
928.796	4067
928.901	3987
929.007	3835
929.112	4021
929.218	3998
929.323	3983
929.428	3968
929.533	4162
929.638	3918
929.743	3975
929.848	4025
929.953	4025
930.058	3945
930.163	3838
930.267	3854
930.372	3968
930.477	3827
930.581	4139
930.685	3979
930.79	3838
930.894	3888
930.998	3892
931.103	4040
931.207	3736
931.311	3679
931.415	3694
931.519	3553
931.623	3542
