Data from test_V78500241_987.txt Node
Date: Fri Mar 25 16:55:51 CST 2022
User: usil
Spectrometer: V785-0024
Trigger mode: 0
Integration Time (sec): 4.000000E-1
Scans to average: 1
Nonlinearity correction enabled: false
Boxcar width: 0
Storing dark spectrum: false
XAxis mode: Wavelengths
Number of Pixels in Spectrum: 1024
>>>>>Begin Spectral Data<<<<<
801.071	8054
801.214	8039
801.356	7902
801.499	7909
801.641	7818
801.783	7788
801.926	7963
802.068	7898
802.211	7982
802.353	7932
802.496	7852
802.638	7822
802.78	7852
802.923	7894
803.065	7830
803.208	7822
803.35	8039
803.492	8065
803.635	8130
803.777	8027
803.919	8092
804.061	8442
804.204	8107
804.346	8035
804.488	7951
804.63	8096
804.773	8012
804.915	8084
805.057	8263
805.199	8142
805.341	8237
805.483	8252
805.626	8111
805.768	8050
805.91	8180
806.052	8244
806.194	8081
806.336	8202
806.478	8024
806.62	8046
806.762	8115
806.904	8237
807.046	8457
807.188	8434
807.33	8309
807.472	8385
807.614	8073
807.756	8130
807.898	7967
808.04	7894
808.182	7917
808.324	7902
808.465	7902
808.607	8024
808.749	8058
808.891	8218
809.033	8256
809.174	8172
809.316	8092
809.458	8008
809.6	7959
809.741	8073
809.883	8027
810.025	8054
810.166	7986
810.308	8024
810.45	8027
810.591	7841
810.733	7742
810.875	7632
811.016	7502
811.158	7487
811.299	7510
811.441	7685
811.582	7674
811.724	7533
811.865	7586
812.007	7521
812.148	7559
812.29	7628
812.431	7753
812.573	7833
812.714	8046
812.855	8092
812.997	8195
813.138	8279
813.279	8149
813.421	8107
813.562	8005
813.703	7947
813.845	7761
813.986	7510
814.127	7305
814.268	7274
814.41	7251
814.551	7103
814.692	7175
814.833	7076
814.974	7088
815.115	7080
815.256	6901
815.397	6894
815.539	6973
815.68	6787
815.821	6798
815.962	6886
816.103	6848
816.244	6722
816.385	6585
816.526	6563
816.666	6437
816.807	6289
816.948	6422
817.089	6460
817.23	6467
817.371	6357
817.512	6304
817.653	6372
817.793	6353
817.934	6361
818.075	6441
818.216	6376
818.356	6369
818.497	6251
818.638	6102
818.778	6106
818.919	6072
819.06	6152
819.2	6311
819.341	6235
819.481	6331
819.622	6506
819.762	6696
819.903	6688
820.043	6589
820.184	6616
820.324	6555
820.465	6665
820.605	6658
820.746	6623
820.886	6464
821.026	6677
821.167	6696
821.307	6810
821.447	6730
821.588	6642
821.728	6589
821.868	6502
822.008	6319
822.149	6388
822.289	6338
822.429	6098
822.569	6068
822.709	6102
822.849	5920
822.99	5863
823.13	5977
823.27	5935
823.41	5790
823.55	5779
823.69	5813
823.83	5760
823.97	5630
824.11	5532
824.25	5501
824.389	5592
824.529	5532
824.669	5516
824.809	5653
824.949	5642
825.089	5592
825.228	5589
825.368	5334
825.508	5368
825.648	5318
825.787	5368
825.927	5379
826.067	5269
826.206	5284
826.346	5353
826.485	5459
826.625	5379
826.765	5493
826.904	5478
827.044	5242
827.183	5178
827.323	5105
827.462	5181
827.601	5124
827.741	5124
827.88	5227
828.02	5136
828.159	5212
828.298	5258
828.437	5364
828.577	5174
828.716	5463
828.855	5315
828.994	5185
829.134	5162
829.273	5143
829.412	5166
829.551	5067
829.69	5136
829.829	5220
829.968	5345
830.107	5273
830.246	5258
830.385	5208
830.524	5117
830.663	5083
830.802	4968
830.941	4889
831.08	4866
831.219	4946
831.357	4972
831.496	5166
831.635	4911
831.774	4850
831.913	4793
832.051	4733
832.19	4744
832.329	4831
832.467	4683
832.606	4599
832.744	4679
832.883	4694
833.022	4694
833.16	4687
833.299	4774
833.437	4812
833.576	4847
833.714	4839
833.852	4816
833.991	4866
834.129	4908
834.267	4934
834.406	4923
834.544	4946
834.682	4961
834.821	4968
834.959	5083
835.097	4980
835.235	5109
835.373	5025
835.511	5105
835.65	5006
835.788	5010
835.926	4850
836.064	4831
836.202	4866
836.34	5147
836.478	5174
836.615	5090
836.753	5204
836.891	5239
837.029	5223
837.167	5212
837.305	5136
837.443	5170
837.58	5060
837.718	5216
837.856	5162
837.993	5143
838.131	5178
838.269	5102
838.406	5178
838.544	5197
838.681	5010
838.819	5018
838.956	4927
839.094	4923
839.231	5025
839.369	5071
839.506	5463
839.643	5284
839.781	5025
839.918	5003
840.055	5079
840.193	5109
840.33	5128
840.467	5155
840.604	5174
840.742	5417
840.879	5048
841.016	5060
841.153	5151
841.29	5364
841.427	5288
841.564	5299
841.701	5368
841.838	5299
841.975	5201
842.112	5277
842.249	5162
842.385	5064
842.522	5288
842.659	5220
842.796	5064
842.933	5197
843.069	5162
843.206	5170
843.343	5284
843.479	5220
843.616	5250
843.752	4987
843.889	5022
844.025	5197
844.162	4984
844.298	5231
844.435	5025
844.571	5029
844.708	5185
844.844	5288
844.98	5277
845.117	5246
845.253	5124
845.389	5083
845.525	5128
845.661	5151
845.798	4984
845.934	5079
846.07	5037
846.206	5159
846.342	5246
846.478	5197
846.614	5006
846.75	4965
846.886	4961
847.022	5086
847.158	4942
847.294	5090
847.429	5109
847.565	5022
847.701	5303
847.837	4790
847.972	4786
848.108	4930
848.244	4889
848.379	4752
848.515	4691
848.65	4710
848.786	4729
848.921	4835
849.057	4870
849.192	4854
849.328	4801
849.463	4885
849.598	4831
849.734	4675
849.869	4660
850.004	4577
850.14	4653
850.275	4607
850.41	4497
850.545	4554
850.68	4577
850.815	4596
850.95	4634
851.085	4816
851.22	4729
851.355	4622
851.49	4626
851.625	4611
851.76	4630
851.895	4531
852.03	4512
852.165	4596
852.299	4672
852.434	4736
852.569	4767
852.703	4736
852.838	4839
852.973	4881
853.107	4896
853.242	4721
853.376	4664
853.511	4504
853.645	4561
853.78	4771
853.914	4645
854.048	4664
854.183	4573
854.317	4664
854.451	4790
854.585	4660
854.72	4603
854.854	4691
854.988	4516
855.122	4584
855.256	4478
855.39	4641
855.524	4725
855.658	4691
855.792	4622
855.926	4729
856.06	4714
856.194	4710
856.327	4706
856.461	4558
856.595	4546
856.729	4603
856.862	4672
856.996	4710
857.13	4656
857.263	4691
857.397	4797
857.53	4645
857.664	4725
857.797	4714
857.931	4736
858.064	4736
858.197	4729
858.331	4653
858.464	4588
858.597	4527
858.731	4592
858.864	4634
858.997	4542
859.13	4653
859.263	4694
859.396	4733
859.529	4569
859.662	4607
859.795	4550
859.928	4660
860.061	4763
860.194	4793
860.327	4641
860.46	4565
860.592	4710
860.725	4687
860.858	4767
860.99	4596
861.123	4508
861.256	4519
861.388	4653
861.521	5288
861.653	4504
861.786	4523
861.918	4493
862.05	4565
862.183	4580
862.315	4641
862.447	4672
862.58	4558
862.712	4459
862.844	4402
862.976	4554
863.108	4485
863.24	4923
863.372	4379
863.504	4459
863.636	4478
863.768	4516
863.9	4462
864.032	4352
864.164	4417
864.296	4538
864.428	4603
864.559	4577
864.691	4516
864.823	4565
864.954	4550
865.086	4558
865.217	4512
865.349	4440
865.48	4462
865.612	4493
865.743	4656
865.875	4497
866.006	4432
866.137	4493
866.269	4443
866.4	4432
866.531	4432
866.662	4440
866.793	4440
866.924	4451
867.055	4554
867.186	4459
867.317	4489
867.448	4405
867.579	4451
867.71	4417
867.841	4436
867.972	4447
868.103	4462
868.233	4481
868.364	4527
868.495	4497
868.625	4637
868.756	4774
868.886	4577
869.017	4672
869.147	4778
869.278	4831
869.408	4702
869.539	4611
869.669	4752
869.799	4683
869.929	4828
870.06	4725
870.19	4991
870.32	4972
870.45	4968
870.58	5022
870.71	5086
870.84	5136
870.97	4972
871.1	4881
871.23	5181
871.36	5113
871.489	5018
871.619	5086
871.749	5136
871.879	5159
872.008	5204
872.138	5094
872.267	5064
872.397	4877
872.526	4801
872.656	4748
872.785	4835
872.915	4949
873.044	4976
873.173	4961
873.303	5003
873.432	4972
873.561	4972
873.69	4915
873.819	4919
873.948	4885
874.077	4820
874.206	4771
874.335	4816
874.464	4934
874.593	5056
874.722	5022
874.851	5121
874.979	5086
875.108	5037
875.237	4919
875.365	4923
875.494	4911
875.623	4987
875.751	4850
875.88	4942
876.008	4965
876.136	5052
876.265	5201
876.393	5337
876.521	5277
876.65	5193
876.778	5166
876.906	5067
877.034	5029
877.162	5109
877.29	4968
877.418	5098
877.546	5071
877.674	5105
877.802	5056
877.93	5052
878.058	4946
878.185	4873
878.313	4961
878.441	4953
878.568	4847
878.696	4870
878.824	4957
878.951	5037
879.079	5193
879.206	5288
879.333	5102
879.461	5022
879.588	5090
879.715	5105
879.842	5212
879.97	5014
880.097	4816
880.224	4752
880.351	4847
880.478	4858
880.605	4839
880.732	4812
880.859	5067
880.986	4896
881.112	4915
881.239	4797
881.366	4767
881.493	4626
881.619	4584
881.746	4691
881.872	4656
881.999	4637
882.125	4725
882.252	4801
882.378	4828
882.505	4980
882.631	4873
882.757	4717
882.883	4736
883.01	4717
883.136	4687
883.262	4603
883.388	4691
883.514	4858
883.64	4923
883.766	4774
883.892	4649
884.018	4687
884.143	4923
884.269	5022
884.395	4660
884.52	4653
884.646	4683
884.772	4565
884.897	4569
885.023	4679
885.148	4805
885.274	4896
885.399	4816
885.524	4698
885.65	4740
885.775	4740
885.9	4729
886.025	4881
886.15	4828
886.275	4786
886.4	4660
886.525	4721
886.65	4736
886.775	4694
886.9	4961
887.025	5109
887.149	4870
887.274	4649
887.399	4649
887.523	4645
887.648	4596
887.773	4637
887.897	4767
888.021	4801
888.146	4675
888.27	4828
888.395	4919
888.519	4801
888.643	4828
888.767	4873
888.891	4683
889.015	4637
889.139	4694
889.263	4637
889.387	4801
889.511	4885
889.635	4801
889.759	4641
889.883	4622
890.006	4767
890.13	4850
890.254	4618
890.377	4664
890.501	4607
890.624	4535
890.748	4656
890.871	4504
890.995	4436
891.118	4402
891.241	4527
891.364	4554
891.488	4660
891.611	4512
891.734	4592
891.857	4588
891.98	4558
892.103	4691
892.226	4626
892.349	4561
892.471	4500
892.594	4546
892.717	4645
892.839	4596
892.962	4618
893.085	4641
893.207	4615
893.33	4485
893.452	4523
893.575	4618
893.697	4588
893.819	4801
893.941	4850
894.064	4809
894.186	4588
894.308	4565
894.43	4729
894.552	4828
894.674	4733
894.796	4519
894.918	4607
895.04	4592
895.161	4691
895.283	4710
895.405	4569
895.526	4622
895.648	4721
895.769	4706
895.891	4714
896.012	4771
896.134	4725
896.255	4649
896.376	4588
896.498	4664
896.619	4656
896.74	4641
896.861	4649
896.982	4957
897.103	5079
897.224	4870
897.345	4744
897.466	4649
897.587	4755
897.708	4904
897.828	4801
897.949	4660
898.07	4588
898.19	4679
898.311	4809
898.431	4717
898.552	4717
898.672	4831
898.792	4759
898.913	4744
899.033	4656
899.153	4535
899.273	4459
899.393	4508
899.513	4523
899.633	4542
899.753	4527
899.873	4554
899.993	4599
900.113	4592
900.232	4630
900.352	4531
900.472	4493
900.591	4413
900.711	4512
900.83	4455
900.95	4618
901.069	4645
901.189	4538
901.308	4379
901.427	4360
901.546	4394
901.665	4481
901.784	4535
901.904	4413
902.023	4337
902.141	4200
902.26	4211
902.379	4303
902.498	4272
902.617	4192
902.735	4409
902.854	4367
902.973	4390
903.091	4238
903.21	4230
903.328	4261
903.446	4261
903.565	4253
903.683	4379
903.801	4291
903.919	4402
904.038	4447
904.156	4299
904.274	4497
904.392	4413
904.51	4405
904.627	4504
904.745	4596
904.863	4653
904.981	4436
905.098	4325
905.216	4360
905.334	4402
905.451	4497
905.569	4462
905.686	4565
905.803	4580
905.921	4421
906.038	4569
906.155	4500
906.272	4409
906.389	4470
906.506	4367
906.623	4341
906.74	4421
906.857	4268
906.974	4386
907.091	4599
907.208	4641
907.324	4550
907.441	4500
907.557	4348
907.674	4402
907.79	4280
907.907	4409
908.023	4550
908.139	4466
908.256	4409
908.372	4436
908.488	4508
908.604	4390
908.72	4329
908.836	4386
908.952	4348
909.068	4398
909.184	4599
909.3	4519
909.415	4584
909.531	4546
909.647	4405
909.762	4386
909.878	4379
909.993	4481
910.108	4379
910.224	4402
910.339	4466
910.454	4405
910.57	4360
910.685	4333
910.8	4618
910.915	4611
911.03	4512
911.145	4333
911.259	4348
911.374	4413
911.489	4341
911.604	4234
911.718	4173
911.833	4223
911.947	4105
912.062	4063
912.176	4242
912.291	4287
912.405	4234
912.519	4489
912.633	4497
912.748	4348
912.862	4329
912.976	4223
913.09	4109
913.204	4207
913.318	4268
913.431	4390
913.545	4424
913.659	4421
913.772	4386
913.886	4257
914	4223
914.113	4379
914.226	4451
914.34	4363
914.453	4265
914.566	4440
914.68	4310
914.793	4333
914.906	4112
915.019	4139
915.132	4101
915.245	4162
915.358	4227
915.47	4227
915.583	4276
915.696	4322
915.809	4417
915.921	4459
916.034	4249
916.146	4249
916.259	4261
916.371	4386
916.483	4402
916.595	4276
916.708	4318
916.82	4322
916.932	4341
917.044	4386
917.156	4341
917.268	4211
917.38	4242
917.491	4299
917.603	4333
917.715	4428
917.826	4455
917.938	4325
918.049	4242
918.161	4394
918.272	4535
918.384	4523
918.495	4455
918.606	4280
918.717	4242
918.828	4333
918.939	4341
919.05	4238
919.161	4329
919.272	4105
919.383	4238
919.494	4500
919.604	4615
919.715	4436
919.826	4402
919.936	4398
920.047	4558
920.157	4523
920.267	4702
920.378	4531
920.488	4504
920.598	4702
920.708	4889
920.818	4782
920.928	4774
921.038	4930
921.148	4881
921.258	4637
921.368	4554
921.477	4508
921.587	4497
921.697	4428
921.806	4535
921.916	4421
922.025	4276
922.134	4268
922.244	4261
922.353	4314
922.462	4211
922.571	4112
922.68	4010
922.789	3968
922.898	4017
923.007	4002
923.116	4116
923.224	4051
923.333	4112
923.442	3968
923.55	4002
923.659	4006
923.767	4131
923.876	3994
923.984	4109
924.092	3991
924.201	4078
924.309	4082
924.417	4128
924.525	4090
924.633	4131
924.741	5090
924.849	3903
924.956	4124
925.064	3964
925.172	3892
925.279	3922
925.387	4048
925.494	4048
925.602	4177
925.709	4192
925.816	4067
925.924	4158
926.031	4223
926.138	4154
926.245	4219
926.352	4082
926.459	4249
926.566	4329
926.673	4188
926.779	4082
926.886	4128
926.993	4010
927.099	3953
927.206	3934
927.312	3956
927.419	4097
927.525	4082
927.631	4120
927.737	3972
927.843	3964
927.95	3892
928.056	3994
928.162	3994
928.267	4074
928.373	4687
928.479	4223
928.585	3915
928.69	4120
928.796	4131
928.901	4010
929.007	3854
929.112	4017
929.218	3994
929.323	3968
929.428	3987
929.533	4128
929.638	3926
929.743	4021
929.848	4071
929.953	4025
930.058	3979
930.163	3785
930.267	3911
930.372	4010
930.477	3850
930.581	4082
930.685	3994
930.79	3861
930.894	3987
930.998	3922
931.103	4109
931.207	3762
931.311	3705
931.415	3713
931.519	3561
931.623	3584
