Data from test_V78500241_2444.txt Node
Date: Fri Mar 25 17:05:59 CST 2022
User: usil
Spectrometer: V785-0024
Trigger mode: 0
Integration Time (sec): 4.000000E-1
Scans to average: 1
Nonlinearity correction enabled: false
Boxcar width: 0
Storing dark spectrum: false
XAxis mode: Wavelengths
Number of Pixels in Spectrum: 1024
>>>>>Begin Spectral Data<<<<<
801.071	8043
801.214	8001
801.356	7875
801.499	7856
801.641	7792
801.783	7849
801.926	7887
802.068	7928
802.211	7967
802.353	7978
802.496	7814
802.638	7830
802.78	7913
802.923	7894
803.065	7887
803.208	7871
803.35	7925
803.492	8092
803.635	8088
803.777	8039
803.919	8100
804.061	8434
804.204	8191
804.346	8016
804.488	7944
804.63	8100
804.773	8005
804.915	8119
805.057	8305
805.199	8123
805.341	8202
805.483	8290
805.626	8210
805.768	8149
805.91	8138
806.052	8202
806.194	8123
806.336	8244
806.478	8130
806.62	8008
806.762	8058
806.904	8275
807.046	8438
807.188	8343
807.33	8237
807.472	8332
807.614	8164
807.756	8077
807.898	7959
808.04	7818
808.182	7860
808.324	7875
808.465	7959
808.607	8065
808.749	8168
808.891	8191
809.033	8271
809.174	8229
809.316	8077
809.458	7974
809.6	8024
809.741	8046
809.883	7982
810.025	8123
810.166	8027
810.308	8058
810.45	8012
810.591	7894
810.733	7685
810.875	7677
811.016	7502
811.158	7495
811.299	7533
811.441	7704
811.582	7563
811.724	7578
811.865	7533
812.007	7590
812.148	7594
812.29	7624
812.431	7746
812.573	7856
812.714	7959
812.855	8142
812.997	8176
813.138	8286
813.279	8164
813.421	8043
813.562	8008
813.703	7833
813.845	7769
813.986	7468
814.127	7240
814.268	7194
814.41	7213
814.551	7175
814.692	7183
814.833	7114
814.974	7065
815.115	7122
815.256	7019
815.397	6905
815.539	6943
815.68	6795
815.821	6700
815.962	6848
816.103	6818
816.244	6730
816.385	6597
816.526	6665
816.666	6483
816.807	6300
816.948	6452
817.089	6479
817.23	6429
817.371	6395
817.512	6357
817.653	6353
817.793	6289
817.934	6384
818.075	6460
818.216	6346
818.356	6388
818.497	6281
818.638	6175
818.778	6140
818.919	6102
819.06	6152
819.2	6308
819.341	6331
819.481	6391
819.622	6528
819.762	6722
819.903	6711
820.043	6582
820.184	6532
820.324	6574
820.465	6700
820.605	6703
820.746	6623
820.886	6544
821.026	6642
821.167	6711
821.307	6772
821.447	6787
821.588	6700
821.728	6574
821.868	6441
822.008	6311
822.149	6365
822.289	6369
822.429	6182
822.569	6068
822.709	6053
822.849	5942
822.99	5904
823.13	5908
823.27	5908
823.41	5802
823.55	5809
823.69	5775
823.83	5764
823.97	5615
824.11	5581
824.25	5455
824.389	5577
824.529	5581
824.669	5501
824.809	5585
824.949	5653
825.089	5638
825.228	5474
825.368	5360
825.508	5299
825.648	5280
825.787	5395
825.927	5398
826.067	5299
826.206	5303
826.346	5326
826.485	5387
826.625	5349
826.765	5600
826.904	5501
827.044	5250
827.183	5212
827.323	5113
827.462	5227
827.601	5212
827.741	5155
827.88	5231
828.02	5105
828.159	5269
828.298	5277
828.437	5372
828.577	5322
828.716	5463
828.855	5315
828.994	5201
829.134	5181
829.273	5212
829.412	5140
829.551	5155
829.69	5181
829.829	5303
829.968	5376
830.107	5311
830.246	5280
830.385	5189
830.524	5117
830.663	5075
830.802	5037
830.941	4915
831.08	4930
831.219	5014
831.357	4980
831.496	5155
831.635	4957
831.774	4824
831.913	4824
832.051	4740
832.19	4774
832.329	4862
832.467	4725
832.606	4733
832.744	4748
832.883	4748
833.022	4759
833.16	4854
833.299	4835
833.437	4870
833.576	4885
833.714	4923
833.852	4915
833.991	4949
834.129	5018
834.267	5003
834.406	4987
834.544	5048
834.682	5022
834.821	5018
834.959	5201
835.097	5025
835.235	5204
835.373	5159
835.511	5159
835.65	5079
835.788	5018
835.926	4889
836.064	4946
836.202	4972
836.34	5220
836.478	5254
836.615	5185
836.753	5227
836.891	5299
837.029	5303
837.167	5220
837.305	5231
837.443	5189
837.58	5124
837.718	5284
837.856	5246
837.993	5143
838.131	5311
838.269	5269
838.406	5220
838.544	5181
838.681	5075
838.819	5010
838.956	4904
839.094	4896
839.231	4999
839.369	5121
839.506	5433
839.643	5284
839.781	5109
839.918	5025
840.055	5140
840.193	5162
840.33	5132
840.467	5151
840.604	5235
840.742	5478
840.879	5162
841.016	5113
841.153	5170
841.29	5368
841.427	5368
841.564	5337
841.701	5349
841.838	5341
841.975	5299
842.112	5288
842.249	5166
842.385	5151
842.522	5341
842.659	5216
842.796	5170
842.933	5265
843.069	5201
843.206	5170
843.343	5368
843.479	5242
843.616	5315
843.752	5079
843.889	5041
844.025	5288
844.162	5045
844.298	5273
844.435	5143
844.571	5083
844.708	5212
844.844	5296
844.98	5345
845.117	5307
845.253	5159
845.389	5143
845.525	5147
845.661	5170
845.798	5079
845.934	5124
846.07	5079
846.206	5223
846.342	5345
846.478	5166
846.614	5025
846.75	5014
846.886	4987
847.022	5147
847.158	5033
847.294	5048
847.429	5113
847.565	5098
847.701	5357
847.837	4938
847.972	4873
848.108	4957
848.244	4987
848.379	4820
848.515	4778
848.65	4740
848.786	4778
848.921	4812
849.057	4908
849.192	4927
849.328	4892
849.463	4881
849.598	4824
849.734	4755
849.869	4767
850.004	4660
850.14	4706
850.275	4656
850.41	4558
850.545	4618
850.68	4641
850.815	4653
850.95	4714
851.085	4908
851.22	4755
851.355	4687
851.49	4656
851.625	4596
851.76	4721
851.895	4599
852.03	4542
852.165	4691
852.299	4710
852.434	4835
852.569	4831
852.703	4831
852.838	4892
852.973	4957
853.107	4965
853.242	4778
853.376	4763
853.511	4592
853.645	4626
853.78	4831
853.914	4740
854.048	4710
854.183	4710
854.317	4736
854.451	4949
854.585	4714
854.72	4679
854.854	4790
854.988	4618
855.122	4740
855.256	4538
855.39	4641
855.524	4858
855.658	4733
855.792	4710
855.926	4744
856.06	4793
856.194	4816
856.327	4706
856.461	4626
856.595	4637
856.729	4664
856.862	4801
856.996	4729
857.13	4774
857.263	4748
857.397	4790
857.53	4649
857.664	4725
857.797	4790
857.931	4820
858.064	4721
858.197	4774
858.331	4683
858.464	4645
858.597	4550
858.731	4641
858.864	4672
858.997	4645
859.13	4641
859.263	4733
859.396	4767
859.529	4577
859.662	4580
859.795	4527
859.928	4618
860.061	4820
860.194	4812
860.327	4637
860.46	4630
860.592	4748
860.725	4763
860.858	4752
860.99	4573
861.123	4573
861.256	4580
861.388	4634
861.521	5315
861.653	4489
861.786	4462
861.918	4474
862.05	4573
862.183	4561
862.315	4668
862.447	4691
862.58	4550
862.712	4421
862.844	4344
862.976	4516
863.108	4493
863.24	4843
863.372	4360
863.504	4440
863.636	4394
863.768	4485
863.9	4470
864.032	4344
864.164	4447
864.296	4508
864.428	4554
864.559	4542
864.691	4577
864.823	4535
864.954	4500
865.086	4523
865.217	4508
865.349	4481
865.48	4489
865.612	4531
865.743	4656
865.875	4474
866.006	4459
866.137	4508
866.269	4428
866.4	4443
866.531	4409
866.662	4451
866.793	4440
866.924	4493
867.055	4550
867.186	4489
867.317	4436
867.448	4398
867.579	4413
867.71	4432
867.841	4367
867.972	4504
868.103	4497
868.233	4462
868.364	4493
868.495	4535
868.625	4729
868.756	4763
868.886	4622
869.017	4656
869.147	4778
869.278	4801
869.408	4721
869.539	4683
869.669	4790
869.799	4710
869.929	4759
870.06	4759
870.19	4980
870.32	5003
870.45	4923
870.58	5098
870.71	5090
870.84	5117
870.97	4953
871.1	4923
871.23	5227
871.36	5136
871.489	5071
871.619	5124
871.749	5109
871.879	5166
872.008	5204
872.138	5086
872.267	5003
872.397	4854
872.526	4850
872.656	4763
872.785	4862
872.915	4980
873.044	5041
873.173	4987
873.303	4965
873.432	4991
873.561	5045
873.69	4930
873.819	4889
873.948	4946
874.077	4881
874.206	4820
874.335	4816
874.464	4968
874.593	5064
874.722	4999
874.851	5079
874.979	5105
875.108	5075
875.237	4957
875.365	4873
875.494	4923
875.623	5014
875.751	4816
875.88	4900
876.008	4976
876.136	5064
876.265	5231
876.393	5395
876.521	5288
876.65	5273
876.778	5208
876.906	5079
877.034	5064
877.162	5090
877.29	5029
877.418	5067
877.546	5071
877.674	5067
877.802	5075
877.93	5075
878.058	4968
878.185	4889
878.313	4999
878.441	4980
878.568	4854
878.696	4911
878.824	5033
878.951	5048
879.079	5105
879.206	5334
879.333	5098
879.461	5041
879.588	5071
879.715	5128
879.842	5193
879.97	5060
880.097	4774
880.224	4755
880.351	4847
880.478	4873
880.605	4797
880.732	4847
880.859	5075
880.986	4953
881.112	4972
881.239	4812
881.366	4679
881.493	4656
881.619	4679
881.746	4656
881.872	4683
881.999	4691
882.125	4694
882.252	4782
882.378	4858
882.505	4930
882.631	4809
882.757	4714
882.883	4771
883.01	4790
883.136	4660
883.262	4618
883.388	4694
883.514	4831
883.64	4927
883.766	4774
883.892	4664
884.018	4729
884.143	4854
884.269	5045
884.395	4672
884.52	4645
884.646	4702
884.772	4611
884.897	4615
885.023	4721
885.148	4797
885.274	4915
885.399	4858
885.524	4752
885.65	4740
885.775	4763
885.9	4752
886.025	4877
886.15	4790
886.275	4748
886.4	4691
886.525	4748
886.65	4740
886.775	4656
886.9	4915
887.025	5037
887.149	4820
887.274	4653
887.399	4634
887.523	4641
887.648	4569
887.773	4622
887.897	4771
888.021	4782
888.146	4694
888.27	4831
888.395	4911
888.519	4793
888.643	4816
888.767	4904
888.891	4691
889.015	4637
889.139	4679
889.263	4607
889.387	4790
889.511	4911
889.635	4763
889.759	4672
889.883	4717
890.006	4774
890.13	4805
890.254	4630
890.377	4660
890.501	4573
890.624	4538
890.748	4649
890.871	4538
890.995	4470
891.118	4413
891.241	4516
891.364	4538
891.488	4679
891.611	4516
891.734	4538
891.857	4622
891.98	4588
892.103	4634
892.226	4630
892.349	4535
892.471	4447
892.594	4546
892.717	4611
892.839	4592
892.962	4641
893.085	4744
893.207	4588
893.33	4443
893.452	4519
893.575	4679
893.697	4550
893.819	4797
893.941	4877
894.064	4748
894.186	4626
894.308	4550
894.43	4763
894.552	4843
894.674	4755
894.796	4519
894.918	4660
895.04	4573
895.161	4698
895.283	4664
895.405	4573
895.526	4694
895.648	4668
895.769	4691
895.891	4710
896.012	4755
896.134	4717
896.255	4691
896.376	4698
896.498	4668
896.619	4664
896.74	4660
896.861	4668
896.982	4908
897.103	5117
897.224	4866
897.345	4763
897.466	4725
897.587	4733
897.708	4885
897.828	4820
897.949	4672
898.07	4577
898.19	4656
898.311	4862
898.431	4687
898.552	4809
898.672	4786
898.792	4847
898.913	4733
899.033	4645
899.153	4500
899.273	4417
899.393	4485
899.513	4527
899.633	4531
899.753	4584
899.873	4538
899.993	4580
900.113	4519
900.232	4626
900.352	4592
900.472	4462
900.591	4432
900.711	4516
900.83	4447
900.95	4588
901.069	4702
901.189	4565
901.308	4394
901.427	4310
901.546	4390
901.665	4531
901.784	4573
901.904	4394
902.023	4310
902.141	4219
902.26	4223
902.379	4306
902.498	4230
902.617	4253
902.735	4383
902.854	4440
902.973	4344
903.091	4272
903.21	4242
903.328	4310
903.446	4257
903.565	4280
903.683	4310
903.801	4284
903.919	4455
904.038	4436
904.156	4363
904.274	4440
904.392	4398
904.51	4462
904.627	4508
904.745	4599
904.863	4649
904.981	4424
905.098	4329
905.216	4398
905.334	4432
905.451	4409
905.569	4455
905.686	4588
905.803	4538
905.921	4413
906.038	4554
906.155	4455
906.272	4417
906.389	4504
906.506	4367
906.623	4371
906.74	4428
906.857	4352
906.974	4383
907.091	4577
907.208	4668
907.324	4599
907.441	4500
907.557	4348
907.674	4314
907.79	4314
907.907	4394
908.023	4481
908.139	4462
908.256	4386
908.372	4497
908.488	4451
908.604	4352
908.72	4367
908.836	4436
908.952	4394
909.068	4428
909.184	4592
909.3	4542
909.415	4550
909.531	4569
909.647	4348
909.762	4402
909.878	4348
909.993	4436
910.108	4432
910.224	4447
910.339	4462
910.454	4402
910.57	4367
910.685	4299
910.8	4645
910.915	4649
911.03	4516
911.145	4333
911.259	4337
911.374	4398
911.489	4310
911.604	4303
911.718	4196
911.833	4215
911.947	4048
912.062	4025
912.176	4211
912.291	4257
912.405	4253
912.519	4504
912.633	4481
912.748	4405
912.862	4341
912.976	4207
913.09	4093
913.204	4215
913.318	4253
913.431	4394
913.545	4367
913.659	4413
913.772	4356
913.886	4261
914	4261
914.113	4356
914.226	4421
914.34	4417
914.453	4234
914.566	4413
914.68	4329
914.793	4333
914.906	4188
915.019	4162
915.132	4112
915.245	4204
915.358	4223
915.47	4257
915.583	4223
915.696	4306
915.809	4451
915.921	4405
916.034	4268
916.146	4272
916.259	4227
916.371	4398
916.483	4375
916.595	4253
916.708	4352
916.82	4390
916.932	4314
917.044	4375
917.156	4284
917.268	4310
917.38	4318
917.491	4299
917.603	4333
917.715	4466
917.826	4443
917.938	4325
918.049	4242
918.161	4379
918.272	4504
918.384	4516
918.495	4481
918.606	4310
918.717	4249
918.828	4375
918.939	4375
919.05	4246
919.161	4325
919.272	4162
919.383	4242
919.494	4455
919.604	4683
919.715	4398
919.826	4367
919.936	4421
920.047	4523
920.157	4436
920.267	4691
920.378	4584
920.488	4512
920.598	4683
920.708	4862
920.818	4782
920.928	4782
921.038	4968
921.148	4965
921.258	4664
921.368	4558
921.477	4569
921.587	4455
921.697	4363
921.806	4569
921.916	4424
922.025	4268
922.134	4291
922.244	4223
922.353	4325
922.462	4120
922.571	4067
922.68	4025
922.789	3949
922.898	4082
923.007	3994
923.116	4120
923.224	4071
923.333	4074
923.442	3991
923.55	3953
923.659	4071
923.767	4067
923.876	3991
923.984	4128
924.092	4006
924.201	4097
924.309	4090
924.417	4147
924.525	4044
924.633	4082
924.741	5045
924.849	3892
924.956	4143
925.064	3998
925.172	3915
925.279	3937
925.387	4055
925.494	4071
925.602	4185
925.709	4192
925.816	4074
925.924	4154
926.031	4215
926.138	4109
926.245	4230
926.352	4109
926.459	4284
926.566	4318
926.673	4150
926.779	4067
926.886	4128
926.993	4006
927.099	3998
927.206	3968
927.312	3956
927.419	4067
927.525	3960
927.631	4074
927.737	3991
927.843	3953
927.95	3850
928.056	3915
928.162	3975
928.267	4051
928.373	4679
928.479	4143
928.585	3869
928.69	3994
928.796	4097
928.901	3926
929.007	3854
929.112	3979
929.218	3972
929.323	3937
929.428	3930
929.533	4082
929.638	3888
929.743	4010
929.848	4048
929.953	3994
930.058	3903
930.163	3762
930.267	3846
930.372	3998
930.477	3789
930.581	4067
930.685	3953
930.79	3800
930.894	3888
930.998	3892
931.103	4025
931.207	3675
931.311	3663
931.415	3667
931.519	3504
931.623	3538
