Data from test_V78500241_2830.txt Node
Date: Fri Mar 25 17:08:40 CST 2022
User: usil
Spectrometer: V785-0024
Trigger mode: 0
Integration Time (sec): 4.000000E-1
Scans to average: 1
Nonlinearity correction enabled: false
Boxcar width: 0
Storing dark spectrum: false
XAxis mode: Wavelengths
Number of Pixels in Spectrum: 1024
>>>>>Begin Spectral Data<<<<<
801.071	8081
801.214	8043
801.356	7932
801.499	7845
801.641	7864
801.783	7902
801.926	7978
802.068	7997
802.211	7909
802.353	8069
802.496	7894
802.638	7959
802.78	7928
802.923	7890
803.065	7890
803.208	7902
803.35	8020
803.492	8096
803.635	8221
803.777	8054
803.919	8180
804.061	8480
804.204	8161
804.346	8077
804.488	8016
804.63	8130
804.773	7967
804.915	8119
805.057	8324
805.199	8157
805.341	8214
805.483	8370
805.626	8248
805.768	8176
805.91	8237
806.052	8256
806.194	8172
806.336	8347
806.478	8199
806.62	8126
806.762	8168
806.904	8248
807.046	8522
807.188	8446
807.33	8343
807.472	8377
807.614	8221
807.756	8256
807.898	8058
808.04	7898
808.182	7970
808.324	7951
808.465	7959
808.607	8142
808.749	8191
808.891	8282
809.033	8317
809.174	8294
809.316	8103
809.458	8096
809.6	8054
809.741	8058
809.883	8103
810.025	8172
810.166	8195
810.308	8081
810.45	8065
810.591	7925
810.733	7780
810.875	7761
811.016	7578
811.158	7601
811.299	7700
811.441	7753
811.582	7769
811.724	7734
811.865	7620
812.007	7613
812.148	7647
812.29	7761
812.431	7753
812.573	7925
812.714	8092
812.855	8145
812.997	8240
813.138	8339
813.279	8206
813.421	8168
813.562	8043
813.703	7940
813.845	7746
813.986	7563
814.127	7369
814.268	7274
814.41	7297
814.551	7202
814.692	7240
814.833	7164
814.974	7084
815.115	7149
815.256	7000
815.397	6973
815.539	6993
815.68	6875
815.821	6886
815.962	6954
816.103	6878
816.244	6783
816.385	6627
816.526	6662
816.666	6566
816.807	6365
816.948	6498
817.089	6498
817.23	6464
817.371	6494
817.512	6464
817.653	6452
817.793	6441
817.934	6475
818.075	6601
818.216	6452
818.356	6448
818.497	6296
818.638	6175
818.778	6197
818.919	6201
819.06	6186
819.2	6361
819.341	6319
819.481	6372
819.622	6589
819.762	6768
819.903	6757
820.043	6688
820.184	6601
820.324	6646
820.465	6738
820.605	6722
820.746	6707
820.886	6631
821.026	6677
821.167	6783
821.307	6798
821.447	6863
821.588	6563
821.728	6608
821.868	6532
822.008	6342
822.149	6506
822.289	6433
822.429	6152
822.569	6144
822.709	6182
822.849	5942
822.99	5973
823.13	5996
823.27	6041
823.41	5844
823.55	5824
823.69	5733
823.83	5805
823.97	5695
824.11	5581
824.25	5532
824.389	5566
824.529	5604
824.669	5554
824.809	5661
824.949	5630
825.089	5608
825.228	5630
825.368	5425
825.508	5410
825.648	5387
825.787	5383
825.927	5387
826.067	5322
826.206	5311
826.346	5440
826.485	5448
826.625	5425
826.765	5532
826.904	5558
827.044	5269
827.183	5261
827.323	5189
827.462	5284
827.601	5231
827.741	5231
827.88	5280
828.02	5185
828.159	5265
828.298	5280
828.437	5379
828.577	5284
828.716	5516
828.855	5376
828.994	5181
829.134	5193
829.273	5201
829.412	5166
829.551	5121
829.69	5216
829.829	5258
829.968	5406
830.107	5334
830.246	5239
830.385	5212
830.524	5159
830.663	5105
830.802	4999
830.941	4908
831.08	4892
831.219	5033
831.357	4984
831.496	5155
831.635	4953
831.774	4870
831.913	4900
832.051	4759
832.19	4736
832.329	4870
832.467	4702
832.606	4683
832.744	4774
832.883	4698
833.022	4740
833.16	4793
833.299	4870
833.437	4915
833.576	4835
833.714	4854
833.852	4904
833.991	4881
834.129	4949
834.267	4942
834.406	4908
834.544	5041
834.682	5048
834.821	4934
834.959	5197
835.097	4972
835.235	5189
835.373	5178
835.511	5132
835.65	5079
835.788	5071
835.926	4908
836.064	4911
836.202	4957
836.34	5212
836.478	5254
836.615	5121
836.753	5258
836.891	5277
837.029	5322
837.167	5242
837.305	5174
837.443	5166
837.58	5102
837.718	5280
837.856	5212
837.993	5220
838.131	5250
838.269	5242
838.406	5204
838.544	5193
838.681	5060
838.819	5064
838.956	4900
839.094	4915
839.231	4991
839.369	5136
839.506	5474
839.643	5261
839.781	5060
839.918	5029
840.055	5136
840.193	5124
840.33	5121
840.467	5170
840.604	5239
840.742	5467
840.879	5117
841.016	5143
841.153	5216
841.29	5341
841.427	5341
841.564	5311
841.701	5330
841.838	5311
841.975	5284
842.112	5318
842.249	5185
842.385	5075
842.522	5337
842.659	5185
842.796	5155
842.933	5250
843.069	5140
843.206	5189
843.343	5303
843.479	5280
843.616	5303
843.752	5003
843.889	5045
844.025	5254
844.162	4995
844.298	5269
844.435	5041
844.571	5094
844.708	5159
844.844	5357
844.98	5383
845.117	5284
845.253	5193
845.389	5117
845.525	5193
845.661	5159
845.798	5064
845.934	5159
846.07	5071
846.206	5242
846.342	5307
846.478	5170
846.614	5045
846.75	4965
846.886	4961
847.022	5121
847.158	5010
847.294	5067
847.429	5102
847.565	5064
847.701	5349
847.837	4938
847.972	4797
848.108	4991
848.244	4938
848.379	4831
848.515	4786
848.65	4744
848.786	4725
848.921	4805
849.057	4892
849.192	4915
849.328	4854
849.463	4896
849.598	4797
849.734	4778
849.869	4687
850.004	4599
850.14	4736
850.275	4679
850.41	4565
850.545	4637
850.68	4675
850.815	4618
850.95	4599
851.085	4870
851.22	4786
851.355	4660
851.49	4637
851.625	4649
851.76	4649
851.895	4603
852.03	4561
852.165	4660
852.299	4706
852.434	4839
852.569	4790
852.703	4748
852.838	4828
852.973	4904
853.107	5010
853.242	4706
853.376	4702
853.511	4573
853.645	4645
853.78	4809
853.914	4687
854.048	4675
854.183	4645
854.317	4721
854.451	4885
854.585	4675
854.72	4641
854.854	4820
854.988	4637
855.122	4672
855.256	4535
855.39	4672
855.524	4774
855.658	4729
855.792	4721
855.926	4740
856.06	4767
856.194	4771
856.327	4736
856.461	4596
856.595	4630
856.729	4702
856.862	4797
856.996	4694
857.13	4736
857.263	4774
857.397	4771
857.53	4641
857.664	4771
857.797	4816
857.931	4812
858.064	4725
858.197	4710
858.331	4672
858.464	4618
858.597	4565
858.731	4649
858.864	4653
858.997	4592
859.13	4653
859.263	4664
859.396	4710
859.529	4596
859.662	4558
859.795	4519
859.928	4611
860.061	4801
860.194	4740
860.327	4687
860.46	4603
860.592	4706
860.725	4767
860.858	4774
860.99	4550
861.123	4519
861.256	4599
861.388	4630
861.521	5341
861.653	4546
861.786	4504
861.918	4504
862.05	4508
862.183	4577
862.315	4573
862.447	4653
862.58	4584
862.712	4405
862.844	4337
862.976	4485
863.108	4424
863.24	4763
863.372	4322
863.504	4417
863.636	4356
863.768	4504
863.9	4455
864.032	4398
864.164	4409
864.296	4508
864.428	4561
864.559	4599
864.691	4478
864.823	4523
864.954	4478
865.086	4485
865.217	4478
865.349	4390
865.48	4485
865.612	4546
865.743	4702
865.875	4466
866.006	4474
866.137	4497
866.269	4428
866.4	4497
866.531	4447
866.662	4424
866.793	4440
866.924	4386
867.055	4516
867.186	4417
867.317	4424
867.448	4383
867.579	4386
867.71	4386
867.841	4394
867.972	4497
868.103	4474
868.233	4447
868.364	4466
868.495	4535
868.625	4672
868.756	4771
868.886	4584
869.017	4668
869.147	4786
869.278	4771
869.408	4706
869.539	4664
869.669	4736
869.799	4683
869.929	4778
870.06	4752
870.19	4968
870.32	4961
870.45	4949
870.58	5052
870.71	5121
870.84	5113
870.97	4930
871.1	4946
871.23	5113
871.36	5128
871.489	4976
871.619	5083
871.749	5109
871.879	5185
872.008	5166
872.138	5064
872.267	4946
872.397	4923
872.526	4835
872.656	4736
872.785	4847
872.915	4991
873.044	5056
873.173	4953
873.303	4961
873.432	4968
873.561	4972
873.69	4889
873.819	4870
873.948	4866
874.077	4790
874.206	4793
874.335	4812
874.464	4946
874.593	5064
874.722	4980
874.851	5178
874.979	5052
875.108	5014
875.237	4961
875.365	4927
875.494	4889
875.623	4999
875.751	4831
875.88	4915
876.008	5006
876.136	5025
876.265	5220
876.393	5341
876.521	5220
876.65	5223
876.778	5166
876.906	5079
877.034	5045
877.162	5067
877.29	5003
877.418	5041
877.546	5090
877.674	5048
877.802	5056
877.93	5041
878.058	4938
878.185	4858
878.313	4980
878.441	4942
878.568	4797
878.696	4850
878.824	4915
878.951	5010
879.079	5143
879.206	5284
879.333	5143
879.461	5014
879.588	4999
879.715	5124
879.842	5227
879.97	5003
880.097	4847
880.224	4767
880.351	4820
880.478	4835
880.605	4828
880.732	4782
880.859	5067
880.986	4923
881.112	4896
881.239	4801
881.366	4683
881.493	4630
881.619	4561
881.746	4668
881.872	4694
881.999	4672
882.125	4691
882.252	4809
882.378	4828
882.505	4938
882.631	4782
882.757	4683
882.883	4725
883.01	4710
883.136	4672
883.262	4596
883.388	4592
883.514	4843
883.64	4854
883.766	4816
883.892	4694
884.018	4694
884.143	4896
884.269	5014
884.395	4683
884.52	4660
884.646	4675
884.772	4626
884.897	4596
885.023	4691
885.148	4771
885.274	4862
885.399	4835
885.524	4744
885.65	4683
885.775	4820
885.9	4740
886.025	4809
886.15	4797
886.275	4706
886.4	4645
886.525	4736
886.65	4653
886.775	4752
886.9	4877
887.025	4980
887.149	4850
887.274	4656
887.399	4554
887.523	4569
887.648	4599
887.773	4603
887.897	4786
888.021	4782
888.146	4687
888.27	4820
888.395	4877
888.519	4824
888.643	4873
888.767	4831
888.891	4675
889.015	4626
889.139	4653
889.263	4573
889.387	4729
889.511	4843
889.635	4809
889.759	4615
889.883	4668
890.006	4752
890.13	4820
890.254	4637
890.377	4706
890.501	4615
890.624	4512
890.748	4622
890.871	4527
890.995	4421
891.118	4375
891.241	4527
891.364	4531
891.488	4649
891.611	4447
891.734	4565
891.857	4626
891.98	4546
892.103	4656
892.226	4546
892.349	4504
892.471	4413
892.594	4573
892.717	4588
892.839	4603
892.962	4637
893.085	4687
893.207	4596
893.33	4493
893.452	4565
893.575	4691
893.697	4577
893.819	4812
893.941	4850
894.064	4744
894.186	4607
894.308	4596
894.43	4714
894.552	4790
894.674	4801
894.796	4546
894.918	4592
895.04	4538
895.161	4725
895.283	4656
895.405	4618
895.526	4641
895.648	4675
895.769	4683
895.891	4721
896.012	4729
896.134	4672
896.255	4672
896.376	4634
896.498	4618
896.619	4618
896.74	4634
896.861	4675
896.982	4892
897.103	5067
897.224	4801
897.345	4763
897.466	4672
897.587	4748
897.708	4809
897.828	4782
897.949	4653
898.07	4573
898.19	4607
898.311	4839
898.431	4714
898.552	4771
898.672	4816
898.792	4812
898.913	4782
899.033	4592
899.153	4516
899.273	4402
899.393	4478
899.513	4485
899.633	4519
899.753	4542
899.873	4474
899.993	4630
900.113	4546
900.232	4588
900.352	4527
900.472	4489
900.591	4436
900.711	4474
900.83	4432
900.95	4603
901.069	4683
901.189	4535
901.308	4386
901.427	4329
901.546	4367
901.665	4451
901.784	4546
901.904	4383
902.023	4303
902.141	4215
902.26	4166
902.379	4303
902.498	4287
902.617	4219
902.735	4421
902.854	4390
902.973	4314
903.091	4173
903.21	4246
903.328	4303
903.446	4280
903.565	4268
903.683	4348
903.801	4287
903.919	4440
904.038	4459
904.156	4295
904.274	4402
904.392	4379
904.51	4443
904.627	4512
904.745	4588
904.863	4622
904.981	4436
905.098	4318
905.216	4329
905.334	4428
905.451	4489
905.569	4402
905.686	4512
905.803	4538
905.921	4383
906.038	4485
906.155	4470
906.272	4390
906.389	4409
906.506	4379
906.623	4421
906.74	4451
906.857	4322
906.974	4390
907.091	4546
907.208	4626
907.324	4622
907.441	4523
907.557	4310
907.674	4344
907.79	4329
907.907	4383
908.023	4497
908.139	4470
908.256	4459
908.372	4462
908.488	4432
908.604	4356
908.72	4375
908.836	4375
908.952	4402
909.068	4417
909.184	4538
909.3	4428
909.415	4603
909.531	4546
909.647	4367
909.762	4390
909.878	4352
909.993	4443
910.108	4409
910.224	4394
910.339	4493
910.454	4417
910.57	4337
910.685	4329
910.8	4702
910.915	4607
911.03	4512
911.145	4363
911.259	4318
911.374	4398
911.489	4276
911.604	4299
911.718	4169
911.833	4181
911.947	4063
912.062	4002
912.176	4227
912.291	4249
912.405	4268
912.519	4504
912.633	4558
912.748	4329
912.862	4341
912.976	4196
913.09	4131
913.204	4181
913.318	4280
913.431	4379
913.545	4348
913.659	4436
913.772	4352
913.886	4242
914	4215
914.113	4348
914.226	4409
914.34	4440
914.453	4265
914.566	4432
914.68	4356
914.793	4314
914.906	4120
915.019	4101
915.132	4116
915.245	4162
915.358	4207
915.47	4223
915.583	4249
915.696	4287
915.809	4413
915.921	4497
916.034	4272
916.146	4303
916.259	4230
916.371	4363
916.483	4371
916.595	4303
916.708	4272
916.82	4341
916.932	4303
917.044	4280
917.156	4356
917.268	4249
917.38	4272
917.491	4268
917.603	4363
917.715	4455
917.826	4440
917.938	4341
918.049	4230
918.161	4371
918.272	4580
918.384	4542
918.495	4489
918.606	4322
918.717	4276
918.828	4337
918.939	4390
919.05	4234
919.161	4306
919.272	4112
919.383	4238
919.494	4466
919.604	4637
919.715	4432
919.826	4383
919.936	4363
920.047	4523
920.157	4466
920.267	4664
920.378	4554
920.488	4478
920.598	4744
920.708	4862
920.818	4771
920.928	4763
921.038	4972
921.148	4889
921.258	4618
921.368	4538
921.477	4538
921.587	4409
921.697	4363
921.806	4531
921.916	4474
922.025	4284
922.134	4265
922.244	4249
922.353	4333
922.462	4211
922.571	4124
922.68	4029
922.789	3975
922.898	3998
923.007	3983
923.116	4097
923.224	4055
923.333	4078
923.442	3968
923.55	3979
923.659	4025
923.767	4120
923.876	3994
923.984	4154
924.092	3983
924.201	4105
924.309	4082
924.417	4101
924.525	4010
924.633	4128
924.741	4885
924.849	3934
924.956	4063
925.064	3975
925.172	3915
925.279	3975
925.387	4093
925.494	4051
925.602	4242
925.709	4192
925.816	4048
925.924	4078
926.031	4188
926.138	4143
926.245	4173
926.352	4105
926.459	4246
926.566	4306
926.673	4154
926.779	4093
926.886	4101
926.993	3964
927.099	3941
927.206	3964
927.312	4021
927.419	4036
927.525	4044
927.631	4051
927.737	4006
927.843	3975
927.95	3831
928.056	3915
928.162	3975
928.267	4010
928.373	4611
928.479	4067
928.585	3850
928.69	4006
928.796	4078
928.901	3968
929.007	3884
929.112	4021
929.218	4010
929.323	3926
929.428	3934
929.533	4074
929.638	3907
929.743	3956
929.848	4025
929.953	4017
930.058	3983
930.163	3819
930.267	3854
930.372	3972
930.477	3766
930.581	4105
930.685	3960
930.79	3819
930.894	3857
930.998	3861
931.103	4048
931.207	3728
931.311	3667
931.415	3679
931.519	3523
931.623	3564
