Data from test_V78500241_176.txt Node
Date: Fri Mar 25 16:50:13 CST 2022
User: usil
Spectrometer: V785-0024
Trigger mode: 0
Integration Time (sec): 4.000000E-1
Scans to average: 1
Nonlinearity correction enabled: false
Boxcar width: 0
Storing dark spectrum: false
XAxis mode: Wavelengths
Number of Pixels in Spectrum: 1024
>>>>>Begin Spectral Data<<<<<
801.071	8069
801.214	7982
801.356	7868
801.499	7803
801.641	7792
801.783	7803
801.926	7967
802.068	7947
802.211	7932
802.353	8016
802.496	7909
802.638	7921
802.78	7909
802.923	7917
803.065	7830
803.208	7887
803.35	7978
803.492	8050
803.635	8142
803.777	8016
803.919	8035
804.061	8339
804.204	8092
804.346	7921
804.488	7902
804.63	8035
804.773	8020
804.915	8111
805.057	8279
805.199	8119
805.341	8161
805.483	8195
805.626	8164
805.768	8039
805.91	8214
806.052	8202
806.194	8024
806.336	8282
806.478	8077
806.62	8031
806.762	8054
806.904	8229
807.046	8427
807.188	8313
807.33	8279
807.472	8305
807.614	8149
807.756	8115
807.898	8016
808.04	7887
808.182	7890
808.324	7898
808.465	7879
808.607	8031
808.749	8016
808.891	8229
809.033	8301
809.174	8153
809.316	8016
809.458	8008
809.6	7940
809.741	8008
809.883	8020
810.025	8111
810.166	8069
810.308	8035
810.45	7951
810.591	7822
810.733	7746
810.875	7674
811.016	7529
811.158	7518
811.299	7601
811.441	7715
811.582	7708
811.724	7594
811.865	7540
812.007	7616
812.148	7636
812.29	7647
812.431	7719
812.573	7947
812.714	8043
812.855	8210
812.997	8233
813.138	8396
813.279	8164
813.421	8100
813.562	7982
813.703	7830
813.845	7738
813.986	7438
814.127	7274
814.268	7255
814.41	7194
814.551	7171
814.692	7209
814.833	7133
814.974	7137
815.115	7118
815.256	6993
815.397	6947
815.539	6981
815.68	6882
815.821	6818
815.962	6928
816.103	6753
816.244	6669
816.385	6673
816.526	6623
816.666	6589
816.807	6296
816.948	6464
817.089	6464
817.23	6441
817.371	6372
817.512	6407
817.653	6372
817.793	6323
817.934	6448
818.075	6429
818.216	6448
818.356	6426
818.497	6232
818.638	6068
818.778	6140
818.919	6117
819.06	6117
819.2	6338
819.341	6247
819.481	6319
819.622	6513
819.762	6726
819.903	6654
820.043	6601
820.184	6623
820.324	6551
820.465	6639
820.605	6662
820.746	6669
820.886	6536
821.026	6688
821.167	6764
821.307	6760
821.447	6684
821.588	6696
821.728	6547
821.868	6486
822.008	6292
822.149	6391
822.289	6353
822.429	6136
822.569	6072
822.709	6106
822.849	5874
822.99	5897
823.13	5874
823.27	5893
823.41	5794
823.55	5756
823.69	5802
823.83	5752
823.97	5684
824.11	5493
824.25	5554
824.389	5554
824.529	5558
824.669	5524
824.809	5611
824.949	5676
825.089	5653
825.228	5577
825.368	5372
825.508	5383
825.648	5353
825.787	5391
825.927	5372
826.067	5326
826.206	5307
826.346	5368
826.485	5364
826.625	5440
826.765	5551
826.904	5463
827.044	5292
827.183	5212
827.323	5170
827.462	5292
827.601	5162
827.741	5159
827.88	5246
828.02	5166
828.159	5299
828.298	5273
828.437	5360
828.577	5250
828.716	5474
828.855	5334
828.994	5189
829.134	5151
829.273	5193
829.412	5197
829.551	5162
829.69	5223
829.829	5318
829.968	5436
830.107	5326
830.246	5307
830.385	5231
830.524	5208
830.663	5132
830.802	4980
830.941	4949
831.08	4904
831.219	5029
831.357	5006
831.496	5193
831.635	4938
831.774	4870
831.913	4896
832.051	4694
832.19	4740
832.329	4896
832.467	4733
832.606	4687
832.744	4809
832.883	4847
833.022	4755
833.16	4835
833.299	4889
833.437	4854
833.576	4881
833.714	4881
833.852	4923
833.991	4946
834.129	4984
834.267	5102
834.406	5014
834.544	4995
834.682	5003
834.821	5018
834.959	5223
835.097	5033
835.235	5208
835.373	5147
835.511	5136
835.65	5086
835.788	5037
835.926	4934
836.064	4942
836.202	4968
836.34	5227
836.478	5273
836.615	5170
836.753	5277
836.891	5372
837.029	5220
837.167	5227
837.305	5246
837.443	5178
837.58	5155
837.718	5258
837.856	5250
837.993	5250
838.131	5235
838.269	5269
838.406	5284
838.544	5231
838.681	5064
838.819	5014
838.956	4911
839.094	4949
839.231	5067
839.369	5147
839.506	5452
839.643	5315
839.781	5109
839.918	5060
840.055	5121
840.193	5117
840.33	5128
840.467	5212
840.604	5250
840.742	5501
840.879	5121
841.016	5113
841.153	5189
841.29	5471
841.427	5436
841.564	5414
841.701	5402
841.838	5360
841.975	5330
842.112	5261
842.249	5189
842.385	5155
842.522	5414
842.659	5220
842.796	5193
842.933	5227
843.069	5201
843.206	5189
843.343	5349
843.479	5273
843.616	5265
843.752	5102
843.889	5105
844.025	5239
844.162	5029
844.298	5208
844.435	5124
844.571	5098
844.708	5227
844.844	5330
844.98	5383
845.117	5376
845.253	5189
845.389	5162
845.525	5197
845.661	5197
845.798	5094
845.934	5128
846.07	5075
846.206	5220
846.342	5311
846.478	5193
846.614	5090
846.75	5014
846.886	4972
847.022	5185
847.158	5045
847.294	5079
847.429	5128
847.565	5060
847.701	5372
847.837	4915
847.972	4889
848.108	5022
848.244	4972
848.379	4839
848.515	4790
848.65	4782
848.786	4771
848.921	4820
849.057	4904
849.192	4938
849.328	4847
849.463	4847
849.598	4870
849.734	4771
849.869	4748
850.004	4660
850.14	4752
850.275	4596
850.41	4592
850.545	4596
850.68	4637
850.815	4698
850.95	4626
851.085	4923
851.22	4809
851.355	4687
851.49	4675
851.625	4622
851.76	4698
851.895	4630
852.03	4580
852.165	4721
852.299	4729
852.434	4828
852.569	4805
852.703	4816
852.838	4854
852.973	4965
853.107	4949
853.242	4782
853.376	4683
853.511	4573
853.645	4660
853.78	4805
853.914	4725
854.048	4729
854.183	4694
854.317	4725
854.451	4915
854.585	4752
854.72	4664
854.854	4824
854.988	4626
855.122	4679
855.256	4554
855.39	4698
855.524	4805
855.658	4767
855.792	4744
855.926	4805
856.06	4839
856.194	4828
856.327	4687
856.461	4668
856.595	4679
856.729	4637
856.862	4809
856.996	4797
857.13	4763
857.263	4774
857.397	4847
857.53	4729
857.664	4847
857.797	4831
857.931	4831
858.064	4752
858.197	4771
858.331	4683
858.464	4672
858.597	4577
858.731	4691
858.864	4706
858.997	4596
859.13	4664
859.263	4729
859.396	4774
859.529	4607
859.662	4618
859.795	4596
859.928	4641
860.061	4797
860.194	4812
860.327	4672
860.46	4603
860.592	4755
860.725	4755
860.858	4809
860.99	4660
861.123	4546
861.256	4558
861.388	4626
861.521	5433
861.653	4485
861.786	4481
861.918	4500
862.05	4561
862.183	4584
862.315	4626
862.447	4698
862.58	4561
862.712	4470
862.844	4367
862.976	4516
863.108	4485
863.24	4919
863.372	4341
863.504	4459
863.636	4459
863.768	4523
863.9	4481
864.032	4413
864.164	4440
864.296	4512
864.428	4554
864.559	4622
864.691	4611
864.823	4565
864.954	4531
865.086	4531
865.217	4508
865.349	4455
865.48	4470
865.612	4523
865.743	4656
865.875	4558
866.006	4443
866.137	4504
866.269	4512
866.4	4451
866.531	4508
866.662	4432
866.793	4428
866.924	4489
867.055	4538
867.186	4489
867.317	4417
867.448	4390
867.579	4398
867.71	4424
867.841	4432
867.972	4481
868.103	4497
868.233	4493
868.364	4554
868.495	4531
868.625	4645
868.756	4767
868.886	4592
869.017	4615
869.147	4824
869.278	4877
869.408	4721
869.539	4664
869.669	4767
869.799	4702
869.929	4755
870.06	4740
870.19	4976
870.32	4965
870.45	4991
870.58	5045
870.71	5140
870.84	5117
870.97	4957
871.1	4915
871.23	5239
871.36	5216
871.489	5090
871.619	5113
871.749	5113
871.879	5174
872.008	5212
872.138	5071
872.267	4991
872.397	4877
872.526	4854
872.656	4755
872.785	4858
872.915	5033
873.044	5056
873.173	5003
873.303	5022
873.432	4995
873.561	4995
873.69	4919
873.819	4850
873.948	4946
874.077	4824
874.206	4812
874.335	4831
874.464	4957
874.593	5109
874.722	4980
874.851	5140
874.979	5151
875.108	5098
875.237	4946
875.365	4862
875.494	4949
875.623	5037
875.751	4816
875.88	4927
876.008	5029
876.136	4995
876.265	5239
876.393	5349
876.521	5273
876.65	5273
876.778	5204
876.906	5117
877.034	5041
877.162	5064
877.29	5060
877.418	5094
877.546	5041
877.674	5067
877.802	5064
877.93	5022
878.058	4965
878.185	4900
878.313	5014
878.441	4934
878.568	4831
878.696	4900
878.824	4999
878.951	5037
879.079	5136
879.206	5326
879.333	5166
879.461	5033
879.588	4995
879.715	5136
879.842	5261
879.97	5029
880.097	4805
880.224	4736
880.351	4843
880.478	4919
880.605	4877
880.732	4839
880.859	5159
880.986	4915
881.112	5018
881.239	4828
881.366	4691
881.493	4626
881.619	4596
881.746	4687
881.872	4691
881.999	4694
882.125	4748
882.252	4801
882.378	4831
882.505	4946
882.631	4854
882.757	4694
882.883	4763
883.01	4687
883.136	4630
883.262	4668
883.388	4672
883.514	4862
883.64	4904
883.766	4835
883.892	4721
884.018	4759
884.143	4927
884.269	5064
884.395	4744
884.52	4637
884.646	4725
884.772	4569
884.897	4611
885.023	4683
885.148	4843
885.274	4904
885.399	4839
885.524	4736
885.65	4744
885.775	4809
885.9	4752
886.025	4862
886.15	4847
886.275	4721
886.4	4744
886.525	4721
886.65	4675
886.775	4801
886.9	4942
887.025	5056
887.149	4843
887.274	4717
887.399	4596
887.523	4679
887.648	4630
887.773	4641
887.897	4725
888.021	4801
888.146	4725
888.27	4809
888.395	4942
888.519	4805
888.643	4843
888.767	4904
888.891	4679
889.015	4672
889.139	4645
889.263	4653
889.387	4801
889.511	4877
889.635	4824
889.759	4679
889.883	4691
890.006	4755
890.13	4858
890.254	4630
890.377	4744
890.501	4516
890.624	4535
890.748	4668
890.871	4531
890.995	4481
891.118	4424
891.241	4577
891.364	4603
891.488	4649
891.611	4512
891.734	4546
891.857	4664
891.98	4565
892.103	4668
892.226	4611
892.349	4573
892.471	4500
892.594	4622
892.717	4569
892.839	4588
892.962	4618
893.085	4736
893.207	4580
893.33	4493
893.452	4565
893.575	4710
893.697	4634
893.819	4805
893.941	4809
894.064	4790
894.186	4596
894.308	4584
894.43	4767
894.552	4881
894.674	4778
894.796	4596
894.918	4577
895.04	4580
895.161	4740
895.283	4653
895.405	4641
895.526	4622
895.648	4717
895.769	4702
895.891	4714
896.012	4767
896.134	4759
896.255	4763
896.376	4603
896.498	4660
896.619	4702
896.74	4634
896.861	4710
896.982	4934
897.103	5128
897.224	4843
897.345	4755
897.466	4698
897.587	4721
897.708	4850
897.828	4752
897.949	4683
898.07	4535
898.19	4664
898.311	4870
898.431	4672
898.552	4702
898.672	4767
898.792	4790
898.913	4786
899.033	4656
899.153	4497
899.273	4474
899.393	4527
899.513	4538
899.633	4561
899.753	4596
899.873	4523
899.993	4596
900.113	4554
900.232	4626
900.352	4599
900.472	4542
900.591	4424
900.711	4459
900.83	4428
900.95	4664
901.069	4702
901.189	4565
901.308	4394
901.427	4352
901.546	4417
901.665	4500
901.784	4523
901.904	4386
902.023	4322
902.141	4207
902.26	4188
902.379	4295
902.498	4310
902.617	4268
902.735	4398
902.854	4447
902.973	4428
903.091	4249
903.21	4253
903.328	4344
903.446	4295
903.565	4291
903.683	4390
903.801	4306
903.919	4432
904.038	4516
904.156	4371
904.274	4493
904.392	4500
904.51	4481
904.627	4485
904.745	4607
904.863	4672
904.981	4466
905.098	4371
905.216	4325
905.334	4459
905.451	4489
905.569	4523
905.686	4641
905.803	4656
905.921	4523
906.038	4622
906.155	4588
906.272	4474
906.389	4504
906.506	4451
906.623	4402
906.74	4466
906.857	4421
906.974	4424
907.091	4622
907.208	4752
907.324	4668
907.441	4561
907.557	4405
907.674	4383
907.79	4383
907.907	4436
908.023	4519
908.139	4569
908.256	4466
908.372	4531
908.488	4519
908.604	4432
908.72	4371
908.836	4402
908.952	4478
909.068	4489
909.184	4626
909.3	4527
909.415	4653
909.531	4649
909.647	4417
909.762	4466
909.878	4447
909.993	4489
910.108	4447
910.224	4451
910.339	4535
910.454	4485
910.57	4421
910.685	4383
910.8	4729
910.915	4641
911.03	4565
911.145	4371
911.259	4398
911.374	4405
911.489	4322
911.604	4371
911.718	4265
911.833	4253
911.947	4177
912.062	4101
912.176	4276
912.291	4333
912.405	4348
912.519	4519
912.633	4554
912.748	4417
912.862	4383
912.976	4227
913.09	4139
913.204	4265
913.318	4299
913.431	4363
913.545	4432
913.659	4478
913.772	4428
913.886	4306
914	4238
914.113	4413
914.226	4470
914.34	4440
914.453	4299
914.566	4508
914.68	4356
914.793	4402
914.906	4200
915.019	4185
915.132	4120
915.245	4242
915.358	4314
915.47	4337
915.583	4352
915.696	4367
915.809	4436
915.921	4481
916.034	4306
916.146	4291
916.259	4272
916.371	4436
916.483	4413
916.595	4363
916.708	4363
916.82	4413
916.932	4367
917.044	4428
917.156	4360
917.268	4280
917.38	4333
917.491	4322
917.603	4398
917.715	4451
917.826	4481
917.938	4375
918.049	4341
918.161	4440
918.272	4565
918.384	4637
918.495	4462
918.606	4390
918.717	4295
918.828	4367
918.939	4394
919.05	4287
919.161	4394
919.272	4211
919.383	4314
919.494	4512
919.604	4668
919.715	4493
919.826	4386
919.936	4443
920.047	4577
920.157	4554
920.267	4809
920.378	4596
920.488	4527
920.598	4786
920.708	4961
920.818	4778
920.928	4820
921.038	4980
921.148	4946
921.258	4645
921.368	4611
921.477	4558
921.587	4519
921.697	4455
921.806	4599
921.916	4466
922.025	4306
922.134	4284
922.244	4246
922.353	4341
922.462	4185
922.571	4207
922.68	4044
922.789	4017
922.898	4109
923.007	4010
923.116	4147
923.224	4131
923.333	4154
923.442	4006
923.55	4013
923.659	4040
923.767	4158
923.876	4063
923.984	4147
924.092	4036
924.201	4109
924.309	4147
924.417	4109
924.525	4090
924.633	4166
924.741	4942
924.849	3975
924.956	4154
925.064	4021
925.172	3903
925.279	4002
925.387	4063
925.494	4109
925.602	4257
925.709	4223
925.816	4090
925.924	4147
926.031	4276
926.138	4238
926.245	4227
926.352	4166
926.459	4337
926.566	4352
926.673	4192
926.779	4131
926.886	4139
926.993	4029
927.099	4059
927.206	3983
927.312	4010
927.419	4097
927.525	4063
927.631	4128
927.737	4013
927.843	3987
927.95	3903
928.056	3983
928.162	4006
928.267	4086
928.373	4752
928.479	4181
928.585	3899
928.69	4044
928.796	4150
928.901	4036
929.007	3911
929.112	4032
929.218	4025
929.323	3979
929.428	3998
929.533	4143
929.638	3987
929.743	4044
929.848	4036
929.953	4013
930.058	4017
930.163	3842
930.267	3861
930.372	4051
930.477	3869
930.581	4112
930.685	3956
930.79	3854
930.894	3949
930.998	3884
931.103	4067
931.207	3743
931.311	3740
931.415	3728
931.519	3587
931.623	3633
