Data from test_V78500241_2815.txt Node
Date: Fri Mar 25 17:08:34 CST 2022
User: usil
Spectrometer: V785-0024
Trigger mode: 0
Integration Time (sec): 4.000000E-1
Scans to average: 1
Nonlinearity correction enabled: false
Boxcar width: 0
Storing dark spectrum: false
XAxis mode: Wavelengths
Number of Pixels in Spectrum: 1024
>>>>>Begin Spectral Data<<<<<
801.071	8012
801.214	8039
801.356	7951
801.499	7883
801.641	7852
801.783	7811
801.926	7982
802.068	7890
802.211	7928
802.353	7959
802.496	7951
802.638	7955
802.78	7947
802.923	7974
803.065	7906
803.208	7822
803.35	8005
803.492	8111
803.635	8161
803.777	8069
803.919	8168
804.061	8431
804.204	8199
804.346	8062
804.488	7989
804.63	8142
804.773	7997
804.915	8115
805.057	8240
805.199	8157
805.341	8225
805.483	8240
805.626	8271
805.768	8100
805.91	8172
806.052	8233
806.194	8103
806.336	8305
806.478	8164
806.62	8054
806.762	8180
806.904	8263
807.046	8454
807.188	8358
807.33	8324
807.472	8355
807.614	8210
807.756	8157
807.898	8077
808.04	7947
808.182	7932
808.324	7963
808.465	7970
808.607	8081
808.749	8176
808.891	8275
809.033	8374
809.174	8240
809.316	8164
809.458	8134
809.6	7997
809.741	8065
809.883	8065
810.025	8130
810.166	8069
810.308	8001
810.45	8008
810.591	7852
810.733	7833
810.875	7681
811.016	7563
811.158	7571
811.299	7552
811.441	7769
811.582	7727
811.724	7529
811.865	7559
812.007	7620
812.148	7613
812.29	7651
812.431	7788
812.573	7860
812.714	8062
812.855	8191
812.997	8259
813.138	8393
813.279	8210
813.421	8183
813.562	8043
813.703	7890
813.845	7769
813.986	7499
814.127	7350
814.268	7278
814.41	7202
814.551	7137
814.692	7190
814.833	7095
814.974	7133
815.115	7118
815.256	7015
815.397	6947
815.539	6966
815.68	6814
815.821	6840
815.962	6848
816.103	6859
816.244	6764
816.385	6631
816.526	6631
816.666	6517
816.807	6300
816.948	6475
817.089	6475
817.23	6467
817.371	6429
817.512	6365
817.653	6376
817.793	6350
817.934	6456
818.075	6414
818.216	6407
818.356	6437
818.497	6308
818.638	6167
818.778	6182
818.919	6194
819.06	6182
819.2	6372
819.341	6331
819.481	6403
819.622	6593
819.762	6734
819.903	6711
820.043	6593
820.184	6608
820.324	6604
820.465	6753
820.605	6753
820.746	6673
820.886	6464
821.026	6658
821.167	6635
821.307	6791
821.447	6730
821.588	6726
821.728	6528
821.868	6517
822.008	6357
822.149	6334
822.289	6376
822.429	6159
822.569	6110
822.709	6148
822.849	5908
822.99	5950
823.13	5969
823.27	5874
823.41	5802
823.55	5828
823.69	5771
823.83	5771
823.97	5695
824.11	5539
824.25	5566
824.389	5539
824.529	5532
824.669	5505
824.809	5665
824.949	5646
825.089	5600
825.228	5509
825.368	5410
825.508	5330
825.648	5349
825.787	5391
825.927	5357
826.067	5334
826.206	5288
826.346	5402
826.485	5395
826.625	5383
826.765	5592
826.904	5463
827.044	5261
827.183	5204
827.323	5102
827.462	5292
827.601	5212
827.741	5212
827.88	5216
828.02	5121
828.159	5242
828.298	5311
828.437	5364
828.577	5258
828.716	5509
828.855	5307
828.994	5174
829.134	5162
829.273	5170
829.412	5162
829.551	5143
829.69	5147
829.829	5193
829.968	5345
830.107	5307
830.246	5254
830.385	5166
830.524	5086
830.663	5102
830.802	4984
830.941	4885
831.08	4919
831.219	5003
831.357	5025
831.496	5128
831.635	4953
831.774	4828
831.913	4881
832.051	4729
832.19	4729
832.329	4858
832.467	4675
832.606	4691
832.744	4683
832.883	4740
833.022	4736
833.16	4809
833.299	4847
833.437	4858
833.576	4839
833.714	4843
833.852	4828
833.991	4923
834.129	4972
834.267	4934
834.406	4877
834.544	5003
834.682	5014
834.821	4987
834.959	5208
835.097	4995
835.235	5128
835.373	5083
835.511	5102
835.65	5018
835.788	5022
835.926	4896
836.064	4889
836.202	4961
836.34	5159
836.478	5174
836.615	5143
836.753	5181
836.891	5273
837.029	5250
837.167	5159
837.305	5121
837.443	5143
837.58	5083
837.718	5208
837.856	5166
837.993	5155
838.131	5193
838.269	5223
838.406	5181
838.544	5216
838.681	5025
838.819	5025
838.956	4949
839.094	4896
839.231	4942
839.369	5128
839.506	5417
839.643	5284
839.781	5067
839.918	5010
840.055	5132
840.193	5102
840.33	5128
840.467	5102
840.604	5147
840.742	5410
840.879	5075
841.016	5094
841.153	5140
841.29	5376
841.427	5368
841.564	5299
841.701	5379
841.838	5280
841.975	5258
842.112	5277
842.249	5132
842.385	5128
842.522	5326
842.659	5185
842.796	5147
842.933	5212
843.069	5143
843.206	5189
843.343	5318
843.479	5231
843.616	5239
843.752	5037
843.889	5025
844.025	5216
844.162	5090
844.298	5250
844.435	5079
844.571	5071
844.708	5231
844.844	5318
844.98	5353
845.117	5288
845.253	5117
845.389	5140
845.525	5174
845.661	5124
845.798	4976
845.934	5151
846.07	5056
846.206	5239
846.342	5299
846.478	5155
846.614	5029
846.75	4980
846.886	4946
847.022	5136
847.158	5029
847.294	5113
847.429	5109
847.565	5071
847.701	5307
847.837	4866
847.972	4866
848.108	4976
848.244	4881
848.379	4801
848.515	4740
848.65	4736
848.786	4759
848.921	4740
849.057	4904
849.192	4923
849.328	4778
849.463	4915
849.598	4801
849.734	4771
849.869	4668
850.004	4653
850.14	4698
850.275	4588
850.41	4542
850.545	4554
850.68	4596
850.815	4626
850.95	4626
851.085	4854
851.22	4683
851.355	4668
851.49	4664
851.625	4611
851.76	4675
851.895	4577
852.03	4558
852.165	4645
852.299	4683
852.434	4778
852.569	4702
852.703	4809
852.838	4831
852.973	4915
853.107	4900
853.242	4774
853.376	4710
853.511	4565
853.645	4630
853.78	4805
853.914	4691
854.048	4615
854.183	4641
854.317	4710
854.451	4870
854.585	4687
854.72	4653
854.854	4805
854.988	4634
855.122	4675
855.256	4535
855.39	4687
855.524	4771
855.658	4717
855.792	4649
855.926	4729
856.06	4740
856.194	4771
856.327	4664
856.461	4615
856.595	4607
856.729	4580
856.862	4717
856.996	4710
857.13	4725
857.263	4752
857.397	4805
857.53	4645
857.664	4710
857.797	4771
857.931	4793
858.064	4675
858.197	4736
858.331	4634
858.464	4573
858.597	4516
858.731	4622
858.864	4630
858.997	4580
859.13	4675
859.263	4694
859.396	4668
859.529	4626
859.662	4542
859.795	4538
859.928	4645
860.061	4786
860.194	4771
860.327	4588
860.46	4561
860.592	4710
860.725	4702
860.858	4725
860.99	4538
861.123	4504
861.256	4538
861.388	4573
861.521	5280
861.653	4466
861.786	4451
861.918	4478
862.05	4519
862.183	4561
862.315	4626
862.447	4668
862.58	4565
862.712	4405
862.844	4322
862.976	4489
863.108	4417
863.24	4790
863.372	4329
863.504	4405
863.636	4428
863.768	4466
863.9	4466
864.032	4386
864.164	4375
864.296	4508
864.428	4542
864.559	4588
864.691	4542
864.823	4523
864.954	4474
865.086	4508
865.217	4462
865.349	4398
865.48	4443
865.612	4459
865.743	4637
865.875	4470
866.006	4436
866.137	4443
866.269	4470
866.4	4428
866.531	4375
866.662	4383
866.793	4462
866.924	4421
867.055	4561
867.186	4459
867.317	4390
867.448	4390
867.579	4386
867.71	4375
867.841	4367
867.972	4447
868.103	4436
868.233	4474
868.364	4474
868.495	4474
868.625	4679
868.756	4782
868.886	4611
869.017	4656
869.147	4763
869.278	4767
869.408	4649
869.539	4717
869.669	4683
869.799	4660
869.929	4752
870.06	4763
870.19	4915
870.32	4885
870.45	4965
870.58	4991
870.71	5094
870.84	5056
870.97	4919
871.1	4900
871.23	5113
871.36	5159
871.489	4999
871.619	5033
871.749	5071
871.879	5136
872.008	5151
872.138	5079
872.267	4991
872.397	4824
872.526	4824
872.656	4694
872.785	4805
872.915	4961
873.044	4965
873.173	4915
873.303	4972
873.432	4968
873.561	4915
873.69	4877
873.819	4900
873.948	4923
874.077	4812
874.206	4740
874.335	4793
874.464	4908
874.593	5048
874.722	4938
874.851	5117
874.979	5037
875.108	5025
875.237	4923
875.365	4854
875.494	4915
875.623	4987
875.751	4816
875.88	4881
876.008	4900
876.136	5018
876.265	5151
876.393	5303
876.521	5292
876.65	5242
876.778	5132
876.906	5048
877.034	5025
877.162	5117
877.29	4999
877.418	5052
877.546	5025
877.674	5052
877.802	5018
877.93	5018
878.058	4934
878.185	4892
878.313	5006
878.441	4968
878.568	4805
878.696	4873
878.824	4953
878.951	4984
879.079	5143
879.206	5357
879.333	5086
879.461	4980
879.588	5025
879.715	5056
879.842	5265
879.97	5025
880.097	4759
880.224	4774
880.351	4824
880.478	4843
880.605	4812
880.732	4820
880.859	5121
880.986	4896
881.112	4881
881.239	4831
881.366	4649
881.493	4622
881.619	4603
881.746	4611
881.872	4645
881.999	4630
882.125	4668
882.252	4771
882.378	4831
882.505	4915
882.631	4835
882.757	4683
882.883	4752
883.01	4702
883.136	4656
883.262	4573
883.388	4596
883.514	4828
883.64	4870
883.766	4752
883.892	4664
884.018	4691
884.143	4930
884.269	5006
884.395	4698
884.52	4542
884.646	4691
884.772	4630
884.897	4538
885.023	4656
885.148	4812
885.274	4831
885.399	4778
885.524	4687
885.65	4748
885.775	4778
885.9	4656
886.025	4847
886.15	4755
886.275	4698
886.4	4679
886.525	4683
886.65	4653
886.775	4656
886.9	4930
887.025	5010
887.149	4839
887.274	4656
887.399	4588
887.523	4550
887.648	4584
887.773	4618
887.897	4755
888.021	4778
888.146	4656
888.27	4782
888.395	4938
888.519	4805
888.643	4786
888.767	4831
888.891	4729
889.015	4626
889.139	4672
889.263	4641
889.387	4774
889.511	4850
889.635	4797
889.759	4645
889.883	4653
890.006	4752
890.13	4793
890.254	4634
890.377	4615
890.501	4554
890.624	4493
890.748	4660
890.871	4527
890.995	4424
891.118	4405
891.241	4531
891.364	4558
891.488	4588
891.611	4519
891.734	4516
891.857	4630
891.98	4554
892.103	4626
892.226	4592
892.349	4550
892.471	4344
892.594	4565
892.717	4588
892.839	4607
892.962	4618
893.085	4672
893.207	4634
893.33	4481
893.452	4519
893.575	4668
893.697	4577
893.819	4816
893.941	4782
894.064	4824
894.186	4535
894.308	4618
894.43	4725
894.552	4786
894.674	4748
894.796	4558
894.918	4603
895.04	4565
895.161	4710
895.283	4641
895.405	4584
895.526	4611
895.648	4710
895.769	4675
895.891	4710
896.012	4748
896.134	4702
896.255	4653
896.376	4607
896.498	4630
896.619	4637
896.74	4645
896.861	4588
896.982	4946
897.103	5071
897.224	4847
897.345	4767
897.466	4656
897.587	4736
897.708	4866
897.828	4790
897.949	4634
898.07	4535
898.19	4653
898.311	4816
898.431	4672
898.552	4725
898.672	4793
898.792	4805
898.913	4744
899.033	4645
899.153	4459
899.273	4413
899.393	4478
899.513	4546
899.633	4569
899.753	4542
899.873	4519
899.993	4565
900.113	4500
900.232	4542
900.352	4561
900.472	4493
900.591	4375
900.711	4478
900.83	4432
900.95	4607
901.069	4630
901.189	4554
901.308	4333
901.427	4325
901.546	4337
901.665	4474
901.784	4481
901.904	4421
902.023	4295
902.141	4128
902.26	4162
902.379	4261
902.498	4230
902.617	4253
902.735	4371
902.854	4383
902.973	4344
903.091	4192
903.21	4246
903.328	4291
903.446	4280
903.565	4249
903.683	4375
903.801	4303
903.919	4405
904.038	4398
904.156	4337
904.274	4405
904.392	4398
904.51	4443
904.627	4459
904.745	4554
904.863	4641
904.981	4402
905.098	4299
905.216	4363
905.334	4390
905.451	4409
905.569	4436
905.686	4527
905.803	4569
905.921	4424
906.038	4554
906.155	4512
906.272	4383
906.389	4462
906.506	4341
906.623	4363
906.74	4367
906.857	4322
906.974	4344
907.091	4588
907.208	4694
907.324	4584
907.441	4519
907.557	4379
907.674	4303
907.79	4409
907.907	4352
908.023	4504
908.139	4584
908.256	4462
908.372	4462
908.488	4462
908.604	4337
908.72	4379
908.836	4341
908.952	4394
909.068	4451
909.184	4538
909.3	4489
909.415	4561
909.531	4516
909.647	4394
909.762	4367
909.878	4295
909.993	4455
910.108	4371
910.224	4462
910.339	4512
910.454	4432
910.57	4360
910.685	4303
910.8	4664
910.915	4554
911.03	4485
911.145	4344
911.259	4284
911.374	4367
911.489	4276
911.604	4272
911.718	4162
911.833	4234
911.947	4093
912.062	4048
912.176	4246
912.291	4207
912.405	4227
912.519	4504
912.633	4519
912.748	4356
912.862	4322
912.976	4185
913.09	4082
913.204	4185
913.318	4265
913.431	4329
913.545	4341
913.659	4417
913.772	4375
913.886	4261
914	4234
914.113	4352
914.226	4436
914.34	4409
914.453	4207
914.566	4470
914.68	4333
914.793	4352
914.906	4158
915.019	4143
915.132	4051
915.245	4154
915.358	4162
915.47	4276
915.583	4280
915.696	4310
915.809	4405
915.921	4413
916.034	4223
916.146	4238
916.259	4177
916.371	4394
916.483	4360
916.595	4272
916.708	4329
916.82	4333
916.932	4337
917.044	4299
917.156	4352
917.268	4272
917.38	4291
917.491	4306
917.603	4367
917.715	4405
917.826	4413
917.938	4333
918.049	4204
918.161	4386
918.272	4504
918.384	4523
918.495	4462
918.606	4291
918.717	4280
918.828	4337
918.939	4375
919.05	4238
919.161	4314
919.272	4154
919.383	4257
919.494	4481
919.604	4630
919.715	4470
919.826	4329
919.936	4394
920.047	4516
920.157	4447
920.267	4752
920.378	4535
920.488	4500
920.598	4729
920.708	4896
920.818	4736
920.928	4778
921.038	4946
921.148	4915
921.258	4672
921.368	4569
921.477	4527
921.587	4417
921.697	4405
921.806	4561
921.916	4447
922.025	4253
922.134	4246
922.244	4265
922.353	4318
922.462	4223
922.571	4173
922.68	3991
922.789	3979
922.898	4006
923.007	4025
923.116	4063
923.224	4044
923.333	4097
923.442	3983
923.55	3972
923.659	4013
923.767	4147
923.876	3994
923.984	4071
924.092	4002
924.201	4055
924.309	4093
924.417	4128
924.525	4051
924.633	4135
924.741	4862
924.849	3926
924.956	4112
925.064	3941
925.172	3918
925.279	3945
925.387	4040
925.494	4013
925.602	4185
925.709	4158
925.816	4048
925.924	4116
926.031	4223
926.138	4196
926.245	4185
926.352	4131
926.459	4219
926.566	4371
926.673	4154
926.779	4116
926.886	4059
926.993	3991
927.099	3964
927.206	3922
927.312	3972
927.419	4071
927.525	4010
927.631	4128
927.737	3956
927.843	3926
927.95	3797
928.056	3975
928.162	3994
928.267	3991
928.373	4626
928.479	4086
928.585	3876
928.69	4025
928.796	4067
928.901	3937
929.007	3823
929.112	3979
929.218	3987
929.323	3945
929.428	3949
929.533	4093
929.638	3903
929.743	3941
929.848	4059
929.953	3994
930.058	3949
930.163	3759
930.267	3838
930.372	3945
930.477	3827
930.581	4059
930.685	3949
930.79	3800
930.894	3876
930.998	3854
931.103	4040
931.207	3751
931.311	3663
931.415	3644
931.519	3534
931.623	3580
