Data from test_V78500241_1492.txt Node
Date: Fri Mar 25 16:59:22 CST 2022
User: usil
Spectrometer: V785-0024
Trigger mode: 0
Integration Time (sec): 4.000000E-1
Scans to average: 1
Nonlinearity correction enabled: false
Boxcar width: 0
Storing dark spectrum: false
XAxis mode: Wavelengths
Number of Pixels in Spectrum: 1024
>>>>>Begin Spectral Data<<<<<
801.071	8001
801.214	7978
801.356	7803
801.499	7898
801.641	7868
801.783	7799
801.926	7978
802.068	7955
802.211	8020
802.353	7989
802.496	7837
802.638	7955
802.78	7871
802.923	7963
803.065	7864
803.208	7750
803.35	7970
803.492	8115
803.635	8161
803.777	8046
803.919	8157
804.061	8427
804.204	8176
804.346	8027
804.488	7982
804.63	8077
804.773	7989
804.915	8126
805.057	8259
805.199	8206
805.341	8252
805.483	8275
805.626	8157
805.768	8130
805.91	8214
806.052	8225
806.194	8096
806.336	8355
806.478	8092
806.62	8012
806.762	8176
806.904	8271
807.046	8469
807.188	8381
807.33	8332
807.472	8290
807.614	8233
807.756	8107
807.898	7978
808.04	7875
808.182	7925
808.324	7917
808.465	7925
808.607	8088
808.749	8088
808.891	8142
809.033	8324
809.174	8240
809.316	8035
809.458	8065
809.6	8043
809.741	7997
809.883	8005
810.025	8031
810.166	8103
810.308	8024
810.45	7932
810.591	7852
810.733	7757
810.875	7753
811.016	7556
811.158	7499
811.299	7624
811.441	7693
811.582	7662
811.724	7609
811.865	7556
812.007	7571
812.148	7594
812.29	7613
812.431	7742
812.573	7856
812.714	7986
812.855	8054
812.997	8195
813.138	8279
813.279	8123
813.421	8100
813.562	8001
813.703	7856
813.845	7723
813.986	7369
814.127	7225
814.268	7244
814.41	7187
814.551	7240
814.692	7187
814.833	7133
814.974	7095
815.115	7084
815.256	6966
815.397	6878
815.539	6951
815.68	6913
815.821	6787
815.962	6848
816.103	6871
816.244	6757
816.385	6570
816.526	6566
816.666	6540
816.807	6350
816.948	6464
817.089	6429
817.23	6429
817.371	6410
817.512	6399
817.653	6403
817.793	6388
817.934	6460
818.075	6395
818.216	6429
818.356	6407
818.497	6292
818.638	6102
818.778	6144
818.919	6106
819.06	6194
819.2	6285
819.341	6372
819.481	6414
819.622	6532
819.762	6726
819.903	6722
820.043	6578
820.184	6570
820.324	6639
820.465	6650
820.605	6677
820.746	6612
820.886	6513
821.026	6658
821.167	6749
821.307	6787
821.447	6726
821.588	6688
821.728	6585
821.868	6528
822.008	6304
822.149	6399
822.289	6372
822.429	6186
822.569	6129
822.709	6114
822.849	5889
822.99	5889
823.13	5908
823.27	5973
823.41	5813
823.55	5786
823.69	5775
823.83	5805
823.97	5634
824.11	5543
824.25	5516
824.389	5532
824.529	5592
824.669	5497
824.809	5657
824.949	5710
825.089	5554
825.228	5611
825.368	5395
825.508	5311
825.648	5398
825.787	5337
825.927	5436
826.067	5315
826.206	5353
826.346	5387
826.485	5414
826.625	5379
826.765	5581
826.904	5482
827.044	5292
827.183	5178
827.323	5155
827.462	5277
827.601	5155
827.741	5159
827.88	5254
828.02	5083
828.159	5265
828.298	5395
828.437	5357
828.577	5284
828.716	5463
828.855	5326
828.994	5170
829.134	5109
829.273	5223
829.412	5136
829.551	5105
829.69	5197
829.829	5212
829.968	5360
830.107	5299
830.246	5284
830.385	5174
830.524	5105
830.663	5037
830.802	4946
830.941	4896
831.08	4904
831.219	4968
831.357	4957
831.496	5143
831.635	4885
831.774	4828
831.913	4854
832.051	4702
832.19	4759
832.329	4847
832.467	4687
832.606	4603
832.744	4672
832.883	4736
833.022	4714
833.16	4740
833.299	4809
833.437	4850
833.576	4816
833.714	4820
833.852	4793
833.991	4896
834.129	4949
834.267	4938
834.406	4934
834.544	4972
834.682	4968
834.821	4972
834.959	5128
835.097	4976
835.235	5181
835.373	5083
835.511	5147
835.65	5010
835.788	4999
835.926	4870
836.064	4862
836.202	4965
836.34	5143
836.478	5258
836.615	5140
836.753	5193
836.891	5265
837.029	5254
837.167	5143
837.305	5208
837.443	5136
837.58	5109
837.718	5223
837.856	5216
837.993	5109
838.131	5201
838.269	5239
838.406	5201
838.544	5227
838.681	5048
838.819	5003
838.956	4911
839.094	4911
839.231	4961
839.369	5105
839.506	5425
839.643	5212
839.781	5045
839.918	4999
840.055	5102
840.193	5136
840.33	5086
840.467	5136
840.604	5197
840.742	5433
840.879	5060
841.016	5064
841.153	5140
841.29	5318
841.427	5353
841.564	5307
841.701	5315
841.838	5273
841.975	5197
842.112	5239
842.249	5098
842.385	5105
842.522	5296
842.659	5174
842.796	5147
842.933	5189
843.069	5174
843.206	5102
843.343	5296
843.479	5181
843.616	5269
843.752	5071
843.889	5041
844.025	5216
844.162	5048
844.298	5185
844.435	5056
844.571	5045
844.708	5216
844.844	5315
844.98	5322
845.117	5280
845.253	5162
845.389	5121
845.525	5181
845.661	5124
845.798	5060
845.934	5136
846.07	5056
846.206	5174
846.342	5280
846.478	5162
846.614	5056
846.75	4915
846.886	4934
847.022	5174
847.158	5010
847.294	5033
847.429	5121
847.565	4999
847.701	5334
847.837	4858
847.972	4774
848.108	4961
848.244	4896
848.379	4786
848.515	4748
848.65	4717
848.786	4744
848.921	4828
849.057	4854
849.192	4930
849.328	4801
849.463	4892
849.598	4790
849.734	4786
849.869	4706
850.004	4626
850.14	4672
850.275	4622
850.41	4554
850.545	4588
850.68	4683
850.815	4641
850.95	4607
851.085	4843
851.22	4706
851.355	4679
851.49	4554
851.625	4626
851.76	4645
851.895	4527
852.03	4550
852.165	4679
852.299	4672
852.434	4782
852.569	4744
852.703	4717
852.838	4801
852.973	4885
853.107	4927
853.242	4717
853.376	4679
853.511	4550
853.645	4615
853.78	4771
853.914	4702
854.048	4653
854.183	4653
854.317	4710
854.451	4801
854.585	4714
854.72	4637
854.854	4721
854.988	4519
855.122	4645
855.256	4497
855.39	4656
855.524	4812
855.658	4725
855.792	4653
855.926	4733
856.06	4725
856.194	4755
856.327	4649
856.461	4641
856.595	4596
856.729	4607
856.862	4767
856.996	4679
857.13	4744
857.263	4755
857.397	4767
857.53	4596
857.664	4687
857.797	4790
857.931	4786
858.064	4691
858.197	4736
858.331	4679
858.464	4637
858.597	4527
858.731	4645
858.864	4622
858.997	4599
859.13	4660
859.263	4668
859.396	4706
859.529	4561
859.662	4508
859.795	4558
859.928	4653
860.061	4805
860.194	4748
860.327	4622
860.46	4546
860.592	4733
860.725	4725
860.858	4702
860.99	4622
861.123	4462
861.256	4508
861.388	4634
861.521	5341
861.653	4523
861.786	4462
861.918	4421
862.05	4535
862.183	4523
862.315	4569
862.447	4615
862.58	4550
862.712	4436
862.844	4348
862.976	4474
863.108	4440
863.24	4831
863.372	4318
863.504	4371
863.636	4356
863.768	4440
863.9	4451
864.032	4371
864.164	4394
864.296	4504
864.428	4535
864.559	4535
864.691	4550
864.823	4489
864.954	4531
865.086	4512
865.217	4432
865.349	4417
865.48	4523
865.612	4470
865.743	4599
865.875	4497
866.006	4398
866.137	4455
866.269	4436
866.4	4428
866.531	4398
866.662	4417
866.793	4402
866.924	4398
867.055	4512
867.186	4447
867.317	4421
867.448	4310
867.579	4402
867.71	4386
867.841	4318
867.972	4459
868.103	4459
868.233	4402
868.364	4443
868.495	4466
868.625	4656
868.756	4774
868.886	4519
869.017	4611
869.147	4717
869.278	4774
869.408	4679
869.539	4649
869.669	4717
869.799	4645
869.929	4790
870.06	4752
870.19	4965
870.32	4919
870.45	4946
870.58	5029
870.71	5083
870.84	5090
870.97	4896
871.1	4908
871.23	5102
871.36	5166
871.489	5022
871.619	5022
871.749	5109
871.879	5117
872.008	5140
872.138	5071
872.267	4961
872.397	4870
872.526	4805
872.656	4736
872.785	4828
872.915	4911
873.044	5018
873.173	4896
873.303	4896
873.432	4949
873.561	4972
873.69	4835
873.819	4889
873.948	4896
874.077	4774
874.206	4755
874.335	4778
874.464	4870
874.593	5045
874.722	4961
874.851	5037
874.979	5014
875.108	5045
875.237	4915
875.365	4820
875.494	4881
875.623	4984
875.751	4816
875.88	4892
876.008	4991
876.136	5048
876.265	5185
876.393	5280
876.521	5242
876.65	5250
876.778	5216
876.906	5060
877.034	5003
877.162	5029
877.29	5003
877.418	5056
877.546	5014
877.674	5071
877.802	5045
877.93	5048
878.058	4987
878.185	4858
878.313	4919
878.441	4919
878.568	4786
878.696	4889
878.824	4965
878.951	5018
879.079	5181
879.206	5269
879.333	5128
879.461	4995
879.588	4976
879.715	5105
879.842	5242
879.97	4999
880.097	4828
880.224	4752
880.351	4812
880.478	4847
880.605	4759
880.732	4786
880.859	5109
880.986	4911
881.112	4900
881.239	4797
881.366	4641
881.493	4603
881.619	4558
881.746	4603
881.872	4615
881.999	4645
882.125	4694
882.252	4740
882.378	4805
882.505	4980
882.631	4748
882.757	4691
882.883	4687
883.01	4748
883.136	4580
883.262	4584
883.388	4577
883.514	4774
883.64	4850
883.766	4782
883.892	4660
884.018	4706
884.143	4892
884.269	5014
884.395	4691
884.52	4634
884.646	4698
884.772	4656
884.897	4531
885.023	4668
885.148	4740
885.274	4850
885.399	4801
885.524	4714
885.65	4660
885.775	4714
885.9	4675
886.025	4885
886.15	4790
886.275	4687
886.4	4668
886.525	4702
886.65	4641
886.775	4672
886.9	4831
887.025	5086
887.149	4812
887.274	4660
887.399	4531
887.523	4607
887.648	4561
887.773	4596
887.897	4733
888.021	4793
888.146	4694
888.27	4850
888.395	4904
888.519	4793
888.643	4812
888.767	4873
888.891	4664
889.015	4618
889.139	4668
889.263	4527
889.387	4744
889.511	4828
889.635	4736
889.759	4634
889.883	4660
890.006	4706
890.13	4843
890.254	4611
890.377	4710
890.501	4523
890.624	4523
890.748	4660
890.871	4512
890.995	4455
891.118	4417
891.241	4519
891.364	4573
891.488	4672
891.611	4470
891.734	4569
891.857	4603
891.98	4569
892.103	4637
892.226	4592
892.349	4535
892.471	4383
892.594	4546
892.717	4573
892.839	4516
892.962	4596
893.085	4611
893.207	4588
893.33	4481
893.452	4554
893.575	4675
893.697	4577
893.819	4809
893.941	4824
894.064	4759
894.186	4558
894.308	4519
894.43	4664
894.552	4812
894.674	4790
894.796	4596
894.918	4565
895.04	4554
895.161	4706
895.283	4687
895.405	4569
895.526	4607
895.648	4698
895.769	4607
895.891	4706
896.012	4698
896.134	4691
896.255	4649
896.376	4637
896.498	4615
896.619	4691
896.74	4641
896.861	4653
896.982	4915
897.103	5079
897.224	4774
897.345	4687
897.466	4649
897.587	4698
897.708	4812
897.828	4767
897.949	4679
898.07	4584
898.19	4634
898.311	4862
898.431	4611
898.552	4729
898.672	4771
898.792	4812
898.913	4744
899.033	4622
899.153	4466
899.273	4421
899.393	4497
899.513	4424
899.633	4554
899.753	4531
899.873	4527
899.993	4561
900.113	4519
900.232	4592
900.352	4516
900.472	4478
900.591	4417
900.711	4481
900.83	4413
900.95	4584
901.069	4675
901.189	4535
901.308	4337
901.427	4333
901.546	4322
901.665	4421
901.784	4508
901.904	4360
902.023	4329
902.141	4196
902.26	4169
902.379	4276
902.498	4169
902.617	4211
902.735	4383
902.854	4383
902.973	4352
903.091	4238
903.21	4234
903.328	4314
903.446	4230
903.565	4227
903.683	4310
903.801	4246
903.919	4352
904.038	4424
904.156	4352
904.274	4413
904.392	4379
904.51	4402
904.627	4462
904.745	4565
904.863	4596
904.981	4440
905.098	4268
905.216	4383
905.334	4386
905.451	4405
905.569	4405
905.686	4577
905.803	4538
905.921	4405
906.038	4516
906.155	4516
906.272	4379
906.389	4500
906.506	4341
906.623	4318
906.74	4421
906.857	4310
906.974	4390
907.091	4538
907.208	4687
907.324	4561
907.441	4485
907.557	4375
907.674	4303
907.79	4337
907.907	4375
908.023	4455
908.139	4504
908.256	4447
908.372	4478
908.488	4451
908.604	4299
908.72	4291
908.836	4398
908.952	4348
909.068	4447
909.184	4561
909.3	4489
909.415	4550
909.531	4546
909.647	4379
909.762	4379
909.878	4314
909.993	4455
910.108	4443
910.224	4360
910.339	4535
910.454	4386
910.57	4329
910.685	4276
910.8	4679
910.915	4577
911.03	4447
911.145	4325
911.259	4322
911.374	4371
911.489	4257
911.604	4299
911.718	4150
911.833	4230
911.947	4067
912.062	4067
912.176	4181
912.291	4207
912.405	4242
912.519	4512
912.633	4512
912.748	4367
912.862	4238
912.976	4215
913.09	4101
913.204	4120
913.318	4192
913.431	4363
913.545	4394
913.659	4409
913.772	4348
913.886	4230
914	4211
914.113	4383
914.226	4432
914.34	4379
914.453	4227
914.566	4436
914.68	4291
914.793	4291
914.906	4139
915.019	4097
915.132	4048
915.245	4169
915.358	4173
915.47	4238
915.583	4246
915.696	4291
915.809	4394
915.921	4398
916.034	4230
916.146	4257
916.259	4219
916.371	4352
916.483	4318
916.595	4287
916.708	4280
916.82	4325
916.932	4306
917.044	4325
917.156	4303
917.268	4196
917.38	4268
917.491	4276
917.603	4341
917.715	4413
917.826	4398
917.938	4379
918.049	4242
918.161	4375
918.272	4546
918.384	4546
918.495	4409
918.606	4291
918.717	4257
918.828	4314
918.939	4356
919.05	4230
919.161	4272
919.272	4097
919.383	4185
919.494	4459
919.604	4618
919.715	4417
919.826	4344
919.936	4386
920.047	4500
920.157	4485
920.267	4645
920.378	4546
920.488	4470
920.598	4744
920.708	4889
920.818	4790
920.928	4714
921.038	4885
921.148	4908
921.258	4603
921.368	4588
921.477	4508
921.587	4470
921.697	4405
921.806	4519
921.916	4443
922.025	4303
922.134	4284
922.244	4211
922.353	4295
922.462	4188
922.571	4128
922.68	4048
922.789	3975
922.898	3998
923.007	3983
923.116	4067
923.224	4074
923.333	4055
923.442	4032
923.55	3964
923.659	4036
923.767	4101
923.876	4044
923.984	4101
924.092	4021
924.201	4067
924.309	4124
924.417	4116
924.525	4025
924.633	4074
924.741	4854
924.849	3915
924.956	4112
925.064	3907
925.172	3846
925.279	3945
925.387	4017
925.494	4082
925.602	4227
925.709	4154
925.816	4036
925.924	4166
926.031	4230
926.138	4192
926.245	4158
926.352	4059
926.459	4223
926.566	4295
926.673	4188
926.779	4074
926.886	4131
926.993	3972
927.099	3953
927.206	3926
927.312	3949
927.419	4044
927.525	3991
927.631	4097
927.737	3998
927.843	3964
927.95	3869
928.056	3987
928.162	3994
928.267	4067
928.373	4588
928.479	4112
928.585	3857
928.69	3998
928.796	4074
928.901	3972
929.007	3842
929.112	4010
929.218	4006
929.323	3937
929.428	3918
929.533	4067
929.638	3915
929.743	3960
929.848	3994
929.953	3964
930.058	3922
930.163	3785
930.267	3854
930.372	3968
930.477	3804
930.581	4112
930.685	3964
930.79	3812
930.894	3918
930.998	3861
931.103	4059
931.207	3736
931.311	3705
931.415	3698
931.519	3488
931.623	3519
