Data from test_V78500241_1221.txt Node
Date: Fri Mar 25 16:57:29 CST 2022
User: usil
Spectrometer: V785-0024
Trigger mode: 0
Integration Time (sec): 4.000000E-1
Scans to average: 1
Nonlinearity correction enabled: false
Boxcar width: 0
Storing dark spectrum: false
XAxis mode: Wavelengths
Number of Pixels in Spectrum: 1024
>>>>>Begin Spectral Data<<<<<
801.071	8008
801.214	8005
801.356	7890
801.499	7826
801.641	7792
801.783	7784
801.926	7947
802.068	7860
802.211	7974
802.353	7982
802.496	7871
802.638	7753
802.78	7890
802.923	7974
803.065	7883
803.208	7792
803.35	7928
803.492	8001
803.635	8157
803.777	8001
803.919	8115
804.061	8412
804.204	8134
804.346	8058
804.488	7940
804.63	8050
804.773	7970
804.915	8031
805.057	8298
805.199	8134
805.341	8214
805.483	8275
805.626	8199
805.768	8107
805.91	8183
806.052	8153
806.194	8092
806.336	8294
806.478	8054
806.62	8020
806.762	8138
806.904	8214
807.046	8450
807.188	8396
807.33	8279
807.472	8290
807.614	8176
807.756	8138
807.898	7993
808.04	7902
808.182	7913
808.324	7883
808.465	7894
808.607	8073
808.749	8123
808.891	8157
809.033	8332
809.174	8153
809.316	8020
809.458	8008
809.6	7989
809.741	8027
809.883	8092
810.025	8024
810.166	8088
810.308	8008
810.45	8008
810.591	7837
810.733	7719
810.875	7655
811.016	7510
811.158	7544
811.299	7647
811.441	7738
811.582	7723
811.724	7578
811.865	7556
812.007	7499
812.148	7582
812.29	7590
812.431	7742
812.573	7852
812.714	7967
812.855	8069
812.997	8161
813.138	8290
813.279	8119
813.421	8084
813.562	7993
813.703	7814
813.845	7784
813.986	7388
814.127	7244
814.268	7194
814.41	7228
814.551	7114
814.692	7183
814.833	7034
814.974	7084
815.115	7103
815.256	7019
815.397	6852
815.539	6913
815.68	6791
815.821	6806
815.962	6848
816.103	6829
816.244	6665
816.385	6635
816.526	6601
816.666	6498
816.807	6285
816.948	6395
817.089	6494
817.23	6441
817.371	6391
817.512	6338
817.653	6388
817.793	6327
817.934	6403
818.075	6479
818.216	6483
818.356	6342
818.497	6281
818.638	6079
818.778	6190
818.919	6079
819.06	6133
819.2	6338
819.341	6319
819.481	6372
819.622	6551
819.762	6726
819.903	6707
820.043	6582
820.184	6555
820.324	6544
820.465	6696
820.605	6703
820.746	6662
820.886	6486
821.026	6616
821.167	6658
821.307	6776
821.447	6719
821.588	6707
821.728	6574
821.868	6555
822.008	6319
822.149	6353
822.289	6342
822.429	6171
822.569	6057
822.709	6133
822.849	5866
822.99	5874
823.13	5832
823.27	5916
823.41	5783
823.55	5764
823.69	5748
823.83	5748
823.97	5726
824.11	5524
824.25	5501
824.389	5478
824.529	5589
824.669	5509
824.809	5638
824.949	5665
825.089	5615
825.228	5551
825.368	5376
825.508	5299
825.648	5311
825.787	5349
825.927	5315
826.067	5299
826.206	5299
826.346	5383
826.485	5414
826.625	5334
826.765	5528
826.904	5471
827.044	5265
827.183	5193
827.323	5075
827.462	5246
827.601	5121
827.741	5143
827.88	5204
828.02	5105
828.159	5197
828.298	5296
828.437	5330
828.577	5254
828.716	5448
828.855	5349
828.994	5140
829.134	5151
829.273	5189
829.412	5117
829.551	5109
829.69	5147
829.829	5223
829.968	5383
830.107	5258
830.246	5197
830.385	5162
830.524	5143
830.663	5067
830.802	4984
830.941	4824
831.08	4873
831.219	5018
831.357	4938
831.496	5136
831.635	4904
831.774	4843
831.913	4828
832.051	4736
832.19	4736
832.329	4854
832.467	4714
832.606	4607
832.744	4672
832.883	4733
833.022	4675
833.16	4752
833.299	4805
833.437	4801
833.576	4843
833.714	4866
833.852	4847
833.991	4873
834.129	4911
834.267	4896
834.406	4908
834.544	4980
834.682	5006
834.821	4976
834.959	5166
835.097	4987
835.235	5117
835.373	5079
835.511	5121
835.65	5025
835.788	5018
835.926	4908
836.064	4870
836.202	4908
836.34	5147
836.478	5231
836.615	5117
836.753	5227
836.891	5254
837.029	5223
837.167	5174
837.305	5147
837.443	5151
837.58	5045
837.718	5208
837.856	5216
837.993	5124
838.131	5265
838.269	5239
838.406	5181
838.544	5155
838.681	5025
838.819	4987
838.956	4900
839.094	4949
839.231	4911
839.369	5056
839.506	5395
839.643	5265
839.781	5056
839.918	4991
840.055	5079
840.193	5109
840.33	5109
840.467	5102
840.604	5189
840.742	5436
840.879	5090
841.016	5113
841.153	5128
841.29	5330
841.427	5326
841.564	5239
841.701	5417
841.838	5231
841.975	5227
842.112	5265
842.249	5124
842.385	5079
842.522	5322
842.659	5151
842.796	5098
842.933	5208
843.069	5098
843.206	5216
843.343	5273
843.479	5227
843.616	5246
843.752	5014
843.889	5006
844.025	5174
844.162	5018
844.298	5193
844.435	5086
844.571	5003
844.708	5181
844.844	5368
844.98	5349
845.117	5269
845.253	5136
845.389	5041
845.525	5143
845.661	5185
845.798	5117
845.934	5094
846.07	5048
846.206	5212
846.342	5296
846.478	5170
846.614	5006
846.75	4965
846.886	4927
847.022	5166
847.158	4949
847.294	5025
847.429	5117
847.565	5025
847.701	5292
847.837	4778
847.972	4805
848.108	4953
848.244	4976
848.379	4767
848.515	4748
848.65	4729
848.786	4759
848.921	4790
849.057	4816
849.192	4866
849.328	4812
849.463	4847
849.598	4717
849.734	4740
849.869	4694
850.004	4630
850.14	4664
850.275	4588
850.41	4504
850.545	4554
850.68	4611
850.815	4584
850.95	4618
851.085	4858
851.22	4748
851.355	4706
851.49	4565
851.625	4599
851.76	4607
851.895	4523
852.03	4516
852.165	4637
852.299	4683
852.434	4759
852.569	4763
852.703	4778
852.838	4839
852.973	4911
853.107	4927
853.242	4729
853.376	4653
853.511	4504
853.645	4565
853.78	4729
853.914	4672
854.048	4710
854.183	4615
854.317	4691
854.451	4820
854.585	4672
854.72	4634
854.854	4748
854.988	4603
855.122	4622
855.256	4512
855.39	4664
855.524	4816
855.658	4725
855.792	4675
855.926	4710
856.06	4748
856.194	4801
856.327	4653
856.461	4634
856.595	4622
856.729	4634
856.862	4767
856.996	4694
857.13	4721
857.263	4687
857.397	4801
857.53	4675
857.664	4717
857.797	4763
857.931	4717
858.064	4641
858.197	4740
858.331	4660
858.464	4607
858.597	4554
858.731	4615
858.864	4664
858.997	4596
859.13	4637
859.263	4683
859.396	4672
859.529	4485
859.662	4565
859.795	4527
859.928	4630
860.061	4755
860.194	4778
860.327	4561
860.46	4542
860.592	4710
860.725	4725
860.858	4672
860.99	4535
861.123	4527
861.256	4527
861.388	4615
861.521	5277
861.653	4474
861.786	4432
861.918	4512
862.05	4504
862.183	4580
862.315	4618
862.447	4637
862.58	4493
862.712	4394
862.844	4295
862.976	4474
863.108	4462
863.24	4843
863.372	4306
863.504	4386
863.636	4443
863.768	4489
863.9	4428
864.032	4341
864.164	4390
864.296	4398
864.428	4588
864.559	4527
864.691	4561
864.823	4512
864.954	4451
865.086	4516
865.217	4500
865.349	4432
865.48	4508
865.612	4462
865.743	4622
865.875	4485
866.006	4390
866.137	4421
866.269	4436
866.4	4413
866.531	4383
866.662	4379
866.793	4398
866.924	4405
867.055	4462
867.186	4409
867.317	4451
867.448	4352
867.579	4367
867.71	4371
867.841	4348
867.972	4462
868.103	4455
868.233	4413
868.364	4436
868.495	4462
868.625	4683
868.756	4774
868.886	4588
869.017	4592
869.147	4729
869.278	4714
869.408	4641
869.539	4603
869.669	4683
869.799	4641
869.929	4721
870.06	4706
870.19	4957
870.32	4911
870.45	4915
870.58	4987
870.71	5056
870.84	5098
870.97	4911
871.1	4828
871.23	5140
871.36	5121
871.489	4991
871.619	5056
871.749	5136
871.879	5109
872.008	5105
872.138	5071
872.267	4980
872.397	4858
872.526	4790
872.656	4698
872.785	4790
872.915	4934
873.044	4949
873.173	4927
873.303	4968
873.432	4911
873.561	4927
873.69	4915
873.819	4843
873.948	4870
874.077	4797
874.206	4790
874.335	4767
874.464	4919
874.593	5041
874.722	4949
874.851	5090
874.979	5025
875.108	4968
875.237	4866
875.365	4889
875.494	4900
875.623	5003
875.751	4839
875.88	4889
876.008	4968
876.136	5006
876.265	5178
876.393	5326
876.521	5261
876.65	5216
876.778	5124
876.906	5029
877.034	4991
877.162	5010
877.29	4980
877.418	5010
877.546	5025
877.674	5006
877.802	5006
877.93	4999
878.058	4946
878.185	4812
878.313	4930
878.441	4934
878.568	4782
878.696	4820
878.824	4904
878.951	5033
879.079	5064
879.206	5223
879.333	5113
879.461	4942
879.588	5010
879.715	5166
879.842	5223
879.97	4995
880.097	4778
880.224	4740
880.351	4809
880.478	4771
880.605	4778
880.732	4763
880.859	5075
880.986	4805
881.112	4889
881.239	4755
881.366	4660
881.493	4622
881.619	4550
881.746	4641
881.872	4607
881.999	4584
882.125	4668
882.252	4740
882.378	4824
882.505	4968
882.631	4805
882.757	4694
882.883	4767
883.01	4740
883.136	4653
883.262	4577
883.388	4641
883.514	4790
883.64	4839
883.766	4755
883.892	4637
884.018	4717
884.143	4915
884.269	4999
884.395	4668
884.52	4607
884.646	4656
884.772	4531
884.897	4577
885.023	4641
885.148	4793
885.274	4870
885.399	4725
885.524	4702
885.65	4679
885.775	4759
885.9	4714
886.025	4816
886.15	4797
886.275	4744
886.4	4649
886.525	4752
886.65	4691
886.775	4660
886.9	4873
887.025	4999
887.149	4759
887.274	4618
887.399	4565
887.523	4607
887.648	4527
887.773	4577
887.897	4729
888.021	4828
888.146	4687
888.27	4835
888.395	4858
888.519	4782
888.643	4831
888.767	4790
888.891	4687
889.015	4599
889.139	4603
889.263	4558
889.387	4725
889.511	4881
889.635	4782
889.759	4634
889.883	4637
890.006	4706
890.13	4820
890.254	4660
890.377	4679
890.501	4561
890.624	4558
890.748	4584
890.871	4432
890.995	4462
891.118	4337
891.241	4558
891.364	4596
891.488	4672
891.611	4493
891.734	4531
891.857	4626
891.98	4504
892.103	4637
892.226	4565
892.349	4531
892.471	4402
892.594	4485
892.717	4580
892.839	4592
892.962	4611
893.085	4649
893.207	4607
893.33	4485
893.452	4459
893.575	4645
893.697	4550
893.819	4752
893.941	4790
894.064	4714
894.186	4573
894.308	4573
894.43	4740
894.552	4809
894.674	4710
894.796	4580
894.918	4607
895.04	4603
895.161	4641
895.283	4626
895.405	4550
895.526	4683
895.648	4615
895.769	4656
895.891	4694
896.012	4714
896.134	4687
896.255	4672
896.376	4630
896.498	4596
896.619	4660
896.74	4592
896.861	4630
896.982	4934
897.103	5094
897.224	4820
897.345	4736
897.466	4660
897.587	4702
897.708	4839
897.828	4790
897.949	4656
898.07	4542
898.19	4603
898.311	4809
898.431	4653
898.552	4679
898.672	4778
898.792	4763
898.913	4729
899.033	4630
899.153	4451
899.273	4443
899.393	4519
899.513	4561
899.633	4538
899.753	4584
899.873	4474
899.993	4580
900.113	4512
900.232	4588
900.352	4542
900.472	4459
900.591	4428
900.711	4519
900.83	4466
900.95	4618
901.069	4668
901.189	4554
901.308	4409
901.427	4276
901.546	4367
901.665	4455
901.784	4508
901.904	4390
902.023	4310
902.141	4188
902.26	4158
902.379	4284
902.498	4204
902.617	4185
902.735	4360
902.854	4417
902.973	4363
903.091	4211
903.21	4234
903.328	4299
903.446	4268
903.565	4276
903.683	4291
903.801	4246
903.919	4386
904.038	4383
904.156	4352
904.274	4428
904.392	4405
904.51	4428
904.627	4497
904.745	4599
904.863	4630
904.981	4379
905.098	4322
905.216	4344
905.334	4440
905.451	4409
905.569	4459
905.686	4535
905.803	4577
905.921	4421
906.038	4497
906.155	4485
906.272	4383
906.389	4436
906.506	4325
906.623	4348
906.74	4394
906.857	4318
906.974	4344
907.091	4588
907.208	4626
907.324	4588
907.441	4489
907.557	4356
907.674	4333
907.79	4310
907.907	4325
908.023	4489
908.139	4500
908.256	4455
908.372	4428
908.488	4413
908.604	4333
908.72	4299
908.836	4398
908.952	4386
909.068	4379
909.184	4565
909.3	4417
909.415	4626
909.531	4569
909.647	4325
909.762	4344
909.878	4394
909.993	4432
910.108	4375
910.224	4424
910.339	4443
910.454	4371
910.57	4325
910.685	4325
910.8	4653
910.915	4603
911.03	4485
911.145	4306
911.259	4367
911.374	4363
911.489	4246
911.604	4276
911.718	4135
911.833	4169
911.947	4074
912.062	4040
912.176	4181
912.291	4223
912.405	4204
912.519	4466
912.633	4535
912.748	4314
912.862	4314
912.976	4200
913.09	4071
913.204	4177
913.318	4238
913.431	4325
913.545	4341
913.659	4390
913.772	4390
913.886	4246
914	4246
914.113	4344
914.226	4428
914.34	4390
914.453	4242
914.566	4398
914.68	4325
914.793	4325
914.906	4169
915.019	4147
915.132	4074
915.245	4185
915.358	4227
915.47	4238
915.583	4227
915.696	4329
915.809	4432
915.921	4398
916.034	4284
916.146	4265
916.259	4185
916.371	4360
916.483	4318
916.595	4223
916.708	4291
916.82	4295
916.932	4322
917.044	4329
917.156	4322
917.268	4219
917.38	4318
917.491	4265
917.603	4341
917.715	4443
917.826	4421
917.938	4341
918.049	4223
918.161	4409
918.272	4481
918.384	4550
918.495	4485
918.606	4261
918.717	4249
918.828	4341
918.939	4371
919.05	4253
919.161	4314
919.272	4101
919.383	4227
919.494	4455
919.604	4683
919.715	4409
919.826	4344
919.936	4421
920.047	4550
920.157	4512
920.267	4725
920.378	4542
920.488	4481
920.598	4698
920.708	4831
920.818	4809
920.928	4801
921.038	4942
921.148	4908
921.258	4622
921.368	4546
921.477	4497
921.587	4421
921.697	4367
921.806	4493
921.916	4413
922.025	4246
922.134	4310
922.244	4211
922.353	4295
922.462	4215
922.571	4147
922.68	3972
922.789	3991
922.898	4017
923.007	3968
923.116	4101
923.224	4048
923.333	4071
923.442	4002
923.55	3968
923.659	4055
923.767	4040
923.876	3975
923.984	4143
924.092	3994
924.201	4055
924.309	4063
924.417	4101
924.525	4029
924.633	4109
924.741	5029
924.849	3930
924.956	4128
925.064	3918
925.172	3903
925.279	3934
925.387	4082
925.494	4071
925.602	4158
925.709	4188
925.816	4048
925.924	4120
926.031	4223
926.138	4173
926.245	4154
926.352	4128
926.459	4246
926.566	4280
926.673	4158
926.779	4063
926.886	4082
926.993	3975
927.099	3960
927.206	3960
927.312	3953
927.419	4101
927.525	4071
927.631	4109
927.737	3964
927.843	3930
927.95	3812
928.056	3937
928.162	3991
928.267	4025
928.373	4698
928.479	4097
928.585	3876
928.69	4002
928.796	4082
928.901	4006
929.007	3827
929.112	3979
929.218	3953
929.323	3972
929.428	3983
929.533	4059
929.638	3937
929.743	3937
929.848	4025
929.953	3994
930.058	3880
930.163	3743
930.267	3857
930.372	3983
930.477	3789
930.581	4078
930.685	3922
930.79	3793
930.894	3899
930.998	3922
931.103	4002
931.207	3694
931.311	3675
931.415	3629
931.519	3507
931.623	3564
