Data from test_V78500241_2241.txt Node
Date: Fri Mar 25 17:04:35 CST 2022
User: usil
Spectrometer: V785-0024
Trigger mode: 0
Integration Time (sec): 4.000000E-1
Scans to average: 1
Nonlinearity correction enabled: false
Boxcar width: 0
Storing dark spectrum: false
XAxis mode: Wavelengths
Number of Pixels in Spectrum: 1024
>>>>>Begin Spectral Data<<<<<
801.071	8001
801.214	7978
801.356	7928
801.499	7944
801.641	7830
801.783	7852
801.926	7993
802.068	8016
802.211	8084
802.353	8027
802.496	7894
802.638	7852
802.78	7841
802.923	7955
803.065	7860
803.208	7932
803.35	7997
803.492	8103
803.635	8195
803.777	8065
803.919	8149
804.061	8480
804.204	8183
804.346	8012
804.488	7982
804.63	8111
804.773	8027
804.915	8054
805.057	8248
805.199	8206
805.341	8176
805.483	8199
805.626	8252
805.768	8149
805.91	8237
806.052	8240
806.194	8107
806.336	8320
806.478	8153
806.62	8012
806.762	8176
806.904	8248
807.046	8438
807.188	8336
807.33	8240
807.472	8385
807.614	8164
807.756	8134
807.898	8020
808.04	7913
808.182	7906
808.324	7955
808.465	7909
808.607	8096
808.749	8092
808.891	8259
809.033	8271
809.174	8214
809.316	8107
809.458	8073
809.6	8073
809.741	7989
809.883	8043
810.025	8065
810.166	8058
810.308	8012
810.45	8027
810.591	7803
810.733	7708
810.875	7628
811.016	7506
811.158	7468
811.299	7575
811.441	7693
811.582	7658
811.724	7556
811.865	7556
812.007	7571
812.148	7563
812.29	7632
812.431	7750
812.573	7894
812.714	8008
812.855	8191
812.997	8202
813.138	8275
813.279	8180
813.421	8050
813.562	7940
813.703	7860
813.845	7719
813.986	7388
814.127	7228
814.268	7175
814.41	7179
814.551	7164
814.692	7175
814.833	7107
814.974	7145
815.115	7179
815.256	6970
815.397	6970
815.539	6970
815.68	6806
815.821	6768
815.962	6897
816.103	6760
816.244	6665
816.385	6642
816.526	6677
816.666	6464
816.807	6384
816.948	6448
817.089	6475
817.23	6467
817.371	6376
817.512	6403
817.653	6353
817.793	6323
817.934	6391
818.075	6456
818.216	6429
818.356	6395
818.497	6235
818.638	6144
818.778	6163
818.919	6155
819.06	6178
819.2	6292
819.341	6357
819.481	6433
819.622	6532
819.762	6741
819.903	6711
820.043	6593
820.184	6608
820.324	6540
820.465	6703
820.605	6665
820.746	6662
820.886	6532
821.026	6650
821.167	6662
821.307	6821
821.447	6776
821.588	6635
821.728	6601
821.868	6532
822.008	6311
822.149	6433
822.289	6346
822.429	6163
822.569	6136
822.709	6148
822.849	5931
822.99	5885
823.13	5923
823.27	5920
823.41	5805
823.55	5813
823.69	5741
823.83	5771
823.97	5657
824.11	5573
824.25	5505
824.389	5585
824.529	5608
824.669	5619
824.809	5703
824.949	5676
825.089	5703
825.228	5573
825.368	5444
825.508	5410
825.648	5425
825.787	5436
825.927	5402
826.067	5326
826.206	5387
826.346	5387
826.485	5410
826.625	5417
826.765	5589
826.904	5547
827.044	5258
827.183	5242
827.323	5208
827.462	5273
827.601	5181
827.741	5296
827.88	5303
828.02	5147
828.159	5280
828.298	5341
828.437	5429
828.577	5372
828.716	5547
828.855	5345
828.994	5204
829.134	5151
829.273	5242
829.412	5181
829.551	5181
829.69	5197
829.829	5273
829.968	5376
830.107	5330
830.246	5315
830.385	5216
830.524	5162
830.663	5109
830.802	5079
830.941	4908
831.08	4923
831.219	5067
831.357	4972
831.496	5193
831.635	4934
831.774	4873
831.913	4919
832.051	4748
832.19	4812
832.329	4900
832.467	4733
832.606	4664
832.744	4759
832.883	4767
833.022	4790
833.16	4831
833.299	4854
833.437	4908
833.576	4885
833.714	4892
833.852	4885
833.991	4927
834.129	5037
834.267	4934
834.406	4896
834.544	4980
834.682	5003
834.821	5014
834.959	5159
835.097	5010
835.235	5193
835.373	5109
835.511	5151
835.65	5045
835.788	5045
835.926	4942
836.064	4866
836.202	4930
836.34	5201
836.478	5277
836.615	5143
836.753	5246
836.891	5280
837.029	5254
837.167	5208
837.305	5178
837.443	5197
837.58	5098
837.718	5299
837.856	5223
837.993	5227
838.131	5292
838.269	5258
838.406	5193
838.544	5208
838.681	5079
838.819	4999
838.956	4889
839.094	4946
839.231	5022
839.369	5151
839.506	5474
839.643	5318
839.781	5166
839.918	5045
840.055	5121
840.193	5109
840.33	5094
840.467	5201
840.604	5220
840.742	5383
840.879	5136
841.016	5155
841.153	5181
841.29	5425
841.427	5379
841.564	5330
841.701	5398
841.838	5315
841.975	5318
842.112	5280
842.249	5128
842.385	5132
842.522	5376
842.659	5212
842.796	5105
842.933	5220
843.069	5170
843.206	5208
843.343	5322
843.479	5277
843.616	5258
843.752	5060
843.889	5064
844.025	5292
844.162	5037
844.298	5223
844.435	5067
844.571	5109
844.708	5261
844.844	5258
844.98	5364
845.117	5303
845.253	5166
845.389	5086
845.525	5185
845.661	5136
845.798	5124
845.934	5117
846.07	5098
846.206	5235
846.342	5307
846.478	5197
846.614	5052
846.75	4980
846.886	4961
847.022	5140
847.158	5075
847.294	5052
847.429	5117
847.565	5083
847.701	5349
847.837	4885
847.972	4816
848.108	4930
848.244	4957
848.379	4831
848.515	4759
848.65	4710
848.786	4801
848.921	4778
849.057	4847
849.192	4892
849.328	4831
849.463	4892
849.598	4828
849.734	4793
849.869	4752
850.004	4668
850.14	4694
850.275	4664
850.41	4577
850.545	4637
850.68	4649
850.815	4569
850.95	4641
851.085	4820
851.22	4809
851.355	4717
851.49	4653
851.625	4660
851.76	4691
851.895	4584
852.03	4618
852.165	4698
852.299	4706
852.434	4858
852.569	4763
852.703	4778
852.838	4858
852.973	4961
853.107	4980
853.242	4786
853.376	4710
853.511	4584
853.645	4622
853.78	4835
853.914	4767
854.048	4675
854.183	4687
854.317	4763
854.451	4820
854.585	4736
854.72	4687
854.854	4801
854.988	4649
855.122	4683
855.256	4580
855.39	4729
855.524	4805
855.658	4721
855.792	4679
855.926	4805
856.06	4740
856.194	4873
856.327	4748
856.461	4630
856.595	4618
856.729	4626
856.862	4812
856.996	4740
857.13	4714
857.263	4774
857.397	4828
857.53	4702
857.664	4759
857.797	4843
857.931	4831
858.064	4725
858.197	4797
858.331	4618
858.464	4618
858.597	4531
858.731	4649
858.864	4653
858.997	4660
859.13	4687
859.263	4698
859.396	4691
859.529	4649
859.662	4618
859.795	4565
859.928	4714
860.061	4812
860.194	4733
860.327	4634
860.46	4573
860.592	4748
860.725	4698
860.858	4755
860.99	4550
861.123	4580
861.256	4550
861.388	4618
861.521	5353
861.653	4523
861.786	4504
861.918	4523
862.05	4550
862.183	4573
862.315	4634
862.447	4645
862.58	4607
862.712	4409
862.844	4329
862.976	4478
863.108	4455
863.24	4866
863.372	4337
863.504	4478
863.636	4352
863.768	4459
863.9	4470
864.032	4386
864.164	4466
864.296	4516
864.428	4542
864.559	4577
864.691	4611
864.823	4561
864.954	4527
865.086	4519
865.217	4497
865.349	4462
865.48	4466
865.612	4519
865.743	4656
865.875	4459
866.006	4485
866.137	4523
866.269	4493
866.4	4489
866.531	4466
866.662	4424
866.793	4413
866.924	4470
867.055	4516
867.186	4474
867.317	4428
867.448	4405
867.579	4386
867.71	4432
867.841	4409
867.972	4508
868.103	4478
868.233	4440
868.364	4428
868.495	4481
868.625	4687
868.756	4782
868.886	4596
869.017	4641
869.147	4786
869.278	4759
869.408	4656
869.539	4641
869.669	4729
869.799	4660
869.929	4752
870.06	4675
870.19	4946
870.32	4858
870.45	4965
870.58	5006
870.71	5128
870.84	5143
870.97	4995
871.1	4949
871.23	5208
871.36	5178
871.489	5045
871.619	5159
871.749	5090
871.879	5128
872.008	5178
872.138	5064
872.267	4976
872.397	4835
872.526	4847
872.656	4771
872.785	4782
872.915	5003
873.044	5102
873.173	4942
873.303	5014
873.432	5014
873.561	4930
873.69	4873
873.819	4870
873.948	4915
874.077	4816
874.206	4748
874.335	4782
874.464	4904
874.593	5128
874.722	4946
874.851	5064
874.979	5090
875.108	5018
875.237	4900
875.365	4934
875.494	4930
875.623	5014
875.751	4858
875.88	4873
876.008	5022
876.136	5071
876.265	5162
876.393	5368
876.521	5296
876.65	5258
876.778	5170
876.906	5056
877.034	5079
877.162	5109
877.29	5010
877.418	5052
877.546	5025
877.674	5060
877.802	5079
877.93	4976
878.058	4919
878.185	4862
878.313	4991
878.441	4953
878.568	4843
878.696	4896
878.824	4930
878.951	5018
879.079	5140
879.206	5315
879.333	5121
879.461	4934
879.588	5052
879.715	5159
879.842	5246
879.97	4968
880.097	4828
880.224	4771
880.351	4828
880.478	4858
880.605	4793
880.732	4801
880.859	5083
880.986	4896
881.112	4942
881.239	4774
881.366	4698
881.493	4641
881.619	4588
881.746	4683
881.872	4637
881.999	4717
882.125	4755
882.252	4824
882.378	4843
882.505	4965
882.631	4866
882.757	4660
882.883	4771
883.01	4752
883.136	4675
883.262	4622
883.388	4653
883.514	4862
883.64	4908
883.766	4820
883.892	4675
884.018	4744
884.143	4873
884.269	5029
884.395	4683
884.52	4630
884.646	4660
884.772	4599
884.897	4588
885.023	4694
885.148	4824
885.274	4831
885.399	4839
885.524	4793
885.65	4752
885.775	4725
885.9	4717
886.025	4873
886.15	4797
886.275	4736
886.4	4714
886.525	4740
886.65	4706
886.775	4664
886.9	4900
887.025	5041
887.149	4835
887.274	4668
887.399	4558
887.523	4615
887.648	4596
887.773	4603
887.897	4790
888.021	4763
888.146	4656
888.27	4828
888.395	4911
888.519	4831
888.643	4847
888.767	4839
888.891	4675
889.015	4611
889.139	4668
889.263	4615
889.387	4710
889.511	4889
889.635	4809
889.759	4626
889.883	4626
890.006	4736
890.13	4900
890.254	4611
890.377	4698
890.501	4538
890.624	4542
890.748	4634
890.871	4558
890.995	4470
891.118	4432
891.241	4523
891.364	4611
891.488	4660
891.611	4500
891.734	4542
891.857	4573
891.98	4542
892.103	4660
892.226	4592
892.349	4493
892.471	4447
892.594	4535
892.717	4626
892.839	4592
892.962	4607
893.085	4679
893.207	4634
893.33	4474
893.452	4542
893.575	4656
893.697	4558
893.819	4801
893.941	4820
894.064	4801
894.186	4554
894.308	4573
894.43	4706
894.552	4858
894.674	4782
894.796	4561
894.918	4611
895.04	4573
895.161	4626
895.283	4683
895.405	4607
895.526	4660
895.648	4698
895.769	4683
895.891	4687
896.012	4790
896.134	4763
896.255	4691
896.376	4615
896.498	4649
896.619	4717
896.74	4565
896.861	4660
896.982	4930
897.103	5083
897.224	4816
897.345	4801
897.466	4733
897.587	4710
897.708	4877
897.828	4801
897.949	4725
898.07	4558
898.19	4618
898.311	4812
898.431	4672
898.552	4767
898.672	4831
898.792	4790
898.913	4694
899.033	4580
899.153	4508
899.273	4413
899.393	4527
899.513	4493
899.633	4512
899.753	4558
899.873	4493
899.993	4622
900.113	4569
900.232	4603
900.352	4478
900.472	4455
900.591	4390
900.711	4478
900.83	4447
900.95	4607
901.069	4694
901.189	4561
901.308	4402
901.427	4329
901.546	4417
901.665	4500
901.784	4462
901.904	4375
902.023	4341
902.141	4215
902.26	4158
902.379	4318
902.498	4242
902.617	4169
902.735	4363
902.854	4394
902.973	4356
903.091	4246
903.21	4219
903.328	4314
903.446	4276
903.565	4246
903.683	4314
903.801	4295
903.919	4363
904.038	4493
904.156	4352
904.274	4428
904.392	4348
904.51	4436
904.627	4504
904.745	4569
904.863	4637
904.981	4375
905.098	4310
905.216	4367
905.334	4428
905.451	4447
905.569	4440
905.686	4546
905.803	4588
905.921	4409
906.038	4546
906.155	4481
906.272	4409
906.389	4466
906.506	4386
906.623	4363
906.74	4424
906.857	4318
906.974	4394
907.091	4542
907.208	4672
907.324	4588
907.441	4485
907.557	4367
907.674	4344
907.79	4318
907.907	4409
908.023	4428
908.139	4516
908.256	4459
908.372	4455
908.488	4474
908.604	4322
908.72	4329
908.836	4379
908.952	4360
909.068	4432
909.184	4569
909.3	4527
909.415	4634
909.531	4558
909.647	4356
909.762	4360
909.878	4329
909.993	4405
910.108	4417
910.224	4421
910.339	4470
910.454	4405
910.57	4352
910.685	4318
910.8	4660
910.915	4592
911.03	4512
911.145	4295
911.259	4356
911.374	4371
911.489	4268
911.604	4272
911.718	4135
911.833	4173
911.947	4112
912.062	4029
912.176	4207
912.291	4272
912.405	4227
912.519	4489
912.633	4516
912.748	4379
912.862	4333
912.976	4200
913.09	4074
913.204	4204
913.318	4249
913.431	4390
913.545	4360
913.659	4470
913.772	4356
913.886	4268
914	4253
914.113	4379
914.226	4417
914.34	4409
914.453	4181
914.566	4409
914.68	4314
914.793	4276
914.906	4158
915.019	4124
915.132	4101
915.245	4128
915.358	4230
915.47	4196
915.583	4280
915.696	4299
915.809	4375
915.921	4478
916.034	4234
916.146	4265
916.259	4234
916.371	4371
916.483	4390
916.595	4238
916.708	4348
916.82	4325
916.932	4363
917.044	4310
917.156	4276
917.268	4238
917.38	4287
917.491	4265
917.603	4322
917.715	4421
917.826	4459
917.938	4310
918.049	4177
918.161	4432
918.272	4561
918.384	4485
918.495	4409
918.606	4314
918.717	4257
918.828	4314
918.939	4379
919.05	4287
919.161	4344
919.272	4086
919.383	4219
919.494	4459
919.604	4603
919.715	4447
919.826	4360
919.936	4390
920.047	4512
920.157	4481
920.267	4736
920.378	4558
920.488	4455
920.598	4706
920.708	4885
920.818	4755
920.928	4725
921.038	4911
921.148	4904
921.258	4592
921.368	4523
921.477	4546
921.587	4424
921.697	4409
921.806	4592
921.916	4436
922.025	4280
922.134	4280
922.244	4185
922.353	4299
922.462	4162
922.571	4101
922.68	4013
922.789	3972
922.898	4040
923.007	4017
923.116	4063
923.224	4078
923.333	4105
923.442	3983
923.55	3994
923.659	4021
923.767	4128
923.876	3994
923.984	4116
924.092	3979
924.201	4101
924.309	4055
924.417	4105
924.525	4067
924.633	4101
924.741	5037
924.849	3945
924.956	4112
925.064	3994
925.172	3865
925.279	4017
925.387	4032
925.494	4074
925.602	4219
925.709	4169
925.816	4040
925.924	4143
926.031	4261
926.138	4169
926.245	4215
926.352	4105
926.459	4268
926.566	4276
926.673	4154
926.779	4036
926.886	4093
926.993	3998
927.099	3922
927.206	3949
927.312	3983
927.419	4067
927.525	4029
927.631	4086
927.737	3953
927.843	3945
927.95	3857
928.056	3945
928.162	3987
928.267	4112
928.373	4656
928.479	4128
928.585	3850
928.69	3983
928.796	4086
928.901	3937
929.007	3861
929.112	3994
929.218	4006
929.323	3911
929.428	3915
929.533	4093
929.638	3922
929.743	3983
929.848	4010
929.953	4010
930.058	3926
930.163	3797
930.267	3861
930.372	3949
930.477	3808
930.581	4063
930.685	3983
930.79	3823
930.894	3915
930.998	3880
931.103	4010
931.207	3705
931.311	3675
931.415	3667
931.519	3519
931.623	3526
