Data from test_V78500241_1841.txt Node
Date: Fri Mar 25 17:01:48 CST 2022
User: usil
Spectrometer: V785-0024
Trigger mode: 0
Integration Time (sec): 4.000000E-1
Scans to average: 1
Nonlinearity correction enabled: false
Boxcar width: 0
Storing dark spectrum: false
XAxis mode: Wavelengths
Number of Pixels in Spectrum: 1024
>>>>>Begin Spectral Data<<<<<
801.071	8001
801.214	7997
801.356	7845
801.499	7894
801.641	7757
801.783	7818
801.926	7890
802.068	7883
802.211	8016
802.353	7997
802.496	7871
802.638	7887
802.78	7818
802.923	7887
803.065	7818
803.208	7841
803.35	7947
803.492	8096
803.635	8123
803.777	7997
803.919	8088
804.061	8446
804.204	8115
804.346	8035
804.488	7974
804.63	8103
804.773	7989
804.915	8050
805.057	8267
805.199	8130
805.341	8168
805.483	8172
805.626	8206
805.768	8115
805.91	8145
806.052	8206
806.194	8065
806.336	8248
806.478	8024
806.62	8012
806.762	8084
806.904	8328
807.046	8537
807.188	8320
807.33	8218
807.472	8324
807.614	8180
807.756	8134
807.898	8012
808.04	7928
808.182	7860
808.324	7917
808.465	7928
808.607	7993
808.749	8084
808.891	8164
809.033	8271
809.174	8259
809.316	8081
809.458	8126
809.6	8012
809.741	8031
809.883	8043
810.025	8100
810.166	8016
810.308	8031
810.45	8046
810.591	7856
810.733	7700
810.875	7613
811.016	7529
811.158	7499
811.299	7643
811.441	7677
811.582	7677
811.724	7590
811.865	7495
812.007	7487
812.148	7556
812.29	7643
812.431	7772
812.573	7951
812.714	8005
812.855	8115
812.997	8240
813.138	8309
813.279	8195
813.421	8073
813.562	7906
813.703	7814
813.845	7761
813.986	7373
814.127	7255
814.268	7225
814.41	7175
814.551	7149
814.692	7274
814.833	7084
814.974	7095
815.115	7099
815.256	7042
815.397	6985
815.539	6947
815.68	6818
815.821	6749
815.962	6856
816.103	6760
816.244	6745
816.385	6650
816.526	6642
816.666	6494
816.807	6254
816.948	6445
817.089	6479
817.23	6452
817.371	6346
817.512	6418
817.653	6391
817.793	6353
817.934	6426
818.075	6445
818.216	6357
818.356	6410
818.497	6251
818.638	6091
818.778	6106
818.919	6117
819.06	6125
819.2	6311
819.341	6311
819.481	6365
819.622	6540
819.762	6719
819.903	6703
820.043	6578
820.184	6528
820.324	6631
820.465	6703
820.605	6707
820.746	6658
820.886	6540
821.026	6681
821.167	6677
821.307	6734
821.447	6741
821.588	6669
821.728	6597
821.868	6452
822.008	6311
822.149	6361
822.289	6254
822.429	6163
822.569	6041
822.709	6144
822.849	5927
822.99	5885
823.13	5939
823.27	5904
823.41	5790
823.55	5798
823.69	5771
823.83	5764
823.97	5657
824.11	5516
824.25	5512
824.389	5592
824.529	5592
824.669	5512
824.809	5604
824.949	5600
825.089	5600
825.228	5554
825.368	5387
825.508	5353
825.648	5360
825.787	5326
825.927	5372
826.067	5303
826.206	5261
826.346	5406
826.485	5379
826.625	5417
826.765	5573
826.904	5467
827.044	5284
827.183	5193
827.323	5083
827.462	5197
827.601	5124
827.741	5212
827.88	5189
828.02	5090
828.159	5189
828.298	5273
828.437	5322
828.577	5296
828.716	5417
828.855	5299
828.994	5132
829.134	5140
829.273	5185
829.412	5132
829.551	5162
829.69	5162
829.829	5261
829.968	5315
830.107	5235
830.246	5280
830.385	5166
830.524	5113
830.663	5003
830.802	4991
830.941	4911
831.08	4843
831.219	4930
831.357	4934
831.496	5117
831.635	4896
831.774	4881
831.913	4835
832.051	4752
832.19	4774
832.329	4870
832.467	4683
832.606	4622
832.744	4698
832.883	4683
833.022	4717
833.16	4797
833.299	4847
833.437	4767
833.576	4843
833.714	4885
833.852	4873
833.991	4881
834.129	4923
834.267	4923
834.406	4896
834.544	5022
834.682	4968
834.821	5003
834.959	5159
835.097	4995
835.235	5193
835.373	5052
835.511	5086
835.65	5022
835.788	5045
835.926	4904
836.064	4850
836.202	4911
836.34	5181
836.478	5231
836.615	5094
836.753	5250
836.891	5269
837.029	5250
837.167	5204
837.305	5181
837.443	5109
837.58	5086
837.718	5258
837.856	5159
837.993	5121
838.131	5189
838.269	5204
838.406	5208
838.544	5170
838.681	5010
838.819	5006
838.956	4858
839.094	4892
839.231	4980
839.369	5124
839.506	5368
839.643	5223
839.781	5052
839.918	4976
840.055	5048
840.193	5048
840.33	5071
840.467	5147
840.604	5178
840.742	5433
840.879	5014
841.016	5060
841.153	5102
841.29	5337
841.427	5269
841.564	5284
841.701	5299
841.838	5296
841.975	5166
842.112	5258
842.249	5094
842.385	5102
842.522	5296
842.659	5151
842.796	5083
842.933	5174
843.069	5094
843.206	5128
843.343	5242
843.479	5193
843.616	5288
843.752	5029
843.889	4991
844.025	5242
844.162	4972
844.298	5242
844.435	5033
844.571	5060
844.708	5174
844.844	5341
844.98	5360
845.117	5292
845.253	5189
845.389	5079
845.525	5204
845.661	5166
845.798	5006
845.934	5071
846.07	5025
846.206	5220
846.342	5265
846.478	5140
846.614	5033
846.75	4972
846.886	4927
847.022	5132
847.158	4999
847.294	5048
847.429	5079
847.565	5018
847.701	5284
847.837	4885
847.972	4805
848.108	4946
848.244	4942
848.379	4744
848.515	4755
848.65	4733
848.786	4763
848.921	4809
849.057	4835
849.192	4904
849.328	4774
849.463	4828
849.598	4797
849.734	4812
849.869	4710
850.004	4596
850.14	4603
850.275	4660
850.41	4531
850.545	4546
850.68	4622
850.815	4637
850.95	4607
851.085	4797
851.22	4740
851.355	4660
851.49	4637
851.625	4641
851.76	4641
851.895	4519
852.03	4512
852.165	4618
852.299	4679
852.434	4805
852.569	4744
852.703	4774
852.838	4850
852.973	4995
853.107	4900
853.242	4733
853.376	4622
853.511	4580
853.645	4611
853.78	4831
853.914	4675
854.048	4679
854.183	4641
854.317	4687
854.451	4824
854.585	4653
854.72	4656
854.854	4725
854.988	4607
855.122	4584
855.256	4519
855.39	4637
855.524	4797
855.658	4702
855.792	4641
855.926	4729
856.06	4725
856.194	4786
856.327	4717
856.461	4588
856.595	4588
856.729	4618
856.862	4698
856.996	4721
857.13	4748
857.263	4755
857.397	4824
857.53	4653
857.664	4729
857.797	4767
857.931	4797
858.064	4687
858.197	4733
858.331	4634
858.464	4569
858.597	4519
858.731	4607
858.864	4653
858.997	4573
859.13	4675
859.263	4611
859.396	4721
859.529	4577
859.662	4592
859.795	4542
859.928	4634
860.061	4786
860.194	4752
860.327	4641
860.46	4561
860.592	4675
860.725	4649
860.858	4702
860.99	4527
861.123	4489
861.256	4561
861.388	4607
861.521	5417
861.653	4478
861.786	4478
861.918	4470
862.05	4561
862.183	4565
862.315	4561
862.447	4599
862.58	4508
862.712	4459
862.844	4318
862.976	4409
863.108	4436
863.24	4866
863.372	4314
863.504	4398
863.636	4383
863.768	4440
863.9	4413
864.032	4371
864.164	4409
864.296	4421
864.428	4527
864.559	4558
864.691	4558
864.823	4538
864.954	4493
865.086	4481
865.217	4478
865.349	4375
865.48	4462
865.612	4489
865.743	4603
865.875	4466
866.006	4375
866.137	4421
866.269	4447
866.4	4451
866.531	4409
866.662	4409
866.793	4428
866.924	4394
867.055	4462
867.186	4428
867.317	4421
867.448	4341
867.579	4398
867.71	4352
867.841	4348
867.972	4493
868.103	4459
868.233	4428
868.364	4455
868.495	4451
868.625	4683
868.756	4744
868.886	4546
869.017	4649
869.147	4793
869.278	4740
869.408	4687
869.539	4641
869.669	4691
869.799	4668
869.929	4748
870.06	4744
870.19	4915
870.32	4873
870.45	4930
870.58	5033
870.71	5083
870.84	5037
870.97	4930
871.1	4915
871.23	5140
871.36	5102
871.489	5014
871.619	5071
871.749	5136
871.879	5109
872.008	5132
872.138	5060
872.267	4999
872.397	4782
872.526	4828
872.656	4706
872.785	4782
872.915	4972
873.044	4995
873.173	4911
873.303	4976
873.432	4961
873.561	4980
873.69	4858
873.819	4831
873.948	4896
874.077	4755
874.206	4755
874.335	4778
874.464	4908
874.593	4999
874.722	4968
874.851	5075
874.979	4999
875.108	5060
875.237	4892
875.365	4854
875.494	4896
875.623	4946
875.751	4889
875.88	4911
876.008	4938
876.136	5029
876.265	5201
876.393	5296
876.521	5178
876.65	5208
876.778	5174
876.906	5075
877.034	5025
877.162	5018
877.29	5006
877.418	5018
877.546	5056
877.674	5045
877.802	5003
877.93	5003
878.058	4946
878.185	4870
878.313	4942
878.441	4987
878.568	4824
878.696	4873
878.824	4934
878.951	4919
879.079	5117
879.206	5216
879.333	5075
879.461	5003
879.588	5022
879.715	5094
879.842	5223
879.97	5010
880.097	4805
880.224	4797
880.351	4790
880.478	4801
880.605	4805
880.732	4782
880.859	5075
880.986	4927
881.112	4900
881.239	4752
881.366	4698
881.493	4573
881.619	4577
881.746	4584
881.872	4645
881.999	4679
882.125	4694
882.252	4763
882.378	4858
882.505	4900
882.631	4812
882.757	4637
882.883	4721
883.01	4706
883.136	4660
883.262	4569
883.388	4592
883.514	4790
883.64	4866
883.766	4721
883.892	4649
884.018	4698
884.143	4896
884.269	4995
884.395	4641
884.52	4592
884.646	4569
884.772	4607
884.897	4599
885.023	4672
885.148	4778
885.274	4866
885.399	4839
885.524	4710
885.65	4729
885.775	4721
885.9	4729
886.025	4847
886.15	4790
886.275	4698
886.4	4641
886.525	4725
886.65	4687
886.775	4664
886.9	4896
887.025	5010
887.149	4812
887.274	4660
887.399	4573
887.523	4561
887.648	4618
887.773	4622
887.897	4733
888.021	4759
888.146	4637
888.27	4793
888.395	4889
888.519	4786
888.643	4752
888.767	4824
888.891	4706
889.015	4607
889.139	4634
889.263	4592
889.387	4767
889.511	4885
889.635	4721
889.759	4675
889.883	4679
890.006	4694
890.13	4828
890.254	4599
890.377	4702
890.501	4527
890.624	4516
890.748	4634
890.871	4497
890.995	4428
891.118	4409
891.241	4554
891.364	4535
891.488	4645
891.611	4508
891.734	4577
891.857	4546
891.98	4573
892.103	4611
892.226	4569
892.349	4493
892.471	4409
892.594	4519
892.717	4603
892.839	4596
892.962	4580
893.085	4668
893.207	4580
893.33	4478
893.452	4550
893.575	4645
893.697	4580
893.819	4752
893.941	4847
894.064	4771
894.186	4538
894.308	4550
894.43	4702
894.552	4831
894.674	4767
894.796	4588
894.918	4561
895.04	4584
895.161	4721
895.283	4649
895.405	4512
895.526	4664
895.648	4668
895.769	4683
895.891	4675
896.012	4748
896.134	4691
896.255	4714
896.376	4687
896.498	4630
896.619	4645
896.74	4596
896.861	4668
896.982	4904
897.103	5025
897.224	4854
897.345	4752
897.466	4637
897.587	4717
897.708	4809
897.828	4740
897.949	4687
898.07	4603
898.19	4645
898.311	4847
898.431	4641
898.552	4729
898.672	4786
898.792	4809
898.913	4675
899.033	4607
899.153	4474
899.273	4402
899.393	4527
899.513	4523
899.633	4519
899.753	4538
899.873	4481
899.993	4546
900.113	4527
900.232	4554
900.352	4565
900.472	4459
900.591	4356
900.711	4497
900.83	4470
900.95	4588
901.069	4675
901.189	4523
901.308	4390
901.427	4306
901.546	4371
901.665	4478
901.784	4508
901.904	4333
902.023	4322
902.141	4154
902.26	4185
902.379	4303
902.498	4265
902.617	4207
902.735	4322
902.854	4386
902.973	4363
903.091	4173
903.21	4185
903.328	4291
903.446	4280
903.565	4192
903.683	4322
903.801	4234
903.919	4432
904.038	4424
904.156	4352
904.274	4424
904.392	4341
904.51	4398
904.627	4443
904.745	4561
904.863	4675
904.981	4371
905.098	4272
905.216	4405
905.334	4383
905.451	4421
905.569	4417
905.686	4550
905.803	4565
905.921	4379
906.038	4516
906.155	4531
906.272	4386
906.389	4421
906.506	4341
906.623	4367
906.74	4394
906.857	4253
906.974	4394
907.091	4542
907.208	4660
907.324	4611
907.441	4493
907.557	4295
907.674	4341
907.79	4322
907.907	4386
908.023	4504
908.139	4451
908.256	4417
908.372	4504
908.488	4500
908.604	4363
908.72	4318
908.836	4398
908.952	4386
909.068	4375
909.184	4561
909.3	4459
909.415	4607
909.531	4550
909.647	4363
909.762	4367
909.878	4360
909.993	4462
910.108	4398
910.224	4367
910.339	4538
910.454	4421
910.57	4337
910.685	4310
910.8	4622
910.915	4558
911.03	4500
911.145	4314
911.259	4333
911.374	4280
911.489	4310
911.604	4299
911.718	4158
911.833	4158
911.947	4082
912.062	4059
912.176	4211
912.291	4261
912.405	4261
912.519	4504
912.633	4470
912.748	4348
912.862	4344
912.976	4242
913.09	4116
913.204	4150
913.318	4276
913.431	4352
913.545	4386
913.659	4363
913.772	4398
913.886	4211
914	4200
914.113	4390
914.226	4451
914.34	4341
914.453	4162
914.566	4409
914.68	4337
914.793	4299
914.906	4086
915.019	4116
915.132	4074
915.245	4143
915.358	4211
915.47	4238
915.583	4261
915.696	4253
915.809	4417
915.921	4432
916.034	4207
916.146	4215
916.259	4223
916.371	4348
916.483	4344
916.595	4295
916.708	4356
916.82	4337
916.932	4295
917.044	4348
917.156	4352
917.268	4246
917.38	4238
917.491	4249
917.603	4363
917.715	4417
917.826	4417
917.938	4299
918.049	4227
918.161	4394
918.272	4561
918.384	4546
918.495	4478
918.606	4272
918.717	4230
918.828	4318
918.939	4360
919.05	4280
919.161	4348
919.272	4131
919.383	4257
919.494	4447
919.604	4599
919.715	4462
919.826	4375
919.936	4398
920.047	4504
920.157	4481
920.267	4717
920.378	4523
920.488	4512
920.598	4729
920.708	4854
920.818	4790
920.928	4714
921.038	4942
921.148	4911
921.258	4641
921.368	4497
921.477	4489
921.587	4447
921.697	4375
921.806	4573
921.916	4447
922.025	4284
922.134	4230
922.244	4230
922.353	4306
922.462	4181
922.571	4124
922.68	4013
922.789	3991
922.898	4044
923.007	3964
923.116	4116
923.224	4051
923.333	4044
923.442	4002
923.55	3937
923.659	4036
923.767	4051
923.876	3994
923.984	4112
924.092	3964
924.201	4071
924.309	4082
924.417	4120
924.525	4097
924.633	4097
924.741	5041
924.849	3937
924.956	4154
925.064	3979
925.172	3873
925.279	3937
925.387	4036
925.494	4044
925.602	4196
925.709	4196
925.816	4078
925.924	4124
926.031	4238
926.138	4162
926.245	4181
926.352	4112
926.459	4253
926.566	4310
926.673	4154
926.779	4090
926.886	4036
926.993	3945
927.099	3994
927.206	3922
927.312	3911
927.419	4051
927.525	4017
927.631	4124
927.737	3937
927.843	3899
927.95	3812
928.056	3934
928.162	3956
928.267	4048
928.373	4634
928.479	4139
928.585	3899
928.69	4044
928.796	4048
928.901	3987
929.007	3827
929.112	4006
929.218	3953
929.323	3953
929.428	3941
929.533	4078
929.638	3896
929.743	3979
929.848	4036
929.953	3975
930.058	3869
930.163	3781
930.267	3842
930.372	3979
930.477	3785
930.581	4128
930.685	3956
930.79	3823
930.894	3857
930.998	3850
931.103	4044
931.207	3709
931.311	3675
931.415	3644
931.519	3492
931.623	3568
