Data from test_V78500241_1186.txt Node
Date: Fri Mar 25 16:57:14 CST 2022
User: usil
Spectrometer: V785-0024
Trigger mode: 0
Integration Time (sec): 4.000000E-1
Scans to average: 1
Nonlinearity correction enabled: false
Boxcar width: 0
Storing dark spectrum: false
XAxis mode: Wavelengths
Number of Pixels in Spectrum: 1024
>>>>>Begin Spectral Data<<<<<
801.071	8016
801.214	8054
801.356	7883
801.499	7913
801.641	7757
801.783	7883
801.926	7970
802.068	7913
802.211	7951
802.353	7967
802.496	7883
802.638	7875
802.78	7963
802.923	7944
803.065	7906
803.208	7845
803.35	8035
803.492	8069
803.635	8161
803.777	8035
803.919	8229
804.061	8408
804.204	8145
804.346	8096
804.488	8039
804.63	8092
804.773	8054
804.915	8210
805.057	8275
805.199	8183
805.341	8282
805.483	8282
805.626	8240
805.768	8157
805.91	8248
806.052	8252
806.194	8092
806.336	8362
806.478	8126
806.62	8024
806.762	8176
806.904	8305
807.046	8495
807.188	8427
807.33	8301
807.472	8351
807.614	8119
807.756	8187
807.898	7963
808.04	7959
808.182	7917
808.324	7864
808.465	7947
808.607	8081
808.749	8100
808.891	8210
809.033	8332
809.174	8149
809.316	8039
809.458	8062
809.6	7989
809.741	8027
809.883	8050
810.025	8161
810.166	8058
810.308	8035
810.45	8031
810.591	7928
810.733	7799
810.875	7578
811.016	7586
811.158	7506
811.299	7639
811.441	7685
811.582	7746
811.724	7597
811.865	7552
812.007	7586
812.148	7575
812.29	7575
812.431	7792
812.573	7845
812.714	8050
812.855	8168
812.997	8229
813.138	8309
813.279	8290
813.421	8062
813.562	7974
813.703	7833
813.845	7769
813.986	7426
814.127	7278
814.268	7285
814.41	7206
814.551	7118
814.692	7217
814.833	7122
814.974	7103
815.115	7122
815.256	7015
815.397	6894
815.539	6977
815.68	6905
815.821	6798
815.962	6875
816.103	6837
816.244	6730
816.385	6722
816.526	6673
816.666	6517
816.807	6315
816.948	6414
817.089	6528
817.23	6456
817.371	6376
817.512	6456
817.653	6395
817.793	6380
817.934	6403
818.075	6407
818.216	6429
818.356	6452
818.497	6258
818.638	6175
818.778	6163
818.919	6182
819.06	6144
819.2	6277
819.341	6323
819.481	6319
819.622	6498
819.762	6818
819.903	6635
820.043	6684
820.184	6646
820.324	6570
820.465	6631
820.605	6749
820.746	6639
820.886	6426
821.026	6684
821.167	6703
821.307	6806
821.447	6738
821.588	6677
821.728	6544
821.868	6513
822.008	6384
822.149	6353
822.289	6372
822.429	6190
822.569	6083
822.709	6152
822.849	5965
822.99	5942
823.13	5923
823.27	5958
823.41	5813
823.55	5767
823.69	5756
823.83	5794
823.97	5668
824.11	5539
824.25	5509
824.389	5528
824.529	5570
824.669	5535
824.809	5627
824.949	5642
825.089	5630
825.228	5482
825.368	5402
825.508	5288
825.648	5372
825.787	5383
825.927	5341
826.067	5261
826.206	5299
826.346	5417
826.485	5455
826.625	5417
826.765	5562
826.904	5455
827.044	5223
827.183	5235
827.323	5140
827.462	5231
827.601	5193
827.741	5208
827.88	5258
828.02	5045
828.159	5227
828.298	5315
828.437	5391
828.577	5318
828.716	5455
828.855	5349
828.994	5178
829.134	5166
829.273	5170
829.412	5128
829.551	5170
829.69	5136
829.829	5235
829.968	5379
830.107	5292
830.246	5273
830.385	5170
830.524	5132
830.663	5098
830.802	4972
830.941	4881
831.08	4824
831.219	5003
831.357	4965
831.496	5132
831.635	4957
831.774	4831
831.913	4862
832.051	4778
832.19	4744
832.329	4892
832.467	4668
832.606	4630
832.744	4748
832.883	4721
833.022	4733
833.16	4786
833.299	4847
833.437	4847
833.576	4797
833.714	4866
833.852	4870
833.991	4934
834.129	4999
834.267	4927
834.406	4877
834.544	4934
834.682	4961
834.821	4991
834.959	5147
835.097	5041
835.235	5117
835.373	5071
835.511	5147
835.65	5022
835.788	5022
835.926	4915
836.064	4843
836.202	4934
836.34	5132
836.478	5212
836.615	5109
836.753	5216
836.891	5311
837.029	5269
837.167	5178
837.305	5181
837.443	5178
837.58	5067
837.718	5280
837.856	5159
837.993	5174
838.131	5185
838.269	5220
838.406	5220
838.544	5159
838.681	5075
838.819	5018
838.956	4919
839.094	4919
839.231	5029
839.369	5162
839.506	5532
839.643	5254
839.781	5102
839.918	4987
840.055	5083
840.193	5098
840.33	5170
840.467	5128
840.604	5197
840.742	5402
840.879	5045
841.016	5083
841.153	5185
841.29	5372
841.427	5315
841.564	5288
841.701	5372
841.838	5277
841.975	5258
842.112	5311
842.249	5052
842.385	5151
842.522	5299
842.659	5185
842.796	5166
842.933	5181
843.069	5147
843.206	5140
843.343	5303
843.479	5201
843.616	5273
843.752	5003
843.889	5022
844.025	5208
844.162	5003
844.298	5204
844.435	5090
844.571	5041
844.708	5162
844.844	5299
844.98	5398
845.117	5261
845.253	5143
845.389	5090
845.525	5159
845.661	5086
845.798	5071
845.934	5132
846.07	5056
846.206	5143
846.342	5326
846.478	5159
846.614	5037
846.75	4961
846.886	4946
847.022	5147
847.158	4987
847.294	5052
847.429	5124
847.565	5075
847.701	5273
847.837	4885
847.972	4778
848.108	4976
848.244	4953
848.379	4736
848.515	4683
848.65	4706
848.786	4736
848.921	4759
849.057	4885
849.192	4877
849.328	4850
849.463	4892
849.598	4763
849.734	4759
849.869	4702
850.004	4645
850.14	4679
850.275	4615
850.41	4523
850.545	4531
850.68	4641
850.815	4649
850.95	4634
851.085	4873
851.22	4736
851.355	4687
851.49	4626
851.625	4645
851.76	4672
851.895	4592
852.03	4546
852.165	4679
852.299	4755
852.434	4839
852.569	4759
852.703	4805
852.838	4900
852.973	4984
853.107	4949
853.242	4778
853.376	4767
853.511	4626
853.645	4683
853.78	4801
853.914	4740
854.048	4725
854.183	4706
854.317	4733
854.451	4904
854.585	4702
854.72	4675
854.854	4801
854.988	4656
855.122	4694
855.256	4584
855.39	4679
855.524	4797
855.658	4778
855.792	4755
855.926	4774
856.06	4782
856.194	4850
856.327	4691
856.461	4622
856.595	4660
856.729	4694
856.862	4793
856.996	4740
857.13	4748
857.263	4790
857.397	4866
857.53	4687
857.664	4748
857.797	4771
857.931	4805
858.064	4714
858.197	4801
858.331	4683
858.464	4592
858.597	4577
858.731	4664
858.864	4634
858.997	4653
859.13	4683
859.263	4672
859.396	4725
859.529	4607
859.662	4611
859.795	4603
859.928	4626
860.061	4858
860.194	4790
860.327	4664
860.46	4573
860.592	4748
860.725	4752
860.858	4721
860.99	4603
861.123	4538
861.256	4538
861.388	4626
861.521	5311
861.653	4508
861.786	4440
861.918	4497
862.05	4523
862.183	4599
862.315	4649
862.447	4710
862.58	4577
862.712	4424
862.844	4394
862.976	4512
863.108	4527
863.24	4892
863.372	4352
863.504	4451
863.636	4417
863.768	4519
863.9	4440
864.032	4356
864.164	4447
864.296	4481
864.428	4554
864.559	4554
864.691	4554
864.823	4538
864.954	4577
865.086	4535
865.217	4474
865.349	4417
865.48	4497
865.612	4519
865.743	4637
865.875	4497
866.006	4447
866.137	4459
866.269	4497
866.4	4478
866.531	4455
866.662	4428
866.793	4409
866.924	4478
867.055	4565
867.186	4440
867.317	4421
867.448	4432
867.579	4451
867.71	4402
867.841	4356
867.972	4531
868.103	4474
868.233	4508
868.364	4443
868.495	4466
868.625	4717
868.756	4702
868.886	4546
869.017	4649
869.147	4786
869.278	4801
869.408	4687
869.539	4691
869.669	4740
869.799	4679
869.929	4801
870.06	4820
870.19	4980
870.32	4961
870.45	4934
870.58	5071
870.71	5136
870.84	5147
870.97	4942
871.1	4900
871.23	5109
871.36	5136
871.489	5083
871.619	5045
871.749	5132
871.879	5128
872.008	5261
872.138	5083
872.267	5010
872.397	4885
872.526	4824
872.656	4729
872.785	4843
872.915	5006
873.044	5056
873.173	4972
873.303	5014
873.432	4934
873.561	5003
873.69	4919
873.819	4873
873.948	4915
874.077	4801
874.206	4805
874.335	4919
874.464	4911
874.593	5018
874.722	4976
874.851	5132
874.979	5105
875.108	5052
875.237	4927
875.365	4927
875.494	4938
875.623	4991
875.751	4850
875.88	4908
876.008	5025
876.136	5079
876.265	5166
876.393	5349
876.521	5265
876.65	5288
876.778	5189
876.906	5105
877.034	4991
877.162	5060
877.29	5025
877.418	5090
877.546	5025
877.674	5079
877.802	5037
877.93	5056
878.058	4934
878.185	4885
878.313	4946
878.441	4965
878.568	4835
878.696	4915
878.824	4961
878.951	5018
879.079	5174
879.206	5315
879.333	5117
879.461	4965
879.588	5022
879.715	5155
879.842	5265
879.97	5067
880.097	4778
880.224	4717
880.351	4862
880.478	4835
880.605	4831
880.732	4809
880.859	5117
880.986	4908
881.112	4900
881.239	4809
881.366	4698
881.493	4611
881.619	4607
881.746	4668
881.872	4664
881.999	4660
882.125	4736
882.252	4850
882.378	4858
882.505	4968
882.631	4805
882.757	4691
882.883	4793
883.01	4790
883.136	4725
883.262	4637
883.388	4580
883.514	4820
883.64	4885
883.766	4828
883.892	4683
884.018	4714
884.143	4892
884.269	5083
884.395	4706
884.52	4630
884.646	4694
884.772	4637
884.897	4592
885.023	4717
885.148	4820
885.274	4915
885.399	4839
885.524	4729
885.65	4717
885.775	4748
885.9	4740
886.025	4908
886.15	4809
886.275	4752
886.4	4698
886.525	4736
886.65	4755
886.775	4691
886.9	4915
887.025	5064
887.149	4828
887.274	4729
887.399	4653
887.523	4611
887.648	4569
887.773	4626
887.897	4801
888.021	4774
888.146	4660
888.27	4843
888.395	4908
888.519	4809
888.643	4847
888.767	4831
888.891	4675
889.015	4641
889.139	4691
889.263	4607
889.387	4771
889.511	4873
889.635	4778
889.759	4656
889.883	4664
890.006	4740
890.13	4858
890.254	4660
890.377	4683
890.501	4554
890.624	4527
890.748	4615
890.871	4535
890.995	4428
891.118	4402
891.241	4516
891.364	4577
891.488	4649
891.611	4512
891.734	4554
891.857	4611
891.98	4569
892.103	4702
892.226	4584
892.349	4569
892.471	4421
892.594	4577
892.717	4645
892.839	4542
892.962	4584
893.085	4691
893.207	4592
893.33	4504
893.452	4573
893.575	4637
893.697	4580
893.819	4801
893.941	4809
894.064	4752
894.186	4558
894.308	4607
894.43	4736
894.552	4801
894.674	4774
894.796	4584
894.918	4611
895.04	4561
895.161	4729
895.283	4691
895.405	4653
895.526	4618
895.648	4679
895.769	4687
895.891	4698
896.012	4782
896.134	4706
896.255	4710
896.376	4626
896.498	4645
896.619	4710
896.74	4615
896.861	4641
896.982	4911
897.103	5105
897.224	4843
897.345	4729
897.466	4611
897.587	4717
897.708	4873
897.828	4729
897.949	4656
898.07	4565
898.19	4641
898.311	4847
898.431	4664
898.552	4763
898.672	4790
898.792	4797
898.913	4759
899.033	4603
899.153	4558
899.273	4481
899.393	4500
899.513	4573
899.633	4519
899.753	4580
899.873	4493
899.993	4592
900.113	4523
900.232	4626
900.352	4577
900.472	4497
900.591	4424
900.711	4512
900.83	4459
900.95	4641
901.069	4668
901.189	4592
901.308	4356
901.427	4322
901.546	4417
901.665	4474
901.784	4546
901.904	4413
902.023	4337
902.141	4234
902.26	4200
902.379	4306
902.498	4249
902.617	4211
902.735	4360
902.854	4413
902.973	4363
903.091	4265
903.21	4261
903.328	4295
903.446	4253
903.565	4299
903.683	4352
903.801	4295
903.919	4390
904.038	4481
904.156	4375
904.274	4470
904.392	4428
904.51	4459
904.627	4558
904.745	4607
904.863	4630
904.981	4390
905.098	4291
905.216	4436
905.334	4436
905.451	4428
905.569	4489
905.686	4588
905.803	4622
905.921	4424
906.038	4561
906.155	4459
906.272	4360
906.389	4493
906.506	4367
906.623	4363
906.74	4432
906.857	4295
906.974	4398
907.091	4561
907.208	4637
907.324	4618
907.441	4493
907.557	4337
907.674	4379
907.79	4314
907.907	4390
908.023	4485
908.139	4455
908.256	4402
908.372	4497
908.488	4470
908.604	4371
908.72	4318
908.836	4363
908.952	4413
909.068	4455
909.184	4603
909.3	4466
909.415	4603
909.531	4558
909.647	4421
909.762	4379
909.878	4394
909.993	4481
910.108	4428
910.224	4459
910.339	4516
910.454	4413
910.57	4367
910.685	4310
910.8	4649
910.915	4626
911.03	4508
911.145	4322
911.259	4360
911.374	4379
911.489	4314
911.604	4242
911.718	4143
911.833	4188
911.947	4093
912.062	4063
912.176	4242
912.291	4253
912.405	4234
912.519	4470
912.633	4504
912.748	4386
912.862	4318
912.976	4185
913.09	4150
913.204	4204
913.318	4303
913.431	4413
913.545	4344
913.659	4451
913.772	4356
913.886	4295
914	4227
914.113	4409
914.226	4478
914.34	4428
914.453	4261
914.566	4459
914.68	4303
914.793	4371
914.906	4169
915.019	4112
915.132	4105
915.245	4211
915.358	4261
915.47	4291
915.583	4242
915.696	4310
915.809	4443
915.921	4413
916.034	4242
916.146	4272
916.259	4242
916.371	4398
916.483	4363
916.595	4295
916.708	4352
916.82	4299
916.932	4356
917.044	4356
917.156	4363
917.268	4230
917.38	4276
917.491	4306
917.603	4329
917.715	4413
917.826	4432
917.938	4356
918.049	4238
918.161	4443
918.272	4497
918.384	4531
918.495	4443
918.606	4287
918.717	4253
918.828	4371
918.939	4421
919.05	4295
919.161	4344
919.272	4116
919.383	4261
919.494	4451
919.604	4645
919.715	4447
919.826	4341
919.936	4398
920.047	4516
920.157	4497
920.267	4668
920.378	4516
920.488	4546
920.598	4691
920.708	4904
920.818	4767
920.928	4744
921.038	4953
921.148	4915
921.258	4679
921.368	4546
921.477	4535
921.587	4512
921.697	4375
921.806	4527
921.916	4455
922.025	4261
922.134	4268
922.244	4253
922.353	4341
922.462	4147
922.571	4109
922.68	3998
922.789	3994
922.898	4021
923.007	4010
923.116	4128
923.224	4059
923.333	4025
923.442	4002
923.55	3964
923.659	4048
923.767	4109
923.876	3991
923.984	4097
924.092	3994
924.201	4051
924.309	4139
924.417	4128
924.525	4086
924.633	4131
924.741	5006
924.849	3937
924.956	4188
925.064	3930
925.172	3861
925.279	3964
925.387	4040
925.494	4040
925.602	4204
925.709	4192
925.816	3994
925.924	4139
926.031	4185
926.138	4166
926.245	4215
926.352	4097
926.459	4261
926.566	4310
926.673	4185
926.779	4078
926.886	4112
926.993	3956
927.099	3975
927.206	3926
927.312	3949
927.419	4040
927.525	4067
927.631	4139
927.737	3960
927.843	3979
927.95	3842
928.056	3937
928.162	3960
928.267	4090
928.373	4679
928.479	4143
928.585	3861
928.69	4051
928.796	4078
928.901	3956
929.007	3819
929.112	4010
929.218	3998
929.323	3896
929.428	3941
929.533	4120
929.638	3888
929.743	3930
929.848	4032
929.953	3998
930.058	3941
930.163	3778
930.267	3831
930.372	3968
930.477	3804
930.581	4097
930.685	3926
930.79	3789
930.894	3888
930.998	3865
931.103	4044
931.207	3698
931.311	3724
931.415	3648
931.519	3564
931.623	3538
