Data from test_V78500241_2073.txt Node
Date: Fri Mar 25 17:03:24 CST 2022
User: usil
Spectrometer: V785-0024
Trigger mode: 0
Integration Time (sec): 4.000000E-1
Scans to average: 1
Nonlinearity correction enabled: false
Boxcar width: 0
Storing dark spectrum: false
XAxis mode: Wavelengths
Number of Pixels in Spectrum: 1024
>>>>>Begin Spectral Data<<<<<
801.071	7986
801.214	8035
801.356	7871
801.499	7883
801.641	7799
801.783	7830
801.926	7982
802.068	7989
802.211	8069
802.353	7970
802.496	7830
802.638	7921
802.78	7868
802.923	7818
803.065	7879
803.208	7814
803.35	7925
803.492	8088
803.635	8138
803.777	8039
803.919	8149
804.061	8495
804.204	8183
804.346	8084
804.488	7902
804.63	8138
804.773	8020
804.915	8164
805.057	8256
805.199	8164
805.341	8225
805.483	8248
805.626	8218
805.768	8130
805.91	8252
806.052	8244
806.194	8145
806.336	8271
806.478	8092
806.62	8096
806.762	8134
806.904	8286
807.046	8465
807.188	8396
807.33	8256
807.472	8328
807.614	8237
807.756	8130
807.898	8008
808.04	7868
808.182	7871
808.324	7879
808.465	7944
808.607	8016
808.749	8115
808.891	8210
809.033	8370
809.174	8263
809.316	8100
809.458	8100
809.6	8027
809.741	8012
809.883	8001
810.025	8107
810.166	8024
810.308	8027
810.45	8012
810.591	7845
810.733	7689
810.875	7674
811.016	7563
811.158	7521
811.299	7540
811.441	7670
811.582	7685
811.724	7548
811.865	7499
812.007	7597
812.148	7525
812.29	7662
812.431	7742
812.573	7917
812.714	7906
812.855	8123
812.997	8168
813.138	8244
813.279	8195
813.421	8084
813.562	7909
813.703	7852
813.845	7685
813.986	7499
814.127	7282
814.268	7168
814.41	7183
814.551	7213
814.692	7240
814.833	7194
814.974	7152
815.115	7061
815.256	6958
815.397	6920
815.539	6951
815.68	6833
815.821	6783
815.962	6878
816.103	6837
816.244	6677
816.385	6646
816.526	6631
816.666	6490
816.807	6289
816.948	6410
817.089	6471
817.23	6418
817.371	6353
817.512	6353
817.653	6365
817.793	6300
817.934	6384
818.075	6395
818.216	6460
818.356	6399
818.497	6220
818.638	6125
818.778	6133
818.919	6144
819.06	6167
819.2	6308
819.341	6315
819.481	6376
819.622	6498
819.762	6734
819.903	6700
820.043	6620
820.184	6608
820.324	6601
820.465	6719
820.605	6658
820.746	6692
820.886	6490
821.026	6593
821.167	6700
821.307	6795
821.447	6795
821.588	6681
821.728	6604
821.868	6498
822.008	6304
822.149	6365
822.289	6327
822.429	6148
822.569	6110
822.709	6102
822.849	5931
822.99	5927
823.13	5882
823.27	5904
823.41	5783
823.55	5813
823.69	5764
823.83	5741
823.97	5684
824.11	5543
824.25	5516
824.389	5558
824.529	5554
824.669	5486
824.809	5627
824.949	5688
825.089	5619
825.228	5570
825.368	5376
825.508	5364
825.648	5258
825.787	5387
825.927	5376
826.067	5280
826.206	5311
826.346	5379
826.485	5433
826.625	5402
826.765	5520
826.904	5497
827.044	5265
827.183	5170
827.323	5117
827.462	5250
827.601	5193
827.741	5185
827.88	5239
828.02	5170
828.159	5216
828.298	5376
828.437	5421
828.577	5273
828.716	5490
828.855	5318
828.994	5193
829.134	5178
829.273	5174
829.412	5140
829.551	5083
829.69	5162
829.829	5216
829.968	5334
830.107	5284
830.246	5250
830.385	5181
830.524	5147
830.663	5067
830.802	4995
830.941	4930
831.08	4862
831.219	4934
831.357	4942
831.496	5216
831.635	4908
831.774	4858
831.913	4881
832.051	4748
832.19	4736
832.329	4843
832.467	4748
832.606	4637
832.744	4717
832.883	4752
833.022	4733
833.16	4797
833.299	4839
833.437	4809
833.576	4831
833.714	4919
833.852	4847
833.991	4862
834.129	4972
834.267	4942
834.406	4900
834.544	4999
834.682	4999
834.821	4968
834.959	5136
835.097	5022
835.235	5132
835.373	5052
835.511	5105
835.65	5041
835.788	5037
835.926	4911
836.064	4904
836.202	4946
836.34	5159
836.478	5181
836.615	5124
836.753	5170
836.891	5284
837.029	5208
837.167	5208
837.305	5151
837.443	5155
837.58	5064
837.718	5231
837.856	5170
837.993	5124
838.131	5299
838.269	5181
838.406	5143
838.544	5185
838.681	5075
838.819	4976
838.956	4892
839.094	4908
839.231	4961
839.369	5136
839.506	5421
839.643	5246
839.781	5060
839.918	5014
840.055	5079
840.193	5109
840.33	5105
840.467	5174
840.604	5162
840.742	5425
840.879	5033
841.016	5105
841.153	5151
841.29	5334
841.427	5280
841.564	5307
841.701	5345
841.838	5269
841.975	5242
842.112	5235
842.249	5159
842.385	5121
842.522	5330
842.659	5155
842.796	5162
842.933	5174
843.069	5132
843.206	5124
843.343	5261
843.479	5220
843.616	5273
843.752	5029
843.889	5056
844.025	5223
844.162	5006
844.298	5208
844.435	5045
844.571	5052
844.708	5208
844.844	5311
844.98	5326
845.117	5357
845.253	5113
845.389	5098
845.525	5189
845.661	5132
845.798	5075
845.934	5147
846.07	5033
846.206	5212
846.342	5296
846.478	5189
846.614	5029
846.75	4930
846.886	4930
847.022	5132
847.158	5037
847.294	5041
847.429	5102
847.565	5045
847.701	5318
847.837	4900
847.972	4801
848.108	5029
848.244	4885
848.379	4774
848.515	4679
848.65	4675
848.786	4717
848.921	4752
849.057	4885
849.192	4843
849.328	4866
849.463	4820
849.598	4755
849.734	4790
849.869	4694
850.004	4706
850.14	4637
850.275	4630
850.41	4508
850.545	4580
850.68	4588
850.815	4634
850.95	4615
851.085	4862
851.22	4714
851.355	4687
851.49	4634
851.625	4607
851.76	4637
851.895	4554
852.03	4546
852.165	4675
852.299	4710
852.434	4797
852.569	4752
852.703	4778
852.838	4854
852.973	4915
853.107	4927
853.242	4675
853.376	4653
853.511	4550
853.645	4626
853.78	4786
853.914	4710
854.048	4653
854.183	4649
854.317	4691
854.451	4877
854.585	4634
854.72	4626
854.854	4748
854.988	4615
855.122	4653
855.256	4535
855.39	4714
855.524	4755
855.658	4694
855.792	4668
855.926	4687
856.06	4748
856.194	4812
856.327	4698
856.461	4611
856.595	4596
856.729	4618
856.862	4725
856.996	4702
857.13	4702
857.263	4755
857.397	4812
857.53	4634
857.664	4706
857.797	4744
857.931	4748
858.064	4672
858.197	4710
858.331	4645
858.464	4611
858.597	4516
858.731	4645
858.864	4618
858.997	4588
859.13	4698
859.263	4675
859.396	4679
859.529	4588
859.662	4554
859.795	4523
859.928	4653
860.061	4744
860.194	4714
860.327	4584
860.46	4596
860.592	4694
860.725	4694
860.858	4733
860.99	4611
861.123	4497
861.256	4489
861.388	4615
861.521	5269
861.653	4508
861.786	4459
861.918	4443
862.05	4500
862.183	4550
862.315	4584
862.447	4675
862.58	4603
862.712	4440
862.844	4261
862.976	4508
863.108	4413
863.24	4790
863.372	4318
863.504	4409
863.636	4360
863.768	4512
863.9	4443
864.032	4337
864.164	4440
864.296	4470
864.428	4569
864.559	4565
864.691	4500
864.823	4485
864.954	4500
865.086	4512
865.217	4470
865.349	4421
865.48	4478
865.612	4459
865.743	4626
865.875	4470
866.006	4405
866.137	4474
866.269	4424
866.4	4424
866.531	4383
866.662	4432
866.793	4386
866.924	4386
867.055	4523
867.186	4409
867.317	4443
867.448	4383
867.579	4443
867.71	4386
867.841	4379
867.972	4447
868.103	4489
868.233	4466
868.364	4462
868.495	4512
868.625	4634
868.756	4748
868.886	4588
869.017	4611
869.147	4755
869.278	4771
869.408	4664
869.539	4584
869.669	4675
869.799	4641
869.929	4767
870.06	4755
870.19	4934
870.32	4915
870.45	4980
870.58	4987
870.71	5052
870.84	5124
870.97	4949
871.1	4911
871.23	5147
871.36	5155
871.489	5033
871.619	5071
871.749	5090
871.879	5113
872.008	5128
872.138	5033
872.267	4949
872.397	4816
872.526	4877
872.656	4744
872.785	4824
872.915	4889
873.044	5025
873.173	4930
873.303	4946
873.432	4976
873.561	4953
873.69	4843
873.819	4862
873.948	4904
874.077	4759
874.206	4790
874.335	4866
874.464	4915
874.593	5132
874.722	4965
874.851	5052
874.979	5060
875.108	5060
875.237	4904
875.365	4915
875.494	4900
875.623	4980
875.751	4824
875.88	4923
876.008	4972
876.136	5037
876.265	5235
876.393	5326
876.521	5277
876.65	5220
876.778	5170
876.906	5098
877.034	5003
877.162	5094
877.29	4957
877.418	5037
877.546	5018
877.674	5022
877.802	5037
877.93	4991
878.058	4957
878.185	4896
878.313	4946
878.441	4919
878.568	4767
878.696	4877
878.824	5014
878.951	4984
879.079	5109
879.206	5296
879.333	5067
879.461	4938
879.588	5037
879.715	5098
879.842	5193
879.97	5003
880.097	4790
880.224	4778
880.351	4797
880.478	4824
880.605	4797
880.732	4778
880.859	5067
880.986	4881
881.112	4843
881.239	4763
881.366	4679
881.493	4554
881.619	4584
881.746	4641
881.872	4660
881.999	4626
882.125	4733
882.252	4805
882.378	4850
882.505	4949
882.631	4774
882.757	4683
882.883	4687
883.01	4721
883.136	4626
883.262	4637
883.388	4611
883.514	4835
883.64	4866
883.766	4805
883.892	4691
884.018	4717
884.143	4915
884.269	4991
884.395	4714
884.52	4664
884.646	4607
884.772	4519
884.897	4558
885.023	4660
885.148	4755
885.274	4820
885.399	4809
885.524	4755
885.65	4698
885.775	4774
885.9	4664
886.025	4839
886.15	4793
886.275	4706
886.4	4656
886.525	4729
886.65	4694
886.775	4725
886.9	4942
887.025	5025
887.149	4763
887.274	4599
887.399	4569
887.523	4592
887.648	4554
887.773	4584
887.897	4782
888.021	4809
888.146	4736
888.27	4847
888.395	4900
888.519	4812
888.643	4847
888.767	4774
888.891	4672
889.015	4634
889.139	4668
889.263	4546
889.387	4752
889.511	4862
889.635	4793
889.759	4592
889.883	4626
890.006	4721
890.13	4847
890.254	4603
890.377	4656
890.501	4523
890.624	4508
890.748	4588
890.871	4527
890.995	4462
891.118	4379
891.241	4493
891.364	4519
891.488	4622
891.611	4493
891.734	4489
891.857	4611
891.98	4584
892.103	4672
892.226	4565
892.349	4478
892.471	4379
892.594	4527
892.717	4577
892.839	4554
892.962	4584
893.085	4664
893.207	4618
893.33	4478
893.452	4531
893.575	4645
893.697	4561
893.819	4816
893.941	4790
894.064	4767
894.186	4569
894.308	4580
894.43	4706
894.552	4816
894.674	4733
894.796	4538
894.918	4592
895.04	4569
895.161	4698
895.283	4675
895.405	4554
895.526	4634
895.648	4664
895.769	4672
895.891	4706
896.012	4691
896.134	4706
896.255	4630
896.376	4626
896.498	4611
896.619	4675
896.74	4611
896.861	4649
896.982	4934
897.103	5083
897.224	4839
897.345	4736
897.466	4649
897.587	4702
897.708	4797
897.828	4805
897.949	4653
898.07	4565
898.19	4675
898.311	4805
898.431	4675
898.552	4733
898.672	4774
898.792	4835
898.913	4778
899.033	4649
899.153	4508
899.273	4459
899.393	4538
899.513	4550
899.633	4500
899.753	4538
899.873	4535
899.993	4565
900.113	4554
900.232	4588
900.352	4538
900.472	4508
900.591	4386
900.711	4500
900.83	4436
900.95	4630
901.069	4694
901.189	4538
901.308	4367
901.427	4299
901.546	4390
901.665	4493
901.784	4497
901.904	4363
902.023	4356
902.141	4192
902.26	4185
902.379	4261
902.498	4246
902.617	4211
902.735	4390
902.854	4440
902.973	4386
903.091	4196
903.21	4200
903.328	4234
903.446	4318
903.565	4272
903.683	4314
903.801	4219
903.919	4436
904.038	4455
904.156	4348
904.274	4379
904.392	4386
904.51	4421
904.627	4470
904.745	4588
904.863	4672
904.981	4398
905.098	4280
905.216	4333
905.334	4466
905.451	4451
905.569	4409
905.686	4584
905.803	4561
905.921	4390
906.038	4584
906.155	4451
906.272	4417
906.389	4432
906.506	4383
906.623	4363
906.74	4356
906.857	4291
906.974	4352
907.091	4550
907.208	4710
907.324	4569
907.441	4451
907.557	4318
907.674	4303
907.79	4363
907.907	4386
908.023	4497
908.139	4504
908.256	4421
908.372	4447
908.488	4443
908.604	4379
908.72	4322
908.836	4398
908.952	4405
909.068	4436
909.184	4508
909.3	4474
909.415	4596
909.531	4531
909.647	4375
909.762	4341
909.878	4344
909.993	4409
910.108	4402
910.224	4371
910.339	4455
910.454	4390
910.57	4333
910.685	4306
910.8	4668
910.915	4599
911.03	4489
911.145	4318
911.259	4337
911.374	4367
911.489	4257
911.604	4299
911.718	4112
911.833	4143
911.947	4074
912.062	4044
912.176	4227
912.291	4257
912.405	4257
912.519	4466
912.633	4466
912.748	4383
912.862	4291
912.976	4253
913.09	4086
913.204	4177
913.318	4268
913.431	4348
913.545	4402
913.659	4443
913.772	4337
913.886	4211
914	4246
914.113	4371
914.226	4436
914.34	4363
914.453	4276
914.566	4447
914.68	4287
914.793	4405
914.906	4177
915.019	4124
915.132	4082
915.245	4135
915.358	4234
915.47	4238
915.583	4246
915.696	4234
915.809	4440
915.921	4424
916.034	4280
916.146	4246
916.259	4204
916.371	4394
916.483	4386
916.595	4204
916.708	4314
916.82	4306
916.932	4310
917.044	4318
917.156	4329
917.268	4242
917.38	4272
917.491	4295
917.603	4303
917.715	4409
917.826	4485
917.938	4367
918.049	4249
918.161	4424
918.272	4523
918.384	4493
918.495	4455
918.606	4280
918.717	4261
918.828	4314
918.939	4371
919.05	4242
919.161	4306
919.272	4143
919.383	4249
919.494	4432
919.604	4675
919.715	4428
919.826	4314
919.936	4371
920.047	4550
920.157	4500
920.267	4687
920.378	4519
920.488	4504
920.598	4698
920.708	4881
920.818	4725
920.928	4793
921.038	4957
921.148	4862
921.258	4653
921.368	4527
921.477	4516
921.587	4451
921.697	4363
921.806	4538
921.916	4497
922.025	4306
922.134	4246
922.244	4223
922.353	4306
922.462	4196
922.571	4169
922.68	4010
922.789	3945
922.898	4051
923.007	3983
923.116	4097
923.224	4063
923.333	4063
923.442	3991
923.55	3960
923.659	4021
923.767	4112
923.876	3972
923.984	4158
924.092	4021
924.201	4082
924.309	4071
924.417	4139
924.525	4071
924.633	4074
924.741	5052
924.849	3899
924.956	4112
925.064	3956
925.172	3953
925.279	3945
925.387	4086
925.494	4029
925.602	4234
925.709	4185
925.816	4036
925.924	4162
926.031	4249
926.138	4169
926.245	4185
926.352	4067
926.459	4223
926.566	4306
926.673	4173
926.779	4112
926.886	4063
926.993	3945
927.099	3960
927.206	3953
927.312	3941
927.419	4002
927.525	4017
927.631	4074
927.737	3956
927.843	3918
927.95	3831
928.056	3941
928.162	3979
928.267	4036
928.373	4565
928.479	4128
928.585	3873
928.69	4032
928.796	4082
928.901	4021
929.007	3873
929.112	3964
929.218	3941
929.323	3956
929.428	3918
929.533	4128
929.638	3907
929.743	3964
929.848	4044
929.953	4044
930.058	3888
930.163	3778
930.267	3781
930.372	3945
930.477	3827
930.581	4078
930.685	3960
930.79	3804
930.894	3873
930.998	3869
931.103	4074
931.207	3743
931.311	3667
931.415	3686
931.519	3511
931.623	3542
