Data from test_V78500241_2193.txt Node
Date: Fri Mar 25 17:04:15 CST 2022
User: usil
Spectrometer: V785-0024
Trigger mode: 0
Integration Time (sec): 4.000000E-1
Scans to average: 1
Nonlinearity correction enabled: false
Boxcar width: 0
Storing dark spectrum: false
XAxis mode: Wavelengths
Number of Pixels in Spectrum: 1024
>>>>>Begin Spectral Data<<<<<
801.071	8016
801.214	7970
801.356	7772
801.499	7769
801.641	7788
801.783	7811
801.926	8020
802.068	7925
802.211	7963
802.353	7974
802.496	7826
802.638	7845
802.78	7868
802.923	7951
803.065	7868
803.208	7803
803.35	7913
803.492	8107
803.635	8157
803.777	7978
803.919	8084
804.061	8370
804.204	8157
804.346	8024
804.488	7951
804.63	8092
804.773	8005
804.915	8123
805.057	8267
805.199	8202
805.341	8180
805.483	8256
805.626	8221
805.768	8142
805.91	8180
806.052	8248
806.194	8130
806.336	8286
806.478	8081
806.62	8062
806.762	8180
806.904	8286
807.046	8492
807.188	8309
807.33	8279
807.472	8332
807.614	8225
807.756	8180
807.898	7986
808.04	7917
808.182	7913
808.324	7875
808.465	7887
808.607	8077
808.749	8050
808.891	8195
809.033	8305
809.174	8275
809.316	8092
809.458	8081
809.6	8031
809.741	7993
809.883	8062
810.025	8138
810.166	8100
810.308	8027
810.45	7986
810.591	7769
810.733	7731
810.875	7616
811.016	7495
811.158	7426
811.299	7548
811.441	7761
811.582	7696
811.724	7571
811.865	7537
812.007	7571
812.148	7514
812.29	7567
812.431	7799
812.573	7864
812.714	7974
812.855	8161
812.997	8218
813.138	8313
813.279	8149
813.421	8084
813.562	7986
813.703	7845
813.845	7769
813.986	7411
814.127	7202
814.268	7236
814.41	7133
814.551	7202
814.692	7202
814.833	7069
814.974	7080
815.115	7133
815.256	6932
815.397	6932
815.539	6897
815.68	6814
815.821	6791
815.962	6878
816.103	6825
816.244	6688
816.385	6604
816.526	6559
816.666	6551
816.807	6270
816.948	6467
817.089	6422
817.23	6475
817.371	6426
817.512	6384
817.653	6372
817.793	6395
817.934	6388
818.075	6486
818.216	6448
818.356	6391
818.497	6224
818.638	6076
818.778	6129
818.919	6144
819.06	6148
819.2	6384
819.341	6323
819.481	6353
819.622	6521
819.762	6700
819.903	6722
820.043	6608
820.184	6540
820.324	6563
820.465	6658
820.605	6677
820.746	6673
820.886	6437
821.026	6677
821.167	6669
821.307	6829
821.447	6722
821.588	6669
821.728	6604
821.868	6456
822.008	6289
822.149	6391
822.289	6376
822.429	6125
822.569	6057
822.709	6114
822.849	5927
822.99	5821
823.13	5965
823.27	5897
823.41	5775
823.55	5790
823.69	5741
823.83	5737
823.97	5676
824.11	5520
824.25	5455
824.389	5528
824.529	5611
824.669	5459
824.809	5699
824.949	5653
825.089	5608
825.228	5562
825.368	5330
825.508	5315
825.648	5296
825.787	5353
825.927	5406
826.067	5299
826.206	5277
826.346	5368
826.485	5383
826.625	5349
826.765	5547
826.904	5532
827.044	5269
827.183	5242
827.323	5140
827.462	5220
827.601	5166
827.741	5151
827.88	5246
828.02	5124
828.159	5269
828.298	5288
828.437	5341
828.577	5303
828.716	5486
828.855	5311
828.994	5178
829.134	5162
829.273	5193
829.412	5140
829.551	5136
829.69	5197
829.829	5212
829.968	5406
830.107	5273
830.246	5261
830.385	5128
830.524	5159
830.663	5029
830.802	4980
830.941	4881
831.08	4862
831.219	4957
831.357	4968
831.496	5140
831.635	4896
831.774	4873
831.913	4831
832.051	4717
832.19	4774
832.329	4828
832.467	4698
832.606	4687
832.744	4748
832.883	4733
833.022	4672
833.16	4801
833.299	4824
833.437	4809
833.576	4790
833.714	4873
833.852	4877
833.991	4915
834.129	4961
834.267	4965
834.406	4866
834.544	4949
834.682	4968
834.821	4965
834.959	5117
835.097	4976
835.235	5136
835.373	5067
835.511	5109
835.65	4995
835.788	5045
835.926	4942
836.064	4877
836.202	4919
836.34	5117
836.478	5239
836.615	5090
836.753	5174
836.891	5239
837.029	5201
837.167	5239
837.305	5170
837.443	5166
837.58	5094
837.718	5235
837.856	5189
837.993	5132
838.131	5277
838.269	5208
838.406	5170
838.544	5162
838.681	4999
838.819	5022
838.956	4915
839.094	4953
839.231	4972
839.369	5086
839.506	5417
839.643	5246
839.781	5045
839.918	5014
840.055	5067
840.193	5105
840.33	5121
840.467	5174
840.604	5159
840.742	5459
840.879	5056
841.016	5060
841.153	5105
841.29	5391
841.427	5337
841.564	5318
841.701	5364
841.838	5265
841.975	5246
842.112	5258
842.249	5098
842.385	5086
842.522	5280
842.659	5178
842.796	5128
842.933	5220
843.069	5102
843.206	5117
843.343	5303
843.479	5178
843.616	5235
843.752	5018
843.889	5014
844.025	5227
844.162	5006
844.298	5223
844.435	5105
844.571	5037
844.708	5208
844.844	5269
844.98	5341
845.117	5311
845.253	5140
845.389	5124
845.525	5170
845.661	5140
845.798	5056
845.934	5128
846.07	5041
846.206	5174
846.342	5280
846.478	5162
846.614	5033
846.75	4927
846.886	4911
847.022	5147
847.158	4987
847.294	5052
847.429	5075
847.565	5071
847.701	5299
847.837	4870
847.972	4809
848.108	4949
848.244	4934
848.379	4790
848.515	4755
848.65	4710
848.786	4736
848.921	4763
849.057	4843
849.192	4839
849.328	4835
849.463	4843
849.598	4767
849.734	4797
849.869	4656
850.004	4641
850.14	4630
850.275	4592
850.41	4535
850.545	4607
850.68	4607
850.815	4611
850.95	4615
851.085	4816
851.22	4725
851.355	4683
851.49	4611
851.625	4679
851.76	4664
851.895	4592
852.03	4508
852.165	4687
852.299	4721
852.434	4759
852.569	4714
852.703	4725
852.838	4858
852.973	4900
853.107	4919
853.242	4733
853.376	4710
853.511	4573
853.645	4596
853.78	4790
853.914	4660
854.048	4656
854.183	4611
854.317	4721
854.451	4820
854.585	4645
854.72	4664
854.854	4774
854.988	4653
855.122	4641
855.256	4531
855.39	4653
855.524	4835
855.658	4687
855.792	4710
855.926	4740
856.06	4790
856.194	4778
856.327	4691
856.461	4596
856.595	4664
856.729	4603
856.862	4782
856.996	4664
857.13	4672
857.263	4759
857.397	4797
857.53	4649
857.664	4710
857.797	4736
857.931	4710
858.064	4683
858.197	4729
858.331	4691
858.464	4660
858.597	4554
858.731	4618
858.864	4603
858.997	4565
859.13	4649
859.263	4649
859.396	4710
859.529	4584
859.662	4622
859.795	4569
859.928	4664
860.061	4706
860.194	4698
860.327	4645
860.46	4599
860.592	4691
860.725	4668
860.858	4725
860.99	4519
861.123	4508
861.256	4538
861.388	4607
861.521	5452
861.653	4466
861.786	4443
861.918	4462
862.05	4558
862.183	4538
862.315	4584
862.447	4656
862.58	4523
862.712	4424
862.844	4344
862.976	4459
863.108	4508
863.24	4748
863.372	4329
863.504	4413
863.636	4417
863.768	4440
863.9	4447
864.032	4386
864.164	4417
864.296	4447
864.428	4573
864.559	4565
864.691	4531
864.823	4535
864.954	4478
865.086	4481
865.217	4462
865.349	4424
865.48	4413
865.612	4516
865.743	4634
865.875	4478
866.006	4375
866.137	4432
866.269	4436
866.4	4421
866.531	4394
866.662	4413
866.793	4421
866.924	4409
867.055	4474
867.186	4459
867.317	4413
867.448	4402
867.579	4379
867.71	4360
867.841	4356
867.972	4455
868.103	4497
868.233	4383
868.364	4459
868.495	4478
868.625	4672
868.756	4782
868.886	4558
869.017	4626
869.147	4759
869.278	4809
869.408	4660
869.539	4687
869.669	4710
869.799	4694
869.929	4767
870.06	4767
870.19	4934
870.32	4915
870.45	4961
870.58	4991
870.71	5136
870.84	5060
870.97	4938
871.1	4896
871.23	5109
871.36	5113
871.489	5041
871.619	5094
871.749	5075
871.879	5067
872.008	5124
872.138	5033
872.267	5006
872.397	4870
872.526	4801
872.656	4672
872.785	4812
872.915	4968
873.044	5033
873.173	4946
873.303	4919
873.432	4923
873.561	4999
873.69	4843
873.819	4858
873.948	4900
874.077	4801
874.206	4786
874.335	4778
874.464	4904
874.593	5067
874.722	4919
874.851	5136
874.979	5029
875.108	5060
875.237	4911
875.365	4835
875.494	4843
875.623	4999
875.751	4835
875.88	4805
876.008	4968
876.136	5029
876.265	5273
876.393	5360
876.521	5235
876.65	5170
876.778	5113
876.906	5022
877.034	5010
877.162	5037
877.29	4987
877.418	5033
877.546	5067
877.674	5102
877.802	5052
877.93	4999
878.058	4927
878.185	4870
878.313	4961
878.441	4972
878.568	4831
878.696	4839
878.824	4968
878.951	5003
879.079	5117
879.206	5265
879.333	5075
879.461	4976
879.588	5022
879.715	5121
879.842	5246
879.97	4999
880.097	4782
880.224	4717
880.351	4854
880.478	4805
880.605	4801
880.732	4763
880.859	5086
880.986	4904
881.112	4908
881.239	4778
881.366	4626
881.493	4611
881.619	4577
881.746	4634
881.872	4592
881.999	4615
882.125	4668
882.252	4790
882.378	4847
882.505	4953
882.631	4812
882.757	4752
882.883	4717
883.01	4664
883.136	4649
883.262	4554
883.388	4577
883.514	4790
883.64	4839
883.766	4793
883.892	4675
884.018	4698
884.143	4862
884.269	4999
884.395	4622
884.52	4603
884.646	4706
884.772	4599
884.897	4523
885.023	4653
885.148	4812
885.274	4850
885.399	4782
885.524	4698
885.65	4687
885.775	4740
885.9	4710
886.025	4858
886.15	4797
886.275	4778
886.4	4615
886.525	4691
886.65	4664
886.775	4664
886.9	4873
887.025	5033
887.149	4801
887.274	4679
887.399	4622
887.523	4580
887.648	4538
887.773	4573
887.897	4733
888.021	4771
888.146	4611
888.27	4820
888.395	4915
888.519	4835
888.643	4782
888.767	4786
888.891	4744
889.015	4577
889.139	4630
889.263	4596
889.387	4721
889.511	4850
889.635	4771
889.759	4626
889.883	4622
890.006	4702
890.13	4828
890.254	4611
890.377	4675
890.501	4561
890.624	4512
890.748	4626
890.871	4519
890.995	4470
891.118	4398
891.241	4527
891.364	4550
891.488	4592
891.611	4519
891.734	4569
891.857	4656
891.98	4584
892.103	4637
892.226	4630
892.349	4535
892.471	4447
892.594	4523
892.717	4607
892.839	4580
892.962	4645
893.085	4664
893.207	4588
893.33	4462
893.452	4546
893.575	4660
893.697	4603
893.819	4797
893.941	4755
894.064	4790
894.186	4588
894.308	4588
894.43	4687
894.552	4828
894.674	4755
894.796	4550
894.918	4588
895.04	4546
895.161	4725
895.283	4691
895.405	4542
895.526	4630
895.648	4706
895.769	4683
895.891	4668
896.012	4702
896.134	4748
896.255	4683
896.376	4664
896.498	4569
896.619	4649
896.74	4573
896.861	4668
896.982	4938
897.103	5098
897.224	4831
897.345	4733
897.466	4660
897.587	4702
897.708	4881
897.828	4771
897.949	4641
898.07	4577
898.19	4630
898.311	4843
898.431	4714
898.552	4687
898.672	4835
898.792	4778
898.913	4721
899.033	4626
899.153	4485
899.273	4443
899.393	4493
899.513	4573
899.633	4523
899.753	4558
899.873	4459
899.993	4592
900.113	4485
900.232	4569
900.352	4550
900.472	4485
900.591	4402
900.711	4512
900.83	4447
900.95	4603
901.069	4675
901.189	4519
901.308	4344
901.427	4344
901.546	4405
901.665	4459
901.784	4497
901.904	4386
902.023	4306
902.141	4188
902.26	4139
902.379	4306
902.498	4268
902.617	4223
902.735	4360
902.854	4379
902.973	4398
903.091	4181
903.21	4204
903.328	4306
903.446	4253
903.565	4314
903.683	4352
903.801	4272
903.919	4383
904.038	4402
904.156	4333
904.274	4405
904.392	4402
904.51	4455
904.627	4462
904.745	4596
904.863	4630
904.981	4421
905.098	4291
905.216	4314
905.334	4413
905.451	4462
905.569	4474
905.686	4546
905.803	4588
905.921	4417
906.038	4474
906.155	4481
906.272	4405
906.389	4474
906.506	4299
906.623	4375
906.74	4421
906.857	4276
906.974	4383
907.091	4508
907.208	4645
907.324	4577
907.441	4493
907.557	4306
907.674	4325
907.79	4314
907.907	4394
908.023	4459
908.139	4493
908.256	4432
908.372	4474
908.488	4428
908.604	4329
908.72	4310
908.836	4375
908.952	4367
909.068	4451
909.184	4634
909.3	4523
909.415	4561
909.531	4558
909.647	4383
909.762	4333
909.878	4329
909.993	4409
910.108	4455
910.224	4462
910.339	4436
910.454	4443
910.57	4329
910.685	4291
910.8	4630
910.915	4569
911.03	4466
911.145	4299
911.259	4325
911.374	4371
911.489	4272
911.604	4261
911.718	4185
911.833	4162
911.947	4090
912.062	4021
912.176	4227
912.291	4219
912.405	4234
912.519	4462
912.633	4535
912.748	4367
912.862	4314
912.976	4181
913.09	4109
913.204	4154
913.318	4238
913.431	4360
913.545	4386
913.659	4413
913.772	4360
913.886	4234
914	4200
914.113	4352
914.226	4421
914.34	4363
914.453	4192
914.566	4402
914.68	4284
914.793	4310
914.906	4192
915.019	4147
915.132	4051
915.245	4169
915.358	4215
915.47	4249
915.583	4227
915.696	4261
915.809	4413
915.921	4428
916.034	4261
916.146	4215
916.259	4196
916.371	4394
916.483	4344
916.595	4280
916.708	4295
916.82	4318
916.932	4303
917.044	4329
917.156	4314
917.268	4204
917.38	4272
917.491	4268
917.603	4314
917.715	4386
917.826	4447
917.938	4341
918.049	4211
918.161	4398
918.272	4558
918.384	4527
918.495	4424
918.606	4284
918.717	4188
918.828	4287
918.939	4363
919.05	4272
919.161	4272
919.272	4181
919.383	4215
919.494	4459
919.604	4634
919.715	4455
919.826	4295
919.936	4402
920.047	4485
920.157	4546
920.267	4675
920.378	4466
920.488	4542
920.598	4782
920.708	4854
920.818	4763
920.928	4771
921.038	4911
921.148	4870
921.258	4634
921.368	4489
921.477	4550
921.587	4474
921.697	4341
921.806	4550
921.916	4428
922.025	4280
922.134	4272
922.244	4196
922.353	4352
922.462	4131
922.571	4116
922.68	4013
922.789	3941
922.898	4055
923.007	3968
923.116	4116
923.224	4040
923.333	4086
923.442	4010
923.55	3994
923.659	4032
923.767	4131
923.876	4036
923.984	4131
924.092	4029
924.201	4090
924.309	4120
924.417	4105
924.525	4044
924.633	4120
924.741	5071
924.849	3892
924.956	4169
925.064	3934
925.172	3915
925.279	3968
925.387	4063
925.494	4063
925.602	4219
925.709	4215
925.816	4032
925.924	4109
926.031	4246
926.138	4196
926.245	4181
926.352	4093
926.459	4265
926.566	4303
926.673	4120
926.779	4116
926.886	4093
926.993	3949
927.099	3915
927.206	3911
927.312	3918
927.419	4078
927.525	4017
927.631	4109
927.737	3945
927.843	3949
927.95	3850
928.056	3922
928.162	3987
928.267	4090
928.373	4664
928.479	4097
928.585	3846
928.69	3994
928.796	4013
928.901	3994
929.007	3831
929.112	4013
929.218	4006
929.323	3949
929.428	3949
929.533	4128
929.638	3930
929.743	3979
929.848	4055
929.953	3972
930.058	3915
930.163	3789
930.267	3785
930.372	3941
930.477	3766
930.581	4078
930.685	3941
930.79	3804
930.894	3850
930.998	3857
931.103	4032
931.207	3660
931.311	3644
931.415	3667
931.519	3511
931.623	3492
