Data from test_V78500241_2047.txt Node
Date: Fri Mar 25 17:03:14 CST 2022
User: usil
Spectrometer: V785-0024
Trigger mode: 0
Integration Time (sec): 4.000000E-1
Scans to average: 1
Nonlinearity correction enabled: false
Boxcar width: 0
Storing dark spectrum: false
XAxis mode: Wavelengths
Number of Pixels in Spectrum: 1024
>>>>>Begin Spectral Data<<<<<
801.071	7955
801.214	7951
801.356	7799
801.499	7852
801.641	7738
801.783	7792
801.926	8016
802.068	7887
802.211	7986
802.353	8008
802.496	7837
802.638	7864
802.78	7822
802.923	7875
803.065	7811
803.208	7818
803.35	7940
803.492	8031
803.635	8100
803.777	8008
803.919	8096
804.061	8454
804.204	8172
804.346	8005
804.488	8005
804.63	8096
804.773	7944
804.915	8058
805.057	8328
805.199	8123
805.341	8183
805.483	8187
805.626	8195
805.768	8069
805.91	8199
806.052	8244
806.194	8176
806.336	8305
806.478	8123
806.62	8073
806.762	8145
806.904	8286
807.046	8465
807.188	8339
807.33	8355
807.472	8377
807.614	8168
807.756	8145
807.898	7944
808.04	7864
808.182	7921
808.324	7849
808.465	7875
808.607	8050
808.749	8062
808.891	8229
809.033	8282
809.174	8187
809.316	8077
809.458	8088
809.6	7993
809.741	8069
809.883	8081
810.025	8054
810.166	8035
810.308	8027
810.45	7955
810.591	7849
810.733	7700
810.875	7708
811.016	7575
811.158	7460
811.299	7556
811.441	7681
811.582	7708
811.724	7510
811.865	7594
812.007	7525
812.148	7556
812.29	7616
812.431	7742
812.573	7875
812.714	7974
812.855	8115
812.997	8172
813.138	8290
813.279	8191
813.421	8088
813.562	7967
813.703	7868
813.845	7670
813.986	7445
814.127	7289
814.268	7206
814.41	7149
814.551	7149
814.692	7247
814.833	7053
814.974	7069
815.115	7133
815.256	6909
815.397	6947
815.539	6882
815.68	6764
815.821	6730
815.962	6882
816.103	6825
816.244	6745
816.385	6589
816.526	6540
816.666	6483
816.807	6327
816.948	6399
817.089	6433
817.23	6403
817.371	6334
817.512	6384
817.653	6338
817.793	6292
817.934	6388
818.075	6460
818.216	6395
818.356	6376
818.497	6251
818.638	6163
818.778	6175
818.919	6175
819.06	6197
819.2	6327
819.341	6323
819.481	6361
819.622	6490
819.762	6791
819.903	6741
820.043	6593
820.184	6597
820.324	6574
820.465	6707
820.605	6700
820.746	6684
820.886	6517
821.026	6677
821.167	6776
821.307	6787
821.447	6722
821.588	6711
821.728	6593
821.868	6467
822.008	6292
822.149	6346
822.289	6342
822.429	6163
822.569	6144
822.709	6167
822.849	5954
822.99	5912
823.13	5923
823.27	5866
823.41	5794
823.55	5786
823.69	5771
823.83	5805
823.97	5684
824.11	5520
824.25	5505
824.389	5592
824.529	5573
824.669	5512
824.809	5661
824.949	5661
825.089	5600
825.228	5512
825.368	5410
825.508	5387
825.648	5395
825.787	5372
825.927	5376
826.067	5254
826.206	5288
826.346	5337
826.485	5326
826.625	5372
826.765	5535
826.904	5471
827.044	5235
827.183	5227
827.323	5162
827.462	5258
827.601	5162
827.741	5193
827.88	5254
828.02	5143
828.159	5284
828.298	5337
828.437	5372
828.577	5246
828.716	5509
828.855	5322
828.994	5155
829.134	5166
829.273	5185
829.412	5147
829.551	5109
829.69	5170
829.829	5273
829.968	5345
830.107	5299
830.246	5265
830.385	5170
830.524	5113
830.663	5048
830.802	4980
830.941	4930
831.08	4889
831.219	5003
831.357	4976
831.496	5136
831.635	4968
831.774	4858
831.913	4850
832.051	4797
832.19	4790
832.329	4877
832.467	4717
832.606	4592
832.744	4679
832.883	4790
833.022	4706
833.16	4809
833.299	4877
833.437	4786
833.576	4835
833.714	4850
833.852	4873
833.991	4896
834.129	4942
834.267	4896
834.406	4927
834.544	4953
834.682	4991
834.821	4991
834.959	5166
835.097	5052
835.235	5166
835.373	4995
835.511	5075
835.65	5006
835.788	4980
835.926	4885
836.064	4835
836.202	4908
836.34	5178
836.478	5166
836.615	5105
836.753	5212
836.891	5269
837.029	5227
837.167	5197
837.305	5155
837.443	5140
837.58	5079
837.718	5250
837.856	5250
837.993	5109
838.131	5277
838.269	5227
838.406	5220
838.544	5155
838.681	5022
838.819	4965
838.956	4934
839.094	4946
839.231	4953
839.369	5083
839.506	5376
839.643	5284
839.781	5060
839.918	4984
840.055	5067
840.193	5086
840.33	5140
840.467	5090
840.604	5189
840.742	5406
840.879	5083
841.016	5067
841.153	5124
841.29	5341
841.427	5322
841.564	5292
841.701	5349
841.838	5265
841.975	5212
842.112	5261
842.249	5124
842.385	5102
842.522	5292
842.659	5124
842.796	5147
842.933	5185
843.069	5128
843.206	5136
843.343	5280
843.479	5242
843.616	5258
843.752	5025
843.889	4999
844.025	5220
844.162	5090
844.298	5220
844.435	5090
844.571	5052
844.708	5174
844.844	5330
844.98	5307
845.117	5280
845.253	5201
845.389	5067
845.525	5181
845.661	5159
845.798	5052
845.934	5121
846.07	5037
846.206	5136
846.342	5242
846.478	5166
846.614	5025
846.75	5014
846.886	4908
847.022	5143
847.158	4987
847.294	5029
847.429	5075
847.565	5033
847.701	5368
847.837	4873
847.972	4824
848.108	4957
848.244	4930
848.379	4778
848.515	4782
848.65	4675
848.786	4675
848.921	4793
849.057	4839
849.192	4862
849.328	4828
849.463	4850
849.598	4812
849.734	4744
849.869	4694
850.004	4618
850.14	4687
850.275	4622
850.41	4516
850.545	4615
850.68	4611
850.815	4554
850.95	4599
851.085	4870
851.22	4710
851.355	4691
851.49	4622
851.625	4611
851.76	4641
851.895	4523
852.03	4523
852.165	4649
852.299	4729
852.434	4774
852.569	4725
852.703	4786
852.838	4793
852.973	4927
853.107	4930
853.242	4748
853.376	4641
853.511	4558
853.645	4630
853.78	4816
853.914	4694
854.048	4698
854.183	4679
854.317	4702
854.451	4793
854.585	4664
854.72	4641
854.854	4752
854.988	4599
855.122	4622
855.256	4538
855.39	4641
855.524	4767
855.658	4721
855.792	4660
855.926	4717
856.06	4736
856.194	4812
856.327	4656
856.461	4607
856.595	4611
856.729	4634
856.862	4755
856.996	4664
857.13	4725
857.263	4725
857.397	4778
857.53	4637
857.664	4721
857.797	4717
857.931	4820
858.064	4656
858.197	4714
858.331	4630
858.464	4588
858.597	4569
858.731	4630
858.864	4630
858.997	4569
859.13	4645
859.263	4698
859.396	4721
859.529	4596
859.662	4558
859.795	4554
859.928	4611
860.061	4774
860.194	4771
860.327	4592
860.46	4603
860.592	4679
860.725	4694
860.858	4733
860.99	4584
861.123	4542
861.256	4512
861.388	4645
861.521	5341
861.653	4462
861.786	4413
861.918	4443
862.05	4462
862.183	4573
862.315	4637
862.447	4637
862.58	4546
862.712	4363
862.844	4360
862.976	4462
863.108	4489
863.24	4759
863.372	4352
863.504	4417
863.636	4386
863.768	4478
863.9	4424
864.032	4371
864.164	4440
864.296	4436
864.428	4611
864.559	4580
864.691	4538
864.823	4561
864.954	4500
865.086	4527
865.217	4451
865.349	4375
865.48	4428
865.612	4508
865.743	4592
865.875	4500
866.006	4470
866.137	4428
866.269	4409
866.4	4428
866.531	4413
866.662	4367
866.793	4417
866.924	4421
867.055	4500
867.186	4470
867.317	4398
867.448	4348
867.579	4421
867.71	4402
867.841	4329
867.972	4462
868.103	4459
868.233	4405
868.364	4443
868.495	4554
868.625	4630
868.756	4744
868.886	4565
869.017	4615
869.147	4748
869.278	4729
869.408	4706
869.539	4649
869.669	4717
869.799	4641
869.929	4759
870.06	4748
870.19	4965
870.32	4915
870.45	4927
870.58	5041
870.71	5090
870.84	5079
870.97	4881
871.1	4862
871.23	5094
871.36	5132
871.489	5037
871.619	5052
871.749	5124
871.879	5056
872.008	5147
872.138	5060
872.267	4991
872.397	4839
872.526	4809
872.656	4725
872.785	4835
872.915	4904
873.044	5025
873.173	4965
873.303	4976
873.432	4965
873.561	4934
873.69	4839
873.819	4858
873.948	4908
874.077	4828
874.206	4752
874.335	4797
874.464	4915
874.593	5048
874.722	4938
874.851	5102
874.979	5052
875.108	5033
875.237	4885
875.365	4904
875.494	4949
875.623	5045
875.751	4835
875.88	4896
876.008	4968
876.136	5003
876.265	5223
876.393	5299
876.521	5254
876.65	5216
876.778	5155
876.906	5064
877.034	4999
877.162	5045
877.29	5014
877.418	5102
877.546	5041
877.674	5033
877.802	5025
877.93	5029
878.058	4957
878.185	4843
878.313	4972
878.441	4934
878.568	4752
878.696	4873
878.824	4953
878.951	4984
879.079	5132
879.206	5246
879.333	5105
879.461	4972
879.588	5018
879.715	5090
879.842	5231
879.97	4968
880.097	4797
880.224	4744
880.351	4831
880.478	4831
880.605	4805
880.732	4778
880.859	5090
880.986	4881
881.112	4919
881.239	4752
881.366	4687
881.493	4607
881.619	4596
881.746	4622
881.872	4641
881.999	4630
882.125	4645
882.252	4793
882.378	4820
882.505	4938
882.631	4850
882.757	4653
882.883	4637
883.01	4748
883.136	4615
883.262	4630
883.388	4592
883.514	4767
883.64	4862
883.766	4793
883.892	4702
884.018	4691
884.143	4915
884.269	5041
884.395	4656
884.52	4622
884.646	4656
884.772	4550
884.897	4550
885.023	4683
885.148	4778
885.274	4881
885.399	4805
885.524	4710
885.65	4740
885.775	4717
885.9	4706
886.025	4870
886.15	4820
886.275	4664
886.4	4645
886.525	4694
886.65	4729
886.775	4721
886.9	4908
887.025	5060
887.149	4797
887.274	4626
887.399	4554
887.523	4611
887.648	4569
887.773	4558
887.897	4748
888.021	4755
888.146	4660
888.27	4801
888.395	4877
888.519	4786
888.643	4843
888.767	4793
888.891	4656
889.015	4592
889.139	4664
889.263	4611
889.387	4755
889.511	4911
889.635	4778
889.759	4599
889.883	4622
890.006	4729
890.13	4812
890.254	4592
890.377	4683
890.501	4584
890.624	4512
890.748	4649
890.871	4462
890.995	4405
891.118	4356
891.241	4497
891.364	4546
891.488	4607
891.611	4474
891.734	4580
891.857	4611
891.98	4565
892.103	4637
892.226	4561
892.349	4508
892.471	4470
892.594	4535
892.717	4577
892.839	4607
892.962	4554
893.085	4584
893.207	4580
893.33	4481
893.452	4504
893.575	4649
893.697	4607
893.819	4736
893.941	4850
894.064	4767
894.186	4523
894.308	4592
894.43	4714
894.552	4847
894.674	4733
894.796	4538
894.918	4580
895.04	4535
895.161	4725
895.283	4668
895.405	4607
895.526	4649
895.648	4694
895.769	4714
895.891	4733
896.012	4717
896.134	4717
896.255	4672
896.376	4634
896.498	4645
896.619	4641
896.74	4577
896.861	4607
896.982	4889
897.103	5041
897.224	4809
897.345	4733
897.466	4668
897.587	4755
897.708	4866
897.828	4797
897.949	4649
898.07	4577
898.19	4618
898.311	4854
898.431	4634
898.552	4763
898.672	4809
898.792	4767
898.913	4721
899.033	4554
899.153	4523
899.273	4432
899.393	4470
899.513	4512
899.633	4481
899.753	4577
899.873	4531
899.993	4569
900.113	4504
900.232	4565
900.352	4569
900.472	4504
900.591	4371
900.711	4512
900.83	4459
900.95	4584
901.069	4694
901.189	4561
901.308	4413
901.427	4325
901.546	4383
901.665	4474
901.784	4500
901.904	4409
902.023	4310
902.141	4169
902.26	4124
902.379	4299
902.498	4246
902.617	4207
902.735	4390
902.854	4394
902.973	4367
903.091	4192
903.21	4162
903.328	4238
903.446	4265
903.565	4246
903.683	4314
903.801	4265
903.919	4402
904.038	4398
904.156	4272
904.274	4466
904.392	4371
904.51	4436
904.627	4470
904.745	4637
904.863	4580
904.981	4402
905.098	4341
905.216	4371
905.334	4402
905.451	4421
905.569	4375
905.686	4497
905.803	4550
905.921	4432
906.038	4577
906.155	4432
906.272	4337
906.389	4493
906.506	4360
906.623	4360
906.74	4375
906.857	4291
906.974	4390
907.091	4519
907.208	4660
907.324	4596
907.441	4470
907.557	4375
907.674	4322
907.79	4265
907.907	4383
908.023	4440
908.139	4436
908.256	4447
908.372	4443
908.488	4436
908.604	4394
908.72	4348
908.836	4371
908.952	4348
909.068	4424
909.184	4550
909.3	4432
909.415	4546
909.531	4523
909.647	4337
909.762	4432
909.878	4348
909.993	4462
910.108	4432
910.224	4421
910.339	4459
910.454	4402
910.57	4325
910.685	4299
910.8	4660
910.915	4607
911.03	4462
911.145	4314
911.259	4329
911.374	4379
911.489	4314
911.604	4325
911.718	4135
911.833	4177
911.947	4074
912.062	4055
912.176	4207
912.291	4242
912.405	4242
912.519	4481
912.633	4500
912.748	4386
912.862	4280
912.976	4173
913.09	4131
913.204	4173
913.318	4227
913.431	4371
913.545	4360
913.659	4421
913.772	4363
913.886	4287
914	4215
914.113	4409
914.226	4398
914.34	4413
914.453	4211
914.566	4398
914.68	4287
914.793	4291
914.906	4135
915.019	4147
915.132	4109
915.245	4154
915.358	4192
915.47	4192
915.583	4242
915.696	4295
915.809	4421
915.921	4405
916.034	4272
916.146	4257
916.259	4211
916.371	4405
916.483	4341
916.595	4242
916.708	4287
916.82	4303
916.932	4329
917.044	4318
917.156	4360
917.268	4234
917.38	4223
917.491	4295
917.603	4344
917.715	4424
917.826	4436
917.938	4371
918.049	4238
918.161	4428
918.272	4493
918.384	4527
918.495	4421
918.606	4295
918.717	4219
918.828	4371
918.939	4344
919.05	4268
919.161	4325
919.272	4147
919.383	4242
919.494	4447
919.604	4607
919.715	4436
919.826	4375
919.936	4417
920.047	4493
920.157	4481
920.267	4660
920.378	4519
920.488	4519
920.598	4687
920.708	4870
920.818	4702
920.928	4752
921.038	4930
921.148	4946
921.258	4615
921.368	4519
921.477	4512
921.587	4417
921.697	4432
921.806	4527
921.916	4447
922.025	4333
922.134	4272
922.244	4268
922.353	4325
922.462	4185
922.571	4135
922.68	4029
922.789	3964
922.898	4036
923.007	3979
923.116	4090
923.224	4051
923.333	4032
923.442	3979
923.55	3926
923.659	4029
923.767	4101
923.876	3983
923.984	4116
924.092	4021
924.201	4093
924.309	4067
924.417	4116
924.525	4029
924.633	4097
924.741	5014
924.849	3907
924.956	4173
925.064	3945
925.172	3896
925.279	3964
925.387	4040
925.494	4071
925.602	4185
925.709	4246
925.816	4036
925.924	4112
926.031	4215
926.138	4200
926.245	4177
926.352	4093
926.459	4249
926.566	4280
926.673	4131
926.779	4025
926.886	4071
926.993	3975
927.099	3983
927.206	3918
927.312	3945
927.419	4086
927.525	4017
927.631	4090
927.737	3956
927.843	4010
927.95	3869
928.056	3945
928.162	3979
928.267	4082
928.373	4554
928.479	4120
928.585	3907
928.69	4021
928.796	4029
928.901	3956
929.007	3827
929.112	4010
929.218	3987
929.323	3937
929.428	3926
929.533	4086
929.638	3907
929.743	3956
929.848	4086
929.953	4029
930.058	3930
930.163	3827
930.267	3785
930.372	3964
930.477	3789
930.581	4082
930.685	3983
930.79	3819
930.894	3896
930.998	3854
931.103	4044
931.207	3732
931.311	3690
931.415	3656
931.519	3511
931.623	3538
