Data from test_V78500241_700.txt Node
Date: Fri Mar 25 16:53:52 CST 2022
User: usil
Spectrometer: V785-0024
Trigger mode: 0
Integration Time (sec): 4.000000E-1
Scans to average: 1
Nonlinearity correction enabled: false
Boxcar width: 0
Storing dark spectrum: false
XAxis mode: Wavelengths
Number of Pixels in Spectrum: 1024
>>>>>Begin Spectral Data<<<<<
801.071	8039
801.214	7940
801.356	7925
801.499	7921
801.641	7757
801.783	7860
801.926	7986
802.068	7986
802.211	7963
802.353	7993
802.496	7837
802.638	7890
802.78	7974
802.923	7963
803.065	7776
803.208	7868
803.35	8012
803.492	8046
803.635	8180
803.777	7955
803.919	8081
804.061	8503
804.204	8069
804.346	8016
804.488	7928
804.63	8069
804.773	7989
804.915	8088
805.057	8309
805.199	8123
805.341	8199
805.483	8301
805.626	8237
805.768	8096
805.91	8126
806.052	8172
806.194	8157
806.336	8206
806.478	8077
806.62	8115
806.762	8096
806.904	8225
807.046	8434
807.188	8336
807.33	8313
807.472	8385
807.614	8096
807.756	8176
807.898	7974
808.04	7761
808.182	7887
808.324	7875
808.465	7849
808.607	8027
808.749	8081
808.891	8084
809.033	8248
809.174	8161
809.316	8084
809.458	8008
809.6	8035
809.741	8008
809.883	8088
810.025	8043
810.166	8111
810.308	7986
810.45	8024
810.591	7814
810.733	7712
810.875	7696
811.016	7540
811.158	7480
811.299	7597
811.441	7696
811.582	7647
811.724	7525
811.865	7559
812.007	7559
812.148	7521
812.29	7639
812.431	7704
812.573	7845
812.714	7947
812.855	8111
812.997	8195
813.138	8279
813.279	8290
813.421	8145
813.562	7898
813.703	7879
813.845	7830
813.986	7430
814.127	7289
814.268	7236
814.41	7141
814.551	7118
814.692	7198
814.833	7084
814.974	7034
815.115	7069
815.256	7015
815.397	6890
815.539	6970
815.68	6795
815.821	6734
815.962	6852
816.103	6840
816.244	6745
816.385	6612
816.526	6620
816.666	6445
816.807	6243
816.948	6418
817.089	6429
817.23	6407
817.371	6350
817.512	6365
817.653	6388
817.793	6353
817.934	6407
818.075	6403
818.216	6391
818.356	6407
818.497	6228
818.638	6110
818.778	6148
818.919	6129
819.06	6121
819.2	6323
819.341	6232
819.481	6334
819.622	6589
819.762	6654
819.903	6574
820.043	6498
820.184	6521
820.324	6513
820.465	6658
820.605	6700
820.746	6627
820.886	6483
821.026	6658
821.167	6635
821.307	6745
821.447	6741
821.588	6620
821.728	6555
821.868	6441
822.008	6327
822.149	6357
822.289	6285
822.429	6133
822.569	6083
822.709	6076
822.849	5889
822.99	5870
823.13	5920
823.27	5927
823.41	5748
823.55	5710
823.69	5786
823.83	5752
823.97	5634
824.11	5493
824.25	5474
824.389	5520
824.529	5566
824.669	5570
824.809	5623
824.949	5615
825.089	5608
825.228	5562
825.368	5425
825.508	5330
825.648	5315
825.787	5383
825.927	5353
826.067	5307
826.206	5296
826.346	5326
826.485	5398
826.625	5471
826.765	5535
826.904	5463
827.044	5235
827.183	5201
827.323	5155
827.462	5261
827.601	5185
827.741	5197
827.88	5265
828.02	5094
828.159	5220
828.298	5280
828.437	5372
828.577	5273
828.716	5459
828.855	5315
828.994	5178
829.134	5143
829.273	5204
829.412	5132
829.551	5143
829.69	5170
829.829	5242
829.968	5425
830.107	5231
830.246	5330
830.385	5197
830.524	5204
830.663	5128
830.802	4965
830.941	4957
831.08	4923
831.219	5003
831.357	4980
831.496	5121
831.635	4942
831.774	4885
831.913	4881
832.051	4748
832.19	4786
832.329	4873
832.467	4740
832.606	4641
832.744	4774
832.883	4790
833.022	4786
833.16	4820
833.299	4923
833.437	4843
833.576	4839
833.714	4881
833.852	4915
833.991	4976
834.129	4976
834.267	4980
834.406	4965
834.544	5018
834.682	5037
834.821	5048
834.959	5178
835.097	5029
835.235	5166
835.373	5140
835.511	5132
835.65	5067
835.788	5086
835.926	4919
836.064	4866
836.202	4942
836.34	5174
836.478	5231
836.615	5151
836.753	5277
836.891	5288
837.029	5265
837.167	5261
837.305	5189
837.443	5193
837.58	5113
837.718	5277
837.856	5201
837.993	5201
838.131	5242
838.269	5246
838.406	5239
838.544	5185
838.681	5079
838.819	5067
838.956	4904
839.094	4953
839.231	5045
839.369	5098
839.506	5429
839.643	5303
839.781	5124
839.918	5079
840.055	5170
840.193	5094
840.33	5143
840.467	5170
840.604	5212
840.742	5444
840.879	5109
841.016	5105
841.153	5197
841.29	5406
841.427	5379
841.564	5353
841.701	5334
841.838	5334
841.975	5239
842.112	5307
842.249	5151
842.385	5147
842.522	5383
842.659	5189
842.796	5140
842.933	5227
843.069	5212
843.206	5151
843.343	5341
843.479	5254
843.616	5326
843.752	5048
843.889	5075
844.025	5227
844.162	5079
844.298	5223
844.435	5128
844.571	5086
844.708	5204
844.844	5360
844.98	5326
845.117	5311
845.253	5174
845.389	5166
845.525	5136
845.661	5162
845.798	5098
845.934	5166
846.07	5025
846.206	5201
846.342	5311
846.478	5246
846.614	5041
846.75	4976
846.886	4953
847.022	5166
847.158	5037
847.294	5098
847.429	5075
847.565	5079
847.701	5337
847.837	4862
847.972	4820
848.108	4930
848.244	4965
848.379	4809
848.515	4797
848.65	4748
848.786	4793
848.921	4797
849.057	4877
849.192	4896
849.328	4843
849.463	4877
849.598	4828
849.734	4767
849.869	4763
850.004	4691
850.14	4702
850.275	4649
850.41	4550
850.545	4542
850.68	4660
850.815	4653
850.95	4706
851.085	4873
851.22	4786
851.355	4679
851.49	4668
851.625	4641
851.76	4679
851.895	4592
852.03	4615
852.165	4683
852.299	4763
852.434	4839
852.569	4793
852.703	4774
852.838	4904
852.973	4987
853.107	4961
853.242	4710
853.376	4725
853.511	4538
853.645	4656
853.78	4801
853.914	4736
854.048	4721
854.183	4668
854.317	4733
854.451	4858
854.585	4691
854.72	4637
854.854	4805
854.988	4660
855.122	4653
855.256	4527
855.39	4702
855.524	4774
855.658	4740
855.792	4675
855.926	4744
856.06	4793
856.194	4774
856.327	4710
856.461	4672
856.595	4637
856.729	4687
856.862	4782
856.996	4687
857.13	4767
857.263	4767
857.397	4824
857.53	4710
857.664	4725
857.797	4782
857.931	4793
858.064	4755
858.197	4744
858.331	4656
858.464	4634
858.597	4550
858.731	4664
858.864	4626
858.997	4641
859.13	4664
859.263	4641
859.396	4767
859.529	4592
859.662	4611
859.795	4588
859.928	4668
860.061	4767
860.194	4839
860.327	4626
860.46	4573
860.592	4744
860.725	4736
860.858	4782
860.99	4603
861.123	4523
861.256	4519
861.388	4653
861.521	5387
861.653	4485
861.786	4466
861.918	4470
862.05	4504
862.183	4584
862.315	4622
862.447	4691
862.58	4611
862.712	4413
862.844	4356
862.976	4474
863.108	4462
863.24	4877
863.372	4344
863.504	4367
863.636	4447
863.768	4504
863.9	4512
864.032	4424
864.164	4447
864.296	4508
864.428	4558
864.559	4558
864.691	4569
864.823	4569
864.954	4512
865.086	4577
865.217	4531
865.349	4462
865.48	4519
865.612	4493
865.743	4672
865.875	4470
866.006	4413
866.137	4481
866.269	4512
866.4	4447
866.531	4485
866.662	4451
866.793	4405
866.924	4485
867.055	4535
867.186	4504
867.317	4405
867.448	4367
867.579	4398
867.71	4440
867.841	4386
867.972	4447
868.103	4493
868.233	4466
868.364	4500
868.495	4493
868.625	4702
868.756	4812
868.886	4554
869.017	4664
869.147	4771
869.278	4812
869.408	4714
869.539	4664
869.669	4714
869.799	4656
869.929	4778
870.06	4759
870.19	4999
870.32	4911
870.45	4934
870.58	5056
870.71	5094
870.84	5105
870.97	4953
871.1	4911
871.23	5189
871.36	5143
871.489	5056
871.619	5060
871.749	5098
871.879	5124
872.008	5201
872.138	5041
872.267	5056
872.397	4850
872.526	4763
872.656	4740
872.785	4835
872.915	4953
873.044	5075
873.173	4934
873.303	4953
873.432	4927
873.561	5033
873.69	4896
873.819	4854
873.948	4972
874.077	4805
874.206	4771
874.335	4839
874.464	4968
874.593	5048
874.722	4987
874.851	5117
874.979	5109
875.108	5094
875.237	4934
875.365	4892
875.494	4919
875.623	5033
875.751	4873
875.88	4904
876.008	4980
876.136	5052
876.265	5246
876.393	5376
876.521	5242
876.65	5223
876.778	5159
876.906	5105
877.034	5025
877.162	5045
877.29	4995
877.418	5041
877.546	5060
877.674	5094
877.802	5067
877.93	5006
878.058	4942
878.185	4892
878.313	4999
878.441	4995
878.568	4828
878.696	4854
878.824	4995
878.951	4972
879.079	5140
879.206	5296
879.333	5098
879.461	4991
879.588	5018
879.715	5155
879.842	5212
879.97	5010
880.097	4793
880.224	4729
880.351	4847
880.478	4858
880.605	4790
880.732	4759
880.859	5090
880.986	4965
881.112	4854
881.239	4824
881.366	4683
881.493	4641
881.619	4577
881.746	4672
881.872	4626
881.999	4660
882.125	4691
882.252	4771
882.378	4866
882.505	5052
882.631	4778
882.757	4683
882.883	4748
883.01	4744
883.136	4725
883.262	4596
883.388	4626
883.514	4790
883.64	4889
883.766	4809
883.892	4672
884.018	4740
884.143	4919
884.269	5041
884.395	4675
884.52	4656
884.646	4634
884.772	4645
884.897	4626
885.023	4675
885.148	4805
885.274	4854
885.399	4816
885.524	4729
885.65	4771
885.775	4774
885.9	4771
886.025	4809
886.15	4877
886.275	4717
886.4	4694
886.525	4721
886.65	4733
886.775	4717
886.9	4915
887.025	5102
887.149	4828
887.274	4672
887.399	4588
887.523	4645
887.648	4577
887.773	4622
887.897	4778
888.021	4778
888.146	4717
888.27	4767
888.395	4953
888.519	4831
888.643	4778
888.767	4828
888.891	4702
889.015	4596
889.139	4641
889.263	4607
889.387	4793
889.511	4934
889.635	4809
889.759	4656
889.883	4656
890.006	4710
890.13	4835
890.254	4660
890.377	4706
890.501	4618
890.624	4542
890.748	4687
890.871	4565
890.995	4481
891.118	4443
891.241	4561
891.364	4561
891.488	4656
891.611	4462
891.734	4516
891.857	4618
891.98	4584
892.103	4637
892.226	4615
892.349	4504
892.471	4383
892.594	4588
892.717	4588
892.839	4588
892.962	4565
893.085	4653
893.207	4630
893.33	4485
893.452	4500
893.575	4683
893.697	4611
893.819	4801
893.941	4850
894.064	4809
894.186	4573
894.308	4615
894.43	4748
894.552	4816
894.674	4733
894.796	4558
894.918	4580
895.04	4584
895.161	4752
895.283	4660
895.405	4592
895.526	4683
895.648	4717
895.769	4672
895.891	4694
896.012	4744
896.134	4729
896.255	4649
896.376	4660
896.498	4611
896.619	4725
896.74	4611
896.861	4672
896.982	5003
897.103	5079
897.224	4801
897.345	4778
897.466	4645
897.587	4710
897.708	4862
897.828	4759
897.949	4752
898.07	4596
898.19	4656
898.311	4843
898.431	4679
898.552	4698
898.672	4862
898.792	4839
898.913	4748
899.033	4672
899.153	4538
899.273	4451
899.393	4531
899.513	4565
899.633	4527
899.753	4508
899.873	4481
899.993	4588
900.113	4523
900.232	4596
900.352	4542
900.472	4493
900.591	4352
900.711	4550
900.83	4424
900.95	4588
901.069	4660
901.189	4512
901.308	4363
901.427	4386
901.546	4402
901.665	4500
901.784	4546
901.904	4424
902.023	4352
902.141	4265
902.26	4154
902.379	4322
902.498	4322
902.617	4261
902.735	4333
902.854	4409
902.973	4386
903.091	4227
903.21	4265
903.328	4344
903.446	4303
903.565	4284
903.683	4367
903.801	4344
903.919	4386
904.038	4489
904.156	4337
904.274	4497
904.392	4447
904.51	4462
904.627	4478
904.745	4573
904.863	4660
904.981	4440
905.098	4344
905.216	4402
905.334	4459
905.451	4459
905.569	4462
905.686	4569
905.803	4645
905.921	4451
906.038	4599
906.155	4497
906.272	4474
906.389	4474
906.506	4398
906.623	4413
906.74	4405
906.857	4348
906.974	4462
907.091	4599
907.208	4729
907.324	4626
907.441	4519
907.557	4371
907.674	4398
907.79	4367
907.907	4409
908.023	4516
908.139	4558
908.256	4508
908.372	4512
908.488	4474
908.604	4417
908.72	4383
908.836	4405
908.952	4428
909.068	4481
909.184	4611
909.3	4500
909.415	4592
909.531	4599
909.647	4417
909.762	4432
909.878	4344
909.993	4489
910.108	4436
910.224	4470
910.339	4474
910.454	4440
910.57	4398
910.685	4295
910.8	4683
910.915	4634
911.03	4527
911.145	4394
911.259	4379
911.374	4390
911.489	4360
911.604	4287
911.718	4230
911.833	4253
911.947	4143
912.062	4078
912.176	4249
912.291	4249
912.405	4265
912.519	4523
912.633	4565
912.748	4394
912.862	4379
912.976	4219
913.09	4207
913.204	4211
913.318	4287
913.431	4428
913.545	4367
913.659	4447
913.772	4459
913.886	4276
914	4276
914.113	4417
914.226	4455
914.34	4417
914.453	4280
914.566	4470
914.68	4352
914.793	4360
914.906	4185
915.019	4196
915.132	4139
915.245	4219
915.358	4268
915.47	4265
915.583	4318
915.696	4383
915.809	4428
915.921	4447
916.034	4276
916.146	4276
916.259	4265
916.371	4421
916.483	4352
916.595	4337
916.708	4344
916.82	4356
916.932	4371
917.044	4356
917.156	4375
917.268	4257
917.38	4303
917.491	4329
917.603	4375
917.715	4436
917.826	4493
917.938	4409
918.049	4310
918.161	4447
918.272	4558
918.384	4558
918.495	4493
918.606	4303
918.717	4238
918.828	4405
918.939	4398
919.05	4310
919.161	4360
919.272	4143
919.383	4284
919.494	4459
919.604	4679
919.715	4485
919.826	4360
919.936	4436
920.047	4542
920.157	4523
920.267	4755
920.378	4542
920.488	4580
920.598	4733
920.708	4968
920.818	4778
920.928	4744
921.038	4968
921.148	4930
921.258	4702
921.368	4577
921.477	4546
921.587	4478
921.697	4402
921.806	4546
921.916	4474
922.025	4299
922.134	4280
922.244	4249
922.353	4424
922.462	4219
922.571	4169
922.68	4032
922.789	4071
922.898	4124
923.007	4048
923.116	4135
923.224	4112
923.333	4101
923.442	4036
923.55	3937
923.659	4059
923.767	4116
923.876	4010
923.984	4166
924.092	4025
924.201	4112
924.309	4109
924.417	4131
924.525	4101
924.633	4150
924.741	5067
924.849	3960
924.956	4169
925.064	4006
925.172	3896
925.279	4032
925.387	4040
925.494	4067
925.602	4234
925.709	4215
925.816	4082
925.924	4207
926.031	4257
926.138	4219
926.245	4246
926.352	4143
926.459	4291
926.566	4295
926.673	4238
926.779	4135
926.886	4082
926.993	3956
927.099	3991
927.206	3983
927.312	3964
927.419	4097
927.525	4051
927.631	4162
927.737	3983
927.843	3972
927.95	3892
928.056	3983
928.162	3994
928.267	4078
928.373	4748
928.479	4188
928.585	3888
928.69	4055
928.796	4109
928.901	4017
929.007	3835
929.112	4063
929.218	4044
929.323	4013
929.428	3979
929.533	4143
929.638	3975
929.743	3956
929.848	4086
929.953	4067
930.058	3968
930.163	3846
930.267	3861
930.372	4013
930.477	3819
930.581	4173
930.685	3960
930.79	3899
930.894	3892
930.998	3861
931.103	4067
931.207	3709
931.311	3701
931.415	3740
931.519	3523
931.623	3584
