Data from test_V78500241_2115.txt Node
Date: Fri Mar 25 17:03:42 CST 2022
User: usil
Spectrometer: V785-0024
Trigger mode: 0
Integration Time (sec): 4.000000E-1
Scans to average: 1
Nonlinearity correction enabled: false
Boxcar width: 0
Storing dark spectrum: false
XAxis mode: Wavelengths
Number of Pixels in Spectrum: 1024
>>>>>Begin Spectral Data<<<<<
801.071	7959
801.214	7978
801.356	7780
801.499	7814
801.641	7830
801.783	7772
801.926	7978
802.068	7928
802.211	7959
802.353	7993
802.496	7822
802.638	7894
802.78	7852
802.923	7917
803.065	7807
803.208	7830
803.35	7925
803.492	8096
803.635	8130
803.777	8043
803.919	8123
804.061	8518
804.204	8221
804.346	8077
804.488	7982
804.63	8119
804.773	8027
804.915	8164
805.057	8252
805.199	8134
805.341	8240
805.483	8214
805.626	8168
805.768	8149
805.91	8183
806.052	8206
806.194	8126
806.336	8362
806.478	8084
806.62	8005
806.762	8225
806.904	8267
807.046	8511
807.188	8362
807.33	8294
807.472	8298
807.614	8168
807.756	8138
807.898	8031
808.04	7887
808.182	7784
808.324	7849
808.465	7928
808.607	8043
808.749	8142
808.891	8248
809.033	8267
809.174	8237
809.316	8081
809.458	8001
809.6	7986
809.741	8046
809.883	8001
810.025	8119
810.166	8043
810.308	8054
810.45	7982
810.591	7833
810.733	7765
810.875	7647
811.016	7518
811.158	7476
811.299	7567
811.441	7712
811.582	7655
811.724	7582
811.865	7499
812.007	7624
812.148	7559
812.29	7658
812.431	7807
812.573	7856
812.714	7936
812.855	8111
812.997	8168
813.138	8263
813.279	8153
813.421	8088
813.562	7978
813.703	7811
813.845	7734
813.986	7396
814.127	7228
814.268	7175
814.41	7164
814.551	7187
814.692	7244
814.833	7137
814.974	7107
815.115	7099
815.256	7000
815.397	6924
815.539	6882
815.68	6802
815.821	6734
815.962	6840
816.103	6837
816.244	6677
816.385	6604
816.526	6627
816.666	6551
816.807	6311
816.948	6403
817.089	6456
817.23	6388
817.371	6388
817.512	6407
817.653	6365
817.793	6376
817.934	6384
818.075	6506
818.216	6433
818.356	6391
818.497	6258
818.638	6125
818.778	6140
818.919	6155
819.06	6125
819.2	6273
819.341	6327
819.481	6346
819.622	6566
819.762	6734
819.903	6700
820.043	6536
820.184	6547
820.324	6616
820.465	6700
820.605	6639
820.746	6612
820.886	6521
821.026	6608
821.167	6738
821.307	6787
821.447	6722
821.588	6681
821.728	6517
821.868	6494
822.008	6285
822.149	6346
822.289	6353
822.429	6152
822.569	6098
822.709	6125
822.849	5946
822.99	5882
823.13	5893
823.27	5912
823.41	5805
823.55	5764
823.69	5764
823.83	5779
823.97	5627
824.11	5482
824.25	5501
824.389	5528
824.529	5577
824.669	5551
824.809	5649
824.949	5699
825.089	5638
825.228	5570
825.368	5421
825.508	5387
825.648	5360
825.787	5334
825.927	5360
826.067	5269
826.206	5303
826.346	5368
826.485	5444
826.625	5433
826.765	5528
826.904	5421
827.044	5303
827.183	5242
827.323	5124
827.462	5181
827.601	5170
827.741	5174
827.88	5201
828.02	5124
828.159	5151
828.298	5269
828.437	5334
828.577	5250
828.716	5467
828.855	5273
828.994	5189
829.134	5147
829.273	5170
829.412	5147
829.551	5094
829.69	5162
829.829	5227
829.968	5391
830.107	5265
830.246	5269
830.385	5178
830.524	5132
830.663	5018
830.802	4957
830.941	4911
831.08	4843
831.219	4949
831.357	4968
831.496	5102
831.635	4923
831.774	4847
831.913	4862
832.051	4702
832.19	4725
832.329	4847
832.467	4649
832.606	4615
832.744	4744
832.883	4748
833.022	4717
833.16	4771
833.299	4801
833.437	4847
833.576	4812
833.714	4862
833.852	4881
833.991	4911
834.129	4968
834.267	4911
834.406	4873
834.544	4953
834.682	4953
834.821	4946
834.959	5117
835.097	4942
835.235	5166
835.373	5006
835.511	5075
835.65	5052
835.788	5071
835.926	4896
836.064	4843
836.202	4896
836.34	5136
836.478	5242
836.615	5185
836.753	5193
836.891	5315
837.029	5254
837.167	5185
837.305	5185
837.443	5166
837.58	5128
837.718	5254
837.856	5204
837.993	5132
838.131	5231
838.269	5189
838.406	5170
838.544	5166
838.681	5041
838.819	5014
838.956	4885
839.094	4900
839.231	4980
839.369	5071
839.506	5398
839.643	5235
839.781	5041
839.918	5003
840.055	5022
840.193	5075
840.33	5105
840.467	5090
840.604	5220
840.742	5406
840.879	5052
841.016	5117
841.153	5162
841.29	5387
841.427	5368
841.564	5330
841.701	5353
841.838	5288
841.975	5223
842.112	5254
842.249	5143
842.385	5075
842.522	5326
842.659	5220
842.796	5121
842.933	5166
843.069	5117
843.206	5098
843.343	5303
843.479	5277
843.616	5280
843.752	5003
843.889	5014
844.025	5223
844.162	5025
844.298	5216
844.435	5094
844.571	5041
844.708	5204
844.844	5208
844.98	5349
845.117	5280
845.253	5143
845.389	5041
845.525	5090
845.661	5151
845.798	5045
845.934	5113
846.07	5033
846.206	5208
846.342	5273
846.478	5193
846.614	4957
846.75	4949
846.886	4877
847.022	5128
847.158	5048
847.294	5041
847.429	5060
847.565	5064
847.701	5334
847.837	4820
847.972	4771
848.108	4953
848.244	4949
848.379	4710
848.515	4733
848.65	4729
848.786	4702
848.921	4759
849.057	4881
849.192	4866
849.328	4801
849.463	4858
849.598	4774
849.734	4782
849.869	4710
850.004	4634
850.14	4687
850.275	4630
850.41	4489
850.545	4546
850.68	4569
850.815	4592
850.95	4580
851.085	4839
851.22	4717
851.355	4645
851.49	4615
851.625	4641
851.76	4630
851.895	4577
852.03	4497
852.165	4683
852.299	4717
852.434	4759
852.569	4717
852.703	4782
852.838	4843
852.973	4930
853.107	4908
853.242	4729
853.376	4641
853.511	4500
853.645	4622
853.78	4797
853.914	4683
854.048	4668
854.183	4611
854.317	4717
854.451	4778
854.585	4683
854.72	4687
854.854	4755
854.988	4577
855.122	4618
855.256	4493
855.39	4664
855.524	4774
855.658	4736
855.792	4702
855.926	4771
856.06	4752
856.194	4797
856.327	4656
856.461	4596
856.595	4603
856.729	4630
856.862	4687
856.996	4714
857.13	4706
857.263	4729
857.397	4774
857.53	4622
857.664	4725
857.797	4771
857.931	4767
858.064	4694
858.197	4763
858.331	4694
858.464	4596
858.597	4470
858.731	4649
858.864	4630
858.997	4592
859.13	4687
859.263	4645
859.396	4710
859.529	4535
859.662	4588
859.795	4580
859.928	4592
860.061	4752
860.194	4733
860.327	4622
860.46	4558
860.592	4721
860.725	4740
860.858	4740
860.99	4546
861.123	4512
861.256	4535
861.388	4607
861.521	5391
861.653	4440
861.786	4443
861.918	4470
862.05	4531
862.183	4573
862.315	4535
862.447	4641
862.58	4546
862.712	4424
862.844	4322
862.976	4470
863.108	4402
863.24	4774
863.372	4344
863.504	4409
863.636	4348
863.768	4497
863.9	4417
864.032	4375
864.164	4402
864.296	4470
864.428	4546
864.559	4558
864.691	4569
864.823	4538
864.954	4516
865.086	4516
865.217	4493
865.349	4432
865.48	4500
865.612	4470
865.743	4603
865.875	4466
866.006	4436
866.137	4500
866.269	4436
866.4	4421
866.531	4413
866.662	4383
866.793	4409
866.924	4466
867.055	4516
867.186	4447
867.317	4405
867.448	4375
867.579	4398
867.71	4383
867.841	4360
867.972	4455
868.103	4424
868.233	4455
868.364	4432
868.495	4474
868.625	4637
868.756	4748
868.886	4607
869.017	4603
869.147	4774
869.278	4759
869.408	4694
869.539	4664
869.669	4706
869.799	4641
869.929	4721
870.06	4736
870.19	4919
870.32	4930
870.45	4923
870.58	5060
870.71	5147
870.84	5162
870.97	4930
871.1	4839
871.23	5143
871.36	5132
871.489	5060
871.619	5067
871.749	5102
871.879	5132
872.008	5102
872.138	5075
872.267	4980
872.397	4839
872.526	4774
872.656	4729
872.785	4793
872.915	4980
873.044	5014
873.173	4957
873.303	4972
873.432	4942
873.561	4961
873.69	4850
873.819	4828
873.948	4923
874.077	4816
874.206	4721
874.335	4831
874.464	4900
874.593	5048
874.722	4934
874.851	5086
874.979	5041
875.108	4987
875.237	4896
875.365	4889
875.494	4927
875.623	4972
875.751	4831
875.88	4904
876.008	4972
876.136	4991
876.265	5193
876.393	5315
876.521	5235
876.65	5204
876.778	5147
876.906	5090
877.034	5064
877.162	5048
877.29	4984
877.418	5064
877.546	5025
877.674	5029
877.802	5006
877.93	4961
878.058	4900
878.185	4854
878.313	4995
878.441	4942
878.568	4809
878.696	4870
878.824	4946
878.951	4949
879.079	5124
879.206	5299
879.333	5094
879.461	5006
879.588	5010
879.715	5151
879.842	5166
879.97	4972
880.097	4744
880.224	4687
880.351	4763
880.478	4824
880.605	4809
880.732	4790
880.859	5102
880.986	4900
881.112	4915
881.239	4725
881.366	4698
881.493	4641
881.619	4592
881.746	4622
881.872	4649
881.999	4675
882.125	4714
882.252	4809
882.378	4801
882.505	4984
882.631	4786
882.757	4656
882.883	4748
883.01	4698
883.136	4675
883.262	4618
883.388	4656
883.514	4809
883.64	4850
883.766	4797
883.892	4656
884.018	4740
884.143	4889
884.269	5006
884.395	4675
884.52	4584
884.646	4664
884.772	4573
884.897	4519
885.023	4656
885.148	4786
885.274	4850
885.399	4820
885.524	4710
885.65	4702
885.775	4763
885.9	4683
886.025	4854
886.15	4786
886.275	4721
886.4	4626
886.525	4733
886.65	4679
886.775	4641
886.9	4900
887.025	5022
887.149	4820
887.274	4660
887.399	4580
887.523	4577
887.648	4565
887.773	4588
887.897	4752
888.021	4767
888.146	4687
888.27	4752
888.395	4820
888.519	4809
888.643	4778
888.767	4820
888.891	4717
889.015	4596
889.139	4607
889.263	4592
889.387	4774
889.511	4892
889.635	4820
889.759	4653
889.883	4660
890.006	4664
890.13	4771
890.254	4615
890.377	4698
890.501	4542
890.624	4493
890.748	4611
890.871	4538
890.995	4379
891.118	4371
891.241	4516
891.364	4558
891.488	4603
891.611	4538
891.734	4519
891.857	4626
891.98	4550
892.103	4641
892.226	4592
892.349	4538
892.471	4440
892.594	4550
892.717	4630
892.839	4558
892.962	4592
893.085	4622
893.207	4611
893.33	4405
893.452	4523
893.575	4615
893.697	4584
893.819	4790
893.941	4824
894.064	4744
894.186	4554
894.308	4512
894.43	4717
894.552	4835
894.674	4767
894.796	4558
894.918	4618
895.04	4569
895.161	4714
895.283	4653
895.405	4569
895.526	4615
895.648	4691
895.769	4736
895.891	4702
896.012	4733
896.134	4710
896.255	4672
896.376	4618
896.498	4599
896.619	4649
896.74	4603
896.861	4634
896.982	4892
897.103	5033
897.224	4763
897.345	4782
897.466	4714
897.587	4710
897.708	4892
897.828	4771
897.949	4721
898.07	4542
898.19	4660
898.311	4862
898.431	4656
898.552	4767
898.672	4786
898.792	4820
898.913	4786
899.033	4622
899.153	4481
899.273	4462
899.393	4470
899.513	4508
899.633	4577
899.753	4519
899.873	4516
899.993	4558
900.113	4512
900.232	4603
900.352	4538
900.472	4470
900.591	4383
900.711	4462
900.83	4478
900.95	4615
901.069	4679
901.189	4561
901.308	4344
901.427	4367
901.546	4405
901.665	4440
901.784	4527
901.904	4405
902.023	4299
902.141	4211
902.26	4169
902.379	4306
902.498	4215
902.617	4253
902.735	4352
902.854	4398
902.973	4341
903.091	4207
903.21	4196
903.328	4299
903.446	4249
903.565	4261
903.683	4295
903.801	4276
903.919	4409
904.038	4424
904.156	4367
904.274	4390
904.392	4375
904.51	4428
904.627	4481
904.745	4588
904.863	4626
904.981	4371
905.098	4341
905.216	4352
905.334	4386
905.451	4417
905.569	4390
905.686	4493
905.803	4474
905.921	4386
906.038	4523
906.155	4459
906.272	4421
906.389	4455
906.506	4329
906.623	4375
906.74	4371
906.857	4303
906.974	4375
907.091	4527
907.208	4664
907.324	4630
907.441	4500
907.557	4325
907.674	4329
907.79	4341
907.907	4405
908.023	4478
908.139	4489
908.256	4481
908.372	4436
908.488	4455
908.604	4386
908.72	4314
908.836	4341
908.952	4314
909.068	4443
909.184	4577
909.3	4466
909.415	4565
909.531	4523
909.647	4371
909.762	4386
909.878	4318
909.993	4451
910.108	4440
910.224	4367
910.339	4459
910.454	4352
910.57	4375
910.685	4329
910.8	4630
910.915	4569
911.03	4481
911.145	4329
911.259	4318
911.374	4398
911.489	4268
911.604	4280
911.718	4158
911.833	4185
911.947	4090
912.062	3998
912.176	4196
912.291	4207
912.405	4207
912.519	4470
912.633	4504
912.748	4383
912.862	4329
912.976	4200
913.09	4086
913.204	4154
913.318	4234
913.431	4367
913.545	4356
913.659	4394
913.772	4390
913.886	4257
914	4177
914.113	4341
914.226	4451
914.34	4379
914.453	4280
914.566	4394
914.68	4329
914.793	4310
914.906	4112
915.019	4097
915.132	4051
915.245	4166
915.358	4204
915.47	4291
915.583	4219
915.696	4303
915.809	4459
915.921	4447
916.034	4238
916.146	4242
916.259	4223
916.371	4375
916.483	4371
916.595	4265
916.708	4303
916.82	4287
916.932	4322
917.044	4318
917.156	4314
917.268	4219
917.38	4242
917.491	4268
917.603	4291
917.715	4462
917.826	4409
917.938	4352
918.049	4249
918.161	4375
918.272	4535
918.384	4508
918.495	4451
918.606	4272
918.717	4268
918.828	4295
918.939	4402
919.05	4230
919.161	4322
919.272	4086
919.383	4227
919.494	4508
919.604	4634
919.715	4379
919.826	4303
919.936	4405
920.047	4504
920.157	4493
920.267	4660
920.378	4535
920.488	4508
920.598	4698
920.708	4881
920.818	4729
920.928	4771
921.038	4949
921.148	4892
921.258	4649
921.368	4580
921.477	4485
921.587	4451
921.697	4379
921.806	4550
921.916	4443
922.025	4219
922.134	4223
922.244	4207
922.353	4337
922.462	4192
922.571	4090
922.68	4051
922.789	3956
922.898	4032
923.007	3998
923.116	4082
923.224	4010
923.333	4074
923.442	3983
923.55	3949
923.659	3987
923.767	4093
923.876	4013
923.984	4116
924.092	3998
924.201	4021
924.309	4128
924.417	4090
924.525	4055
924.633	4112
924.741	5064
924.849	3865
924.956	4124
925.064	3964
925.172	3934
925.279	3949
925.387	4112
925.494	4059
925.602	4204
925.709	4147
925.816	4025
925.924	4105
926.031	4223
926.138	4173
926.245	4200
926.352	4074
926.459	4246
926.566	4261
926.673	4139
926.779	4105
926.886	4071
926.993	3930
927.099	3960
927.206	3926
927.312	3907
927.419	4021
927.525	4044
927.631	4112
927.737	3960
927.843	3937
927.95	3850
928.056	3930
928.162	3949
928.267	4025
928.373	4615
928.479	4120
928.585	3869
928.69	4013
928.796	4120
928.901	3964
929.007	3819
929.112	3972
929.218	3911
929.323	3930
929.428	3968
929.533	4055
929.638	3934
929.743	3915
929.848	4013
929.953	3964
930.058	3907
930.163	3778
930.267	3846
930.372	3960
930.477	3838
930.581	4040
930.685	3941
930.79	3816
930.894	3888
930.998	3831
931.103	4021
931.207	3675
931.311	3667
931.415	3682
931.519	3515
931.623	3553
