Data from test_V78500241_1758.txt Node
Date: Fri Mar 25 17:01:13 CST 2022
User: usil
Spectrometer: V785-0024
Trigger mode: 0
Integration Time (sec): 4.000000E-1
Scans to average: 1
Nonlinearity correction enabled: false
Boxcar width: 0
Storing dark spectrum: false
XAxis mode: Wavelengths
Number of Pixels in Spectrum: 1024
>>>>>Begin Spectral Data<<<<<
801.071	7997
801.214	8024
801.356	7864
801.499	7841
801.641	7784
801.783	7864
801.926	7921
802.068	7917
802.211	7947
802.353	7986
802.496	7856
802.638	7822
802.78	7955
802.923	7982
803.065	7898
803.208	7879
803.35	7898
803.492	8081
803.635	8168
803.777	7970
803.919	8218
804.061	8507
804.204	8191
804.346	8058
804.488	8016
804.63	8084
804.773	8031
804.915	8039
805.057	8294
805.199	8172
805.341	8248
805.483	8317
805.626	8237
805.768	8134
805.91	8164
806.052	8214
806.194	8119
806.336	8339
806.478	8077
806.62	8050
806.762	8069
806.904	8191
807.046	8518
807.188	8393
807.33	8294
807.472	8362
807.614	8157
807.756	8077
807.898	8020
808.04	7947
808.182	7913
808.324	7875
808.465	7932
808.607	8050
808.749	8126
808.891	8199
809.033	8259
809.174	8237
809.316	8073
809.458	8069
809.6	8054
809.741	8088
809.883	8020
810.025	8157
810.166	8145
810.308	8008
810.45	7997
810.591	7875
810.733	7723
810.875	7708
811.016	7563
811.158	7518
811.299	7609
811.441	7715
811.582	7696
811.724	7628
811.865	7605
812.007	7620
812.148	7552
812.29	7597
812.431	7723
812.573	7871
812.714	7989
812.855	8062
812.997	8214
813.138	8324
813.279	8180
813.421	8062
813.562	7970
813.703	7769
813.845	7738
813.986	7426
814.127	7244
814.268	7308
814.41	7206
814.551	7202
814.692	7236
814.833	7088
814.974	7133
815.115	7164
815.256	6897
815.397	6932
815.539	6920
815.68	6764
815.821	6722
815.962	6886
816.103	6814
816.244	6696
816.385	6635
816.526	6616
816.666	6490
816.807	6342
816.948	6456
817.089	6445
817.23	6429
817.371	6342
817.512	6353
817.653	6376
817.793	6334
817.934	6429
818.075	6433
818.216	6445
818.356	6403
818.497	6228
818.638	6121
818.778	6098
818.919	6121
819.06	6175
819.2	6399
819.341	6353
819.481	6388
819.622	6521
819.762	6700
819.903	6707
820.043	6589
820.184	6604
820.324	6582
820.465	6753
820.605	6707
820.746	6658
820.886	6471
821.026	6696
821.167	6620
821.307	6814
821.447	6760
821.588	6719
821.728	6544
821.868	6475
822.008	6308
822.149	6426
822.289	6304
822.429	6186
822.569	6125
822.709	6095
822.849	5954
822.99	5866
823.13	5874
823.27	5923
823.41	5779
823.55	5741
823.69	5764
823.83	5748
823.97	5680
824.11	5532
824.25	5505
824.389	5589
824.529	5608
824.669	5551
824.809	5646
824.949	5638
825.089	5642
825.228	5558
825.368	5433
825.508	5292
825.648	5315
825.787	5383
825.927	5360
826.067	5292
826.206	5284
826.346	5360
826.485	5455
826.625	5410
826.765	5543
826.904	5490
827.044	5223
827.183	5189
827.323	5147
827.462	5220
827.601	5136
827.741	5220
827.88	5220
828.02	5143
828.159	5254
828.298	5311
828.437	5364
828.577	5326
828.716	5497
828.855	5292
828.994	5086
829.134	5155
829.273	5159
829.412	5124
829.551	5143
829.69	5189
829.829	5246
829.968	5357
830.107	5265
830.246	5288
830.385	5193
830.524	5178
830.663	5102
830.802	4961
830.941	4866
831.08	4908
831.219	5010
831.357	4942
831.496	5170
831.635	4946
831.774	4824
831.913	4870
832.051	4782
832.19	4755
832.329	4835
832.467	4725
832.606	4664
832.744	4717
832.883	4675
833.022	4664
833.16	4736
833.299	4801
833.437	4831
833.576	4816
833.714	4854
833.852	4870
833.991	4919
834.129	4946
834.267	4904
834.406	4953
834.544	4999
834.682	5014
834.821	4972
834.959	5143
835.097	4976
835.235	5174
835.373	5102
835.511	5136
835.65	5071
835.788	4972
835.926	4877
836.064	4866
836.202	4946
836.34	5166
836.478	5204
836.615	5113
836.753	5223
836.891	5250
837.029	5231
837.167	5212
837.305	5185
837.443	5105
837.58	5075
837.718	5284
837.856	5239
837.993	5136
838.131	5254
838.269	5212
838.406	5181
838.544	5185
838.681	5041
838.819	5025
838.956	4858
839.094	4862
839.231	4938
839.369	5010
839.506	5417
839.643	5265
839.781	5067
839.918	4984
840.055	5086
840.193	5090
840.33	5105
840.467	5140
840.604	5170
840.742	5406
840.879	5079
841.016	5090
841.153	5220
841.29	5334
841.427	5330
841.564	5337
841.701	5307
841.838	5269
841.975	5254
842.112	5277
842.249	5170
842.385	5121
842.522	5322
842.659	5174
842.796	5121
842.933	5151
843.069	5162
843.206	5098
843.343	5242
843.479	5227
843.616	5288
843.752	4987
843.889	5025
844.025	5208
844.162	5003
844.298	5185
844.435	5014
844.571	5090
844.708	5159
844.844	5288
844.98	5360
845.117	5315
845.253	5086
845.389	5056
845.525	5124
845.661	5086
845.798	5010
845.934	5147
846.07	5067
846.206	5193
846.342	5307
846.478	5159
846.614	5010
846.75	4961
846.886	4904
847.022	5166
847.158	4991
847.294	5037
847.429	5109
847.565	5064
847.701	5311
847.837	4828
847.972	4736
848.108	4923
848.244	4942
848.379	4790
848.515	4725
848.65	4698
848.786	4744
848.921	4816
849.057	4850
849.192	4900
849.328	4843
849.463	4843
849.598	4771
849.734	4778
849.869	4706
850.004	4653
850.14	4664
850.275	4622
850.41	4550
850.545	4580
850.68	4561
850.815	4630
850.95	4584
851.085	4866
851.22	4736
851.355	4656
851.49	4664
851.625	4634
851.76	4626
851.895	4558
852.03	4512
852.165	4656
852.299	4744
852.434	4790
852.569	4733
852.703	4805
852.838	4812
852.973	4923
853.107	4934
853.242	4721
853.376	4721
853.511	4558
853.645	4607
853.78	4771
853.914	4672
854.048	4641
854.183	4645
854.317	4679
854.451	4824
854.585	4687
854.72	4622
854.854	4752
854.988	4592
855.122	4622
855.256	4531
855.39	4691
855.524	4782
855.658	4748
855.792	4679
855.926	4714
856.06	4752
856.194	4793
856.327	4660
856.461	4607
856.595	4615
856.729	4649
856.862	4752
856.996	4668
857.13	4767
857.263	4797
857.397	4843
857.53	4626
857.664	4679
857.797	4729
857.931	4744
858.064	4668
858.197	4710
858.331	4641
858.464	4577
858.597	4500
858.731	4596
858.864	4649
858.997	4584
859.13	4599
859.263	4573
859.396	4687
859.529	4630
859.662	4550
859.795	4531
859.928	4637
860.061	4797
860.194	4691
860.327	4588
860.46	4603
860.592	4653
860.725	4683
860.858	4698
860.99	4584
861.123	4527
861.256	4523
861.388	4611
861.521	5231
861.653	4531
861.786	4417
861.918	4432
862.05	4466
862.183	4573
862.315	4580
862.447	4645
862.58	4577
862.712	4424
862.844	4299
862.976	4462
863.108	4436
863.24	4877
863.372	4352
863.504	4383
863.636	4394
863.768	4504
863.9	4447
864.032	4367
864.164	4413
864.296	4504
864.428	4561
864.559	4535
864.691	4542
864.823	4554
864.954	4527
865.086	4470
865.217	4447
865.349	4409
865.48	4436
865.612	4500
865.743	4660
865.875	4497
866.006	4375
866.137	4462
866.269	4390
866.4	4398
866.531	4470
866.662	4405
866.793	4379
866.924	4421
867.055	4523
867.186	4455
867.317	4398
867.448	4390
867.579	4413
867.71	4375
867.841	4363
867.972	4443
868.103	4451
868.233	4470
868.364	4459
868.495	4466
868.625	4645
868.756	4786
868.886	4561
869.017	4645
869.147	4778
869.278	4774
869.408	4672
869.539	4653
869.669	4641
869.799	4649
869.929	4778
870.06	4774
870.19	4946
870.32	4930
870.45	4927
870.58	5010
870.71	5056
870.84	5098
870.97	5006
871.1	4934
871.23	5143
871.36	5124
871.489	4984
871.619	5086
871.749	5098
871.879	5132
872.008	5178
872.138	5083
872.267	4976
872.397	4843
872.526	4771
872.656	4714
872.785	4797
872.915	4957
873.044	4995
873.173	4930
873.303	4995
873.432	5003
873.561	4980
873.69	4900
873.819	4824
873.948	4904
874.077	4824
874.206	4805
874.335	4786
874.464	4915
874.593	5048
874.722	4968
874.851	5083
874.979	5045
875.108	5029
875.237	4934
875.365	4854
875.494	4900
875.623	4980
875.751	4816
875.88	4870
876.008	4999
876.136	5064
876.265	5208
876.393	5292
876.521	5227
876.65	5242
876.778	5185
876.906	5128
877.034	4999
877.162	5041
877.29	4984
877.418	5033
877.546	5041
877.674	5048
877.802	5029
877.93	5014
878.058	4904
878.185	4908
878.313	4953
878.441	4984
878.568	4793
878.696	4919
878.824	4949
878.951	5041
879.079	5155
879.206	5261
879.333	5098
879.461	4984
879.588	4984
879.715	5071
879.842	5212
879.97	4972
880.097	4729
880.224	4691
880.351	4828
880.478	4805
880.605	4790
880.732	4786
880.859	5060
880.986	4911
881.112	4858
881.239	4805
881.366	4649
881.493	4599
881.619	4580
881.746	4664
881.872	4637
881.999	4611
882.125	4710
882.252	4725
882.378	4866
882.505	4938
882.631	4763
882.757	4645
882.883	4771
883.01	4729
883.136	4618
883.262	4611
883.388	4611
883.514	4839
883.64	4828
883.766	4767
883.892	4687
884.018	4675
884.143	4881
884.269	5029
884.395	4687
884.52	4618
884.646	4634
884.772	4523
884.897	4580
885.023	4679
885.148	4771
885.274	4858
885.399	4831
885.524	4759
885.65	4725
885.775	4752
885.9	4744
886.025	4824
886.15	4824
886.275	4725
886.4	4611
886.525	4729
886.65	4672
886.775	4702
886.9	4881
887.025	5010
887.149	4835
887.274	4637
887.399	4573
887.523	4577
887.648	4558
887.773	4618
887.897	4782
888.021	4801
888.146	4653
888.27	4774
888.395	4858
888.519	4744
888.643	4809
888.767	4805
888.891	4656
889.015	4535
889.139	4641
889.263	4596
889.387	4771
889.511	4835
889.635	4801
889.759	4630
889.883	4656
890.006	4729
890.13	4793
890.254	4596
890.377	4668
890.501	4561
890.624	4485
890.748	4649
890.871	4455
890.995	4402
891.118	4394
891.241	4523
891.364	4531
891.488	4653
891.611	4558
891.734	4519
891.857	4550
891.98	4599
892.103	4630
892.226	4577
892.349	4519
892.471	4417
892.594	4516
892.717	4569
892.839	4561
892.962	4596
893.085	4672
893.207	4618
893.33	4489
893.452	4497
893.575	4653
893.697	4603
893.819	4771
893.941	4793
894.064	4801
894.186	4580
894.308	4538
894.43	4721
894.552	4824
894.674	4675
894.796	4565
894.918	4592
895.04	4561
895.161	4687
895.283	4668
895.405	4584
895.526	4611
895.648	4698
895.769	4607
895.891	4729
896.012	4752
896.134	4710
896.255	4702
896.376	4653
896.498	4584
896.619	4653
896.74	4611
896.861	4637
896.982	4934
897.103	5071
897.224	4843
897.345	4717
897.466	4618
897.587	4740
897.708	4828
897.828	4778
897.949	4660
898.07	4558
898.19	4641
898.311	4835
898.431	4714
898.552	4694
898.672	4831
898.792	4790
898.913	4755
899.033	4622
899.153	4538
899.273	4405
899.393	4516
899.513	4535
899.633	4497
899.753	4538
899.873	4546
899.993	4584
900.113	4516
900.232	4569
900.352	4596
900.472	4523
900.591	4413
900.711	4455
900.83	4432
900.95	4573
901.069	4645
901.189	4561
901.308	4383
901.427	4329
901.546	4363
901.665	4409
901.784	4508
901.904	4413
902.023	4367
902.141	4177
902.26	4192
902.379	4310
902.498	4227
902.617	4181
902.735	4360
902.854	4352
902.973	4318
903.091	4192
903.21	4234
903.328	4261
903.446	4265
903.565	4253
903.683	4344
903.801	4314
903.919	4386
904.038	4402
904.156	4291
904.274	4413
904.392	4398
904.51	4428
904.627	4459
904.745	4569
904.863	4618
904.981	4436
905.098	4322
905.216	4386
905.334	4432
905.451	4417
905.569	4436
905.686	4561
905.803	4580
905.921	4405
906.038	4542
906.155	4512
906.272	4375
906.389	4428
906.506	4371
906.623	4363
906.74	4402
906.857	4268
906.974	4405
907.091	4542
907.208	4672
907.324	4569
907.441	4504
907.557	4322
907.674	4333
907.79	4329
907.907	4375
908.023	4478
908.139	4466
908.256	4440
908.372	4474
908.488	4470
908.604	4383
908.72	4367
908.836	4371
908.952	4398
909.068	4405
909.184	4584
909.3	4447
909.415	4554
909.531	4516
909.647	4405
909.762	4344
909.878	4394
909.993	4474
910.108	4402
910.224	4451
910.339	4478
910.454	4379
910.57	4352
910.685	4314
910.8	4630
910.915	4596
911.03	4447
911.145	4325
911.259	4371
911.374	4322
911.489	4314
911.604	4242
911.718	4166
911.833	4238
911.947	4029
912.062	4063
912.176	4223
912.291	4227
912.405	4227
912.519	4474
912.633	4489
912.748	4383
912.862	4341
912.976	4196
913.09	4059
913.204	4196
913.318	4219
913.431	4394
913.545	4394
913.659	4440
913.772	4314
913.886	4227
914	4204
914.113	4344
914.226	4409
914.34	4398
914.453	4223
914.566	4432
914.68	4318
914.793	4360
914.906	4188
915.019	4135
915.132	4063
915.245	4143
915.358	4200
915.47	4261
915.583	4227
915.696	4310
915.809	4390
915.921	4398
916.034	4284
916.146	4249
916.259	4154
916.371	4367
916.483	4333
916.595	4253
916.708	4325
916.82	4325
916.932	4363
917.044	4318
917.156	4314
917.268	4227
917.38	4284
917.491	4291
917.603	4356
917.715	4421
917.826	4417
917.938	4390
918.049	4246
918.161	4417
918.272	4573
918.384	4535
918.495	4485
918.606	4280
918.717	4230
918.828	4341
918.939	4371
919.05	4268
919.161	4325
919.272	4158
919.383	4242
919.494	4432
919.604	4637
919.715	4443
919.826	4375
919.936	4421
920.047	4516
920.157	4481
920.267	4656
920.378	4573
920.488	4497
920.598	4721
920.708	4908
920.818	4744
920.928	4744
921.038	4919
921.148	4919
921.258	4618
921.368	4519
921.477	4455
921.587	4424
921.697	4394
921.806	4527
921.916	4451
922.025	4287
922.134	4303
922.244	4268
922.353	4348
922.462	4185
922.571	4131
922.68	3983
922.789	3991
922.898	4051
923.007	4002
923.116	4128
923.224	4093
923.333	4059
923.442	3994
923.55	3972
923.659	4071
923.767	4101
923.876	3998
923.984	4162
924.092	3975
924.201	4032
924.309	4078
924.417	4177
924.525	4048
924.633	4109
924.741	5006
924.849	3880
924.956	4120
925.064	3896
925.172	3930
925.279	3972
925.387	4059
925.494	4078
925.602	4185
925.709	4188
925.816	4032
925.924	4131
926.031	4257
926.138	4200
926.245	4162
926.352	4055
926.459	4280
926.566	4291
926.673	4158
926.779	4101
926.886	4055
926.993	3937
927.099	3926
927.206	3945
927.312	3953
927.419	4059
927.525	4040
927.631	4078
927.737	3960
927.843	3945
927.95	3842
928.056	3934
928.162	3968
928.267	4071
928.373	4656
928.479	4093
928.585	3865
928.69	4021
928.796	4059
928.901	3968
929.007	3831
929.112	3968
929.218	3949
929.323	3941
929.428	3937
929.533	4128
929.638	3854
929.743	3911
929.848	4067
929.953	4017
930.058	3930
930.163	3804
930.267	3842
930.372	4006
930.477	3781
930.581	4074
930.685	3975
930.79	3816
930.894	3876
930.998	3873
931.103	4044
931.207	3720
931.311	3709
931.415	3709
931.519	3526
931.623	3545
