Data from test_V78500241_1893.txt Node
Date: Fri Mar 25 17:02:09 CST 2022
User: usil
Spectrometer: V785-0024
Trigger mode: 0
Integration Time (sec): 4.000000E-1
Scans to average: 1
Nonlinearity correction enabled: false
Boxcar width: 0
Storing dark spectrum: false
XAxis mode: Wavelengths
Number of Pixels in Spectrum: 1024
>>>>>Begin Spectral Data<<<<<
801.071	7940
801.214	7928
801.356	7814
801.499	7856
801.641	7750
801.783	7757
801.926	7913
802.068	7909
802.211	7925
802.353	7978
802.496	7845
802.638	7780
802.78	7928
802.923	7906
803.065	7887
803.208	7757
803.35	7993
803.492	8107
803.635	8123
803.777	8008
803.919	8107
804.061	8473
804.204	8126
804.346	8161
804.488	7989
804.63	8142
804.773	7997
804.915	8046
805.057	8290
805.199	8145
805.341	8195
805.483	8294
805.626	8218
805.768	8153
805.91	8282
806.052	8206
806.194	8100
806.336	8221
806.478	8130
806.62	8005
806.762	8168
806.904	8210
807.046	8476
807.188	8328
807.33	8351
807.472	8358
807.614	8111
807.756	8130
807.898	8008
808.04	7875
808.182	7890
808.324	7871
808.465	7982
808.607	8012
808.749	8111
808.891	8252
809.033	8347
809.174	8244
809.316	8126
809.458	8077
809.6	8103
809.741	7970
809.883	8077
810.025	8111
810.166	8065
810.308	7986
810.45	7944
810.591	7799
810.733	7662
810.875	7738
811.016	7537
811.158	7430
811.299	7586
811.441	7712
811.582	7666
811.724	7518
811.865	7552
812.007	7609
812.148	7601
812.29	7613
812.431	7719
812.573	7902
812.714	8012
812.855	8134
812.997	8225
813.138	8271
813.279	8237
813.421	8043
813.562	7947
813.703	7799
813.845	7753
813.986	7411
814.127	7293
814.268	7179
814.41	7247
814.551	7175
814.692	7251
814.833	7080
814.974	7133
815.115	7110
815.256	6920
815.397	6981
815.539	6939
815.68	6764
815.821	6741
815.962	6818
816.103	6802
816.244	6654
816.385	6570
816.526	6566
816.666	6506
816.807	6350
816.948	6460
817.089	6479
817.23	6490
817.371	6327
817.512	6304
817.653	6331
817.793	6391
817.934	6403
818.075	6437
818.216	6479
818.356	6399
818.497	6209
818.638	6167
818.778	6121
818.919	6114
819.06	6182
819.2	6391
819.341	6384
819.481	6407
819.622	6506
819.762	6707
819.903	6681
820.043	6570
820.184	6528
820.324	6555
820.465	6684
820.605	6681
820.746	6646
820.886	6498
821.026	6665
821.167	6684
821.307	6764
821.447	6764
821.588	6616
821.728	6536
821.868	6437
822.008	6289
822.149	6407
822.289	6357
822.429	6148
822.569	6098
822.709	6076
822.849	5916
822.99	5874
823.13	5920
823.27	5893
823.41	5771
823.55	5771
823.69	5764
823.83	5771
823.97	5646
824.11	5505
824.25	5509
824.389	5547
824.529	5634
824.669	5486
824.809	5573
824.949	5710
825.089	5630
825.228	5596
825.368	5368
825.508	5292
825.648	5357
825.787	5334
825.927	5334
826.067	5284
826.206	5273
826.346	5391
826.485	5429
826.625	5410
826.765	5467
826.904	5463
827.044	5223
827.183	5216
827.323	5113
827.462	5284
827.601	5193
827.741	5223
827.88	5227
828.02	5109
828.159	5212
828.298	5296
828.437	5360
828.577	5269
828.716	5474
828.855	5311
828.994	5181
829.134	5162
829.273	5231
829.412	5147
829.551	5132
829.69	5155
829.829	5280
829.968	5357
830.107	5250
830.246	5261
830.385	5166
830.524	5140
830.663	5079
830.802	4934
830.941	4877
831.08	4881
831.219	4995
831.357	4976
831.496	5124
831.635	4961
831.774	4854
831.913	4843
832.051	4736
832.19	4672
832.329	4812
832.467	4679
832.606	4656
832.744	4717
832.883	4755
833.022	4691
833.16	4801
833.299	4801
833.437	4797
833.576	4820
833.714	4866
833.852	4858
833.991	4850
834.129	4923
834.267	4946
834.406	4911
834.544	4889
834.682	4965
834.821	4942
834.959	5128
835.097	5003
835.235	5147
835.373	5079
835.511	5109
835.65	4995
835.788	5014
835.926	4953
836.064	4885
836.202	4835
836.34	5178
836.478	5193
836.615	5109
836.753	5185
836.891	5250
837.029	5292
837.167	5162
837.305	5136
837.443	5151
837.58	5048
837.718	5227
837.856	5147
837.993	5132
838.131	5250
838.269	5220
838.406	5216
838.544	5117
838.681	4999
838.819	4984
838.956	4881
839.094	4949
839.231	4911
839.369	5143
839.506	5414
839.643	5273
839.781	5029
839.918	4999
840.055	5102
840.193	5045
840.33	5067
840.467	5155
840.604	5170
840.742	5444
840.879	5083
841.016	5056
841.153	5140
841.29	5364
841.427	5360
841.564	5280
841.701	5345
841.838	5261
841.975	5162
842.112	5318
842.249	5155
842.385	5003
842.522	5353
842.659	5117
842.796	5159
842.933	5147
843.069	5128
843.206	5117
843.343	5280
843.479	5242
843.616	5250
843.752	4991
843.889	5022
844.025	5227
844.162	5006
844.298	5193
844.435	5090
844.571	5029
844.708	5201
844.844	5235
844.98	5269
845.117	5334
845.253	5189
845.389	5067
845.525	5162
845.661	5155
845.798	5045
845.934	5147
846.07	5052
846.206	5166
846.342	5315
846.478	5201
846.614	5010
846.75	4949
846.886	4946
847.022	5174
847.158	4991
847.294	5056
847.429	5105
847.565	5056
847.701	5280
847.837	4816
847.972	4793
848.108	4949
848.244	4946
848.379	4771
848.515	4748
848.65	4744
848.786	4698
848.921	4778
849.057	4839
849.192	4881
849.328	4850
849.463	4843
849.598	4797
849.734	4771
849.869	4641
850.004	4588
850.14	4675
850.275	4599
850.41	4542
850.545	4565
850.68	4641
850.815	4634
850.95	4592
851.085	4850
851.22	4740
851.355	4687
851.49	4599
851.625	4649
851.76	4615
851.895	4554
852.03	4504
852.165	4668
852.299	4763
852.434	4774
852.569	4729
852.703	4736
852.838	4831
852.973	4942
853.107	4870
853.242	4698
853.376	4630
853.511	4527
853.645	4615
853.78	4786
853.914	4645
854.048	4679
854.183	4618
854.317	4691
854.451	4850
854.585	4668
854.72	4672
854.854	4729
854.988	4561
855.122	4611
855.256	4538
855.39	4634
855.524	4759
855.658	4675
855.792	4584
855.926	4687
856.06	4721
856.194	4790
856.327	4721
856.461	4569
856.595	4599
856.729	4637
856.862	4714
856.996	4664
857.13	4694
857.263	4721
857.397	4740
857.53	4637
857.664	4725
857.797	4767
857.931	4755
858.064	4630
858.197	4706
858.331	4641
858.464	4634
858.597	4512
858.731	4634
858.864	4615
858.997	4550
859.13	4672
859.263	4664
859.396	4653
859.529	4596
859.662	4546
859.795	4516
859.928	4622
860.061	4774
860.194	4774
860.327	4565
860.46	4542
860.592	4664
860.725	4721
860.858	4664
860.99	4546
861.123	4538
861.256	4485
861.388	4592
861.521	5364
861.653	4497
861.786	4421
861.918	4462
862.05	4500
862.183	4535
862.315	4603
862.447	4626
862.58	4550
862.712	4390
862.844	4325
862.976	4462
863.108	4405
863.24	4892
863.372	4303
863.504	4405
863.636	4367
863.768	4455
863.9	4413
864.032	4295
864.164	4417
864.296	4516
864.428	4516
864.559	4599
864.691	4474
864.823	4508
864.954	4516
865.086	4474
865.217	4398
865.349	4436
865.48	4447
865.612	4474
865.743	4615
865.875	4455
866.006	4443
866.137	4447
866.269	4440
866.4	4462
866.531	4379
866.662	4405
866.793	4375
866.924	4421
867.055	4500
867.186	4424
867.317	4421
867.448	4394
867.579	4398
867.71	4371
867.841	4367
867.972	4440
868.103	4466
868.233	4432
868.364	4459
868.495	4459
868.625	4611
868.756	4759
868.886	4558
869.017	4618
869.147	4782
869.278	4771
869.408	4664
869.539	4577
869.669	4672
869.799	4679
869.929	4702
870.06	4755
870.19	4972
870.32	4862
870.45	4923
870.58	5022
870.71	5075
870.84	5151
870.97	4900
871.1	4915
871.23	5102
871.36	5121
871.489	4984
871.619	5102
871.749	5056
871.879	5147
872.008	5185
872.138	5060
872.267	4957
872.397	4858
872.526	4778
872.656	4683
872.785	4771
872.915	4949
873.044	5006
873.173	4927
873.303	4915
873.432	4946
873.561	4961
873.69	4847
873.819	4862
873.948	4953
874.077	4847
874.206	4736
874.335	4816
874.464	4942
874.593	5060
874.722	4904
874.851	5105
874.979	5079
875.108	5048
875.237	4885
875.365	4858
875.494	4919
875.623	5033
875.751	4828
875.88	4896
876.008	4915
876.136	4976
876.265	5181
876.393	5349
876.521	5258
876.65	5189
876.778	5113
876.906	5033
877.034	5014
877.162	5029
877.29	4984
877.418	5037
877.546	5045
877.674	5025
877.802	5033
877.93	5033
878.058	4892
878.185	4900
878.313	4904
878.441	4934
878.568	4767
878.696	4850
878.824	4934
878.951	4946
879.079	5079
879.206	5246
879.333	5102
879.461	4999
879.588	5037
879.715	5086
879.842	5220
879.97	4999
880.097	4759
880.224	4744
880.351	4763
880.478	4793
880.605	4805
880.732	4820
880.859	5064
880.986	4854
881.112	4904
881.239	4828
881.366	4626
881.493	4603
881.619	4596
881.746	4649
881.872	4679
881.999	4656
882.125	4687
882.252	4755
882.378	4812
882.505	4911
882.631	4793
882.757	4691
882.883	4698
883.01	4774
883.136	4679
883.262	4618
883.388	4618
883.514	4790
883.64	4835
883.766	4748
883.892	4653
884.018	4736
884.143	4919
884.269	4961
884.395	4687
884.52	4672
884.646	4637
884.772	4554
884.897	4558
885.023	4622
885.148	4767
885.274	4835
885.399	4790
885.524	4740
885.65	4649
885.775	4744
885.9	4740
886.025	4839
886.15	4782
886.275	4721
886.4	4683
886.525	4717
886.65	4706
886.775	4672
886.9	4892
887.025	5014
887.149	4793
887.274	4672
887.399	4561
887.523	4626
887.648	4607
887.773	4535
887.897	4725
888.021	4752
888.146	4672
888.27	4771
888.395	4866
888.519	4774
888.643	4797
888.767	4862
888.891	4710
889.015	4630
889.139	4634
889.263	4645
889.387	4801
889.511	4873
889.635	4812
889.759	4656
889.883	4664
890.006	4702
890.13	4797
890.254	4592
890.377	4634
890.501	4527
890.624	4538
890.748	4660
890.871	4512
890.995	4421
891.118	4383
891.241	4478
891.364	4535
891.488	4645
891.611	4481
891.734	4615
891.857	4603
891.98	4535
892.103	4607
892.226	4558
892.349	4485
892.471	4447
892.594	4558
892.717	4615
892.839	4550
892.962	4558
893.085	4691
893.207	4588
893.33	4493
893.452	4481
893.575	4672
893.697	4573
893.819	4790
893.941	4831
894.064	4767
894.186	4584
894.308	4527
894.43	4714
894.552	4782
894.674	4733
894.796	4500
894.918	4584
895.04	4538
895.161	4653
895.283	4664
895.405	4573
895.526	4622
895.648	4641
895.769	4679
895.891	4733
896.012	4687
896.134	4691
896.255	4672
896.376	4641
896.498	4588
896.619	4637
896.74	4622
896.861	4634
896.982	4949
897.103	5094
897.224	4812
897.345	4767
897.466	4618
897.587	4721
897.708	4824
897.828	4778
897.949	4694
898.07	4535
898.19	4622
898.311	4843
898.431	4664
898.552	4691
898.672	4797
898.792	4805
898.913	4748
899.033	4649
899.153	4535
899.273	4424
899.393	4516
899.513	4497
899.633	4508
899.753	4516
899.873	4554
899.993	4611
900.113	4538
900.232	4580
900.352	4550
900.472	4497
900.591	4390
900.711	4493
900.83	4455
900.95	4607
901.069	4714
901.189	4550
901.308	4352
901.427	4318
901.546	4386
901.665	4519
901.784	4500
901.904	4375
902.023	4314
902.141	4242
902.26	4162
902.379	4344
902.498	4234
902.617	4211
902.735	4383
902.854	4352
902.973	4325
903.091	4192
903.21	4196
903.328	4287
903.446	4265
903.565	4230
903.683	4360
903.801	4284
903.919	4375
904.038	4436
904.156	4310
904.274	4413
904.392	4379
904.51	4421
904.627	4466
904.745	4546
904.863	4626
904.981	4386
905.098	4341
905.216	4325
905.334	4428
905.451	4409
905.569	4451
905.686	4512
905.803	4573
905.921	4432
906.038	4558
906.155	4512
906.272	4413
906.389	4466
906.506	4356
906.623	4379
906.74	4333
906.857	4310
906.974	4363
907.091	4577
907.208	4691
907.324	4573
907.441	4493
907.557	4386
907.674	4299
907.79	4318
907.907	4329
908.023	4466
908.139	4459
908.256	4417
908.372	4466
908.488	4440
908.604	4367
908.72	4318
908.836	4405
908.952	4348
909.068	4428
909.184	4569
909.3	4451
909.415	4554
909.531	4538
909.647	4341
909.762	4398
909.878	4287
909.993	4447
910.108	4402
910.224	4360
910.339	4447
910.454	4348
910.57	4363
910.685	4295
910.8	4653
910.915	4615
911.03	4527
911.145	4356
911.259	4303
911.374	4390
911.489	4299
911.604	4272
911.718	4185
911.833	4200
911.947	4071
912.062	4002
912.176	4242
912.291	4249
912.405	4249
912.519	4451
912.633	4535
912.748	4386
912.862	4287
912.976	4173
913.09	4082
913.204	4227
913.318	4238
913.431	4356
913.545	4341
913.659	4432
913.772	4325
913.886	4257
914	4215
914.113	4436
914.226	4440
914.34	4371
914.453	4227
914.566	4398
914.68	4291
914.793	4306
914.906	4150
915.019	4120
915.132	4059
915.245	4196
915.358	4261
915.47	4177
915.583	4253
915.696	4268
915.809	4341
915.921	4379
916.034	4249
916.146	4257
916.259	4227
916.371	4383
916.483	4341
916.595	4253
916.708	4310
916.82	4314
916.932	4295
917.044	4306
917.156	4314
917.268	4238
917.38	4303
917.491	4306
917.603	4352
917.715	4394
917.826	4398
917.938	4371
918.049	4253
918.161	4409
918.272	4535
918.384	4489
918.495	4409
918.606	4287
918.717	4219
918.828	4280
918.939	4333
919.05	4261
919.161	4303
919.272	4139
919.383	4227
919.494	4428
919.604	4618
919.715	4405
919.826	4363
919.936	4386
920.047	4512
920.157	4466
920.267	4672
920.378	4497
920.488	4474
920.598	4706
920.708	4854
920.818	4763
920.928	4687
921.038	4953
921.148	4911
921.258	4626
921.368	4523
921.477	4493
921.587	4470
921.697	4341
921.806	4546
921.916	4398
922.025	4291
922.134	4238
922.244	4238
922.353	4295
922.462	4211
922.571	4097
922.68	4021
922.789	3998
922.898	4025
923.007	3956
923.116	4112
923.224	4067
923.333	4074
923.442	3983
923.55	3956
923.659	3983
923.767	4071
923.876	3968
923.984	4135
924.092	3953
924.201	4051
924.309	4067
924.417	4150
924.525	4086
924.633	4090
924.741	5025
924.849	3903
924.956	4158
925.064	3975
925.172	3873
925.279	3937
925.387	4071
925.494	4074
925.602	4242
925.709	4166
925.816	4067
925.924	4154
926.031	4215
926.138	4200
926.245	4234
926.352	4063
926.459	4227
926.566	4306
926.673	4131
926.779	4086
926.886	4059
926.993	3968
927.099	3918
927.206	3934
927.312	3880
927.419	4082
927.525	4044
927.631	4071
927.737	3994
927.843	3934
927.95	3804
928.056	3953
928.162	3991
928.267	4036
928.373	4626
928.479	4101
928.585	3831
928.69	4013
928.796	4093
928.901	3953
929.007	3850
929.112	4021
929.218	3975
929.323	3911
929.428	3975
929.533	4059
929.638	3876
929.743	3930
929.848	4051
929.953	4025
930.058	3918
930.163	3755
930.267	3880
930.372	3934
930.477	3823
930.581	4101
930.685	3937
930.79	3835
930.894	3884
930.998	3880
931.103	4067
931.207	3728
931.311	3686
931.415	3648
931.519	3534
931.623	3576
