Data from test_V78500241_486.txt Node
Date: Fri Mar 25 16:52:22 CST 2022
User: usil
Spectrometer: V785-0024
Trigger mode: 0
Integration Time (sec): 4.000000E-1
Scans to average: 1
Nonlinearity correction enabled: false
Boxcar width: 0
Storing dark spectrum: false
XAxis mode: Wavelengths
Number of Pixels in Spectrum: 1024
>>>>>Begin Spectral Data<<<<<
801.071	7959
801.214	7967
801.356	7868
801.499	7841
801.641	7814
801.783	7845
801.926	7993
802.068	8043
802.211	7982
802.353	8012
802.496	7871
802.638	7887
802.78	7947
802.923	7913
803.065	7837
803.208	7788
803.35	7967
803.492	8065
803.635	8145
803.777	7989
803.919	8145
804.061	8446
804.204	8100
804.346	8024
804.488	7944
804.63	8107
804.773	7974
804.915	8054
805.057	8259
805.199	8149
805.341	8248
805.483	8267
805.626	8130
805.768	8035
805.91	8111
806.052	8176
806.194	8092
806.336	8279
806.478	8134
806.62	8084
806.762	8107
806.904	8298
807.046	8465
807.188	8259
807.33	8290
807.472	8286
807.614	8065
807.756	8130
807.898	7978
808.04	7852
808.182	7959
808.324	7921
808.465	7856
808.607	8024
808.749	7997
808.891	8229
809.033	8259
809.174	8130
809.316	8031
809.458	8027
809.6	7932
809.741	8012
809.883	7997
810.025	8054
810.166	8031
810.308	8054
810.45	7997
810.591	7883
810.733	7738
810.875	7674
811.016	7559
811.158	7548
811.299	7624
811.441	7746
811.582	7651
811.724	7636
811.865	7540
812.007	7586
812.148	7544
812.29	7628
812.431	7727
812.573	7902
812.714	8024
812.855	8240
812.997	8240
813.138	8313
813.279	8237
813.421	8126
813.562	8088
813.703	7890
813.845	7792
813.986	7544
814.127	7369
814.268	7270
814.41	7282
814.551	7141
814.692	7137
814.833	7042
814.974	7164
815.115	7107
815.256	6947
815.397	6935
815.539	6989
815.68	6840
815.821	6802
815.962	6932
816.103	6840
816.244	6722
816.385	6589
816.526	6604
816.666	6445
816.807	6319
816.948	6445
817.089	6521
817.23	6460
817.371	6391
817.512	6365
817.653	6388
817.793	6380
817.934	6433
818.075	6456
818.216	6414
818.356	6407
818.497	6262
818.638	6087
818.778	6190
818.919	6098
819.06	6148
819.2	6315
819.341	6281
819.481	6319
819.622	6471
819.762	6703
819.903	6662
820.043	6589
820.184	6551
820.324	6570
820.465	6612
820.605	6612
820.746	6635
820.886	6506
821.026	6650
821.167	6753
821.307	6741
821.447	6707
821.588	6658
821.728	6570
821.868	6456
822.008	6376
822.149	6338
822.289	6395
822.429	6079
822.569	6091
822.709	6125
822.849	5855
822.99	5897
823.13	5912
823.27	5992
823.41	5832
823.55	5741
823.69	5779
823.83	5802
823.97	5668
824.11	5524
824.25	5547
824.389	5535
824.529	5615
824.669	5547
824.809	5653
824.949	5623
825.089	5604
825.228	5482
825.368	5364
825.508	5315
825.648	5360
825.787	5357
825.927	5353
826.067	5280
826.206	5318
826.346	5349
826.485	5387
826.625	5383
826.765	5581
826.904	5490
827.044	5296
827.183	5170
827.323	5147
827.462	5265
827.601	5170
827.741	5098
827.88	5212
828.02	5083
828.159	5246
828.298	5273
828.437	5402
828.577	5250
828.716	5455
828.855	5337
828.994	5185
829.134	5105
829.273	5204
829.412	5151
829.551	5185
829.69	5178
829.829	5239
829.968	5391
830.107	5315
830.246	5303
830.385	5193
830.524	5094
830.663	5151
830.802	4980
830.941	4885
831.08	4873
831.219	4972
831.357	4995
831.496	5128
831.635	4911
831.774	4900
831.913	4870
832.051	4729
832.19	4797
832.329	4782
832.467	4679
832.606	4691
832.744	4679
832.883	4687
833.022	4733
833.16	4805
833.299	4816
833.437	4790
833.576	4854
833.714	4843
833.852	4889
833.991	4911
834.129	4949
834.267	4968
834.406	4915
834.544	4991
834.682	4949
834.821	4961
834.959	5204
835.097	4972
835.235	5212
835.373	5045
835.511	5121
835.65	5045
835.788	5041
835.926	4885
836.064	4862
836.202	4904
836.34	5151
836.478	5239
836.615	5117
836.753	5178
836.891	5318
837.029	5235
837.167	5197
837.305	5143
837.443	5170
837.58	5037
837.718	5231
837.856	5208
837.993	5143
838.131	5220
838.269	5204
838.406	5220
838.544	5174
838.681	5003
838.819	5014
838.956	4919
839.094	4873
839.231	4904
839.369	5117
839.506	5387
839.643	5223
839.781	5033
839.918	4995
840.055	5022
840.193	5094
840.33	5102
840.467	5098
840.604	5178
840.742	5482
840.879	5064
841.016	5090
841.153	5121
841.29	5372
841.427	5311
841.564	5337
841.701	5368
841.838	5296
841.975	5227
842.112	5277
842.249	5102
842.385	5136
842.522	5307
842.659	5147
842.796	5121
842.933	5197
843.069	5121
843.206	5121
843.343	5288
843.479	5250
843.616	5277
843.752	5025
843.889	5025
844.025	5242
844.162	5033
844.298	5185
844.435	5124
844.571	5052
844.708	5197
844.844	5307
844.98	5387
845.117	5284
845.253	5094
845.389	5064
845.525	5132
845.661	5143
845.798	5064
845.934	5113
846.07	4999
846.206	5250
846.342	5261
846.478	5166
846.614	5033
846.75	4980
846.886	4949
847.022	5136
847.158	5064
847.294	5079
847.429	5128
847.565	5022
847.701	5326
847.837	4881
847.972	4854
848.108	5041
848.244	4892
848.379	4812
848.515	4706
848.65	4721
848.786	4786
848.921	4805
849.057	4900
849.192	4904
849.328	4858
849.463	4850
849.598	4771
849.734	4755
849.869	4698
850.004	4622
850.14	4660
850.275	4592
850.41	4527
850.545	4542
850.68	4599
850.815	4565
850.95	4596
851.085	4854
851.22	4759
851.355	4649
851.49	4634
851.625	4656
851.76	4672
851.895	4542
852.03	4535
852.165	4649
852.299	4721
852.434	4767
852.569	4736
852.703	4744
852.838	4881
852.973	4942
853.107	4919
853.242	4740
853.376	4653
853.511	4580
853.645	4660
853.78	4717
853.914	4675
854.048	4679
854.183	4672
854.317	4706
854.451	4839
854.585	4660
854.72	4611
854.854	4763
854.988	4637
855.122	4653
855.256	4546
855.39	4637
855.524	4748
855.658	4698
855.792	4694
855.926	4763
856.06	4748
856.194	4805
856.327	4725
856.461	4584
856.595	4615
856.729	4664
856.862	4744
856.996	4694
857.13	4691
857.263	4721
857.397	4858
857.53	4618
857.664	4725
857.797	4744
857.931	4805
858.064	4679
858.197	4729
858.331	4653
858.464	4626
858.597	4546
858.731	4634
858.864	4607
858.997	4607
859.13	4675
859.263	4599
859.396	4706
859.529	4584
859.662	4611
859.795	4516
859.928	4607
860.061	4733
860.194	4767
860.327	4599
860.46	4565
860.592	4698
860.725	4694
860.858	4744
860.99	4542
861.123	4538
861.256	4542
861.388	4675
861.521	5330
861.653	4455
861.786	4462
861.918	4459
862.05	4519
862.183	4584
862.315	4592
862.447	4653
862.58	4592
862.712	4360
862.844	4295
862.976	4459
863.108	4493
863.24	4744
863.372	4379
863.504	4428
863.636	4383
863.768	4493
863.9	4451
864.032	4352
864.164	4379
864.296	4493
864.428	4527
864.559	4565
864.691	4512
864.823	4474
864.954	4523
865.086	4489
865.217	4424
865.349	4375
865.48	4455
865.612	4504
865.743	4634
865.875	4523
866.006	4443
866.137	4443
866.269	4390
866.4	4459
866.531	4481
866.662	4383
866.793	4383
866.924	4432
867.055	4538
867.186	4485
867.317	4405
867.448	4379
867.579	4348
867.71	4417
867.841	4402
867.972	4466
868.103	4478
868.233	4443
868.364	4462
868.495	4504
868.625	4694
868.756	4752
868.886	4580
869.017	4641
869.147	4797
869.278	4797
869.408	4660
869.539	4660
869.669	4694
869.799	4664
869.929	4744
870.06	4721
870.19	4949
870.32	4927
870.45	4915
870.58	4968
870.71	5128
870.84	5098
870.97	4930
871.1	4885
871.23	5086
871.36	5128
871.489	5052
871.619	5090
871.749	5128
871.879	5121
872.008	5197
872.138	5048
872.267	4995
872.397	4839
872.526	4839
872.656	4733
872.785	4778
872.915	4930
873.044	5029
873.173	4946
873.303	4953
873.432	4930
873.561	4908
873.69	4877
873.819	4885
873.948	4854
874.077	4847
874.206	4759
874.335	4778
874.464	4972
874.593	5109
874.722	4976
874.851	5086
874.979	5048
875.108	5041
875.237	4915
875.365	4904
875.494	4877
875.623	4995
875.751	4790
875.88	4919
876.008	4968
876.136	5048
876.265	5208
876.393	5337
876.521	5216
876.65	5181
876.778	5181
876.906	5022
877.034	5045
877.162	5056
877.29	5033
877.418	5071
877.546	5037
877.674	5029
877.802	5067
877.93	5018
878.058	4949
878.185	4850
878.313	4999
878.441	4919
878.568	4831
878.696	4915
878.824	4987
878.951	4984
879.079	5098
879.206	5284
879.333	5121
879.461	4972
879.588	5010
879.715	5140
879.842	5227
879.97	5010
880.097	4793
880.224	4767
880.351	4767
880.478	4858
880.605	4797
880.732	4759
880.859	5090
880.986	4873
881.112	4892
881.239	4809
881.366	4675
881.493	4580
881.619	4611
881.746	4653
881.872	4645
881.999	4634
882.125	4710
882.252	4774
882.378	4809
882.505	4976
882.631	4824
882.757	4668
882.883	4721
883.01	4706
883.136	4725
883.262	4607
883.388	4649
883.514	4828
883.64	4828
883.766	4771
883.892	4683
884.018	4717
884.143	4885
884.269	5064
884.395	4714
884.52	4634
884.646	4668
884.772	4588
884.897	4558
885.023	4675
885.148	4782
885.274	4786
885.399	4797
885.524	4702
885.65	4706
885.775	4729
885.9	4710
886.025	4858
886.15	4828
886.275	4744
886.4	4645
886.525	4698
886.65	4736
886.775	4691
886.9	4946
887.025	4991
887.149	4824
887.274	4714
887.399	4542
887.523	4599
887.648	4592
887.773	4569
887.897	4755
888.021	4759
888.146	4691
888.27	4831
888.395	4896
888.519	4767
888.643	4839
888.767	4850
888.891	4702
889.015	4641
889.139	4694
889.263	4611
889.387	4805
889.511	4850
889.635	4793
889.759	4679
889.883	4675
890.006	4706
890.13	4839
890.254	4607
890.377	4687
890.501	4573
890.624	4561
890.748	4630
890.871	4493
890.995	4455
891.118	4432
891.241	4489
891.364	4497
891.488	4592
891.611	4497
891.734	4546
891.857	4588
891.98	4546
892.103	4634
892.226	4592
892.349	4603
892.471	4455
892.594	4561
892.717	4588
892.839	4550
892.962	4596
893.085	4683
893.207	4592
893.33	4470
893.452	4519
893.575	4675
893.697	4611
893.819	4831
893.941	4805
894.064	4717
894.186	4584
894.308	4538
894.43	4774
894.552	4809
894.674	4744
894.796	4542
894.918	4634
895.04	4588
895.161	4698
895.283	4653
895.405	4558
895.526	4687
895.648	4683
895.769	4714
895.891	4733
896.012	4733
896.134	4767
896.255	4698
896.376	4622
896.498	4637
896.619	4694
896.74	4618
896.861	4588
896.982	4915
897.103	5105
897.224	4786
897.345	4729
897.466	4694
897.587	4755
897.708	4835
897.828	4778
897.949	4649
898.07	4577
898.19	4630
898.311	4774
898.431	4626
898.552	4733
898.672	4828
898.792	4793
898.913	4691
899.033	4580
899.153	4497
899.273	4440
899.393	4504
899.513	4481
899.633	4497
899.753	4577
899.873	4497
899.993	4618
900.113	4554
900.232	4584
900.352	4542
900.472	4459
900.591	4405
900.711	4508
900.83	4432
900.95	4565
901.069	4710
901.189	4588
901.308	4402
901.427	4344
901.546	4394
901.665	4485
901.784	4493
901.904	4428
902.023	4325
902.141	4223
902.26	4154
902.379	4284
902.498	4291
902.617	4211
902.735	4383
902.854	4398
902.973	4299
903.091	4223
903.21	4230
903.328	4287
903.446	4306
903.565	4261
903.683	4383
903.801	4291
903.919	4417
904.038	4424
904.156	4360
904.274	4424
904.392	4417
904.51	4398
904.627	4466
904.745	4565
904.863	4588
904.981	4367
905.098	4287
905.216	4360
905.334	4421
905.451	4413
905.569	4417
905.686	4561
905.803	4607
905.921	4428
906.038	4592
906.155	4481
906.272	4428
906.389	4443
906.506	4348
906.623	4348
906.74	4394
906.857	4363
906.974	4386
907.091	4573
907.208	4637
907.324	4653
907.441	4531
907.557	4325
907.674	4341
907.79	4337
907.907	4402
908.023	4481
908.139	4440
908.256	4474
908.372	4504
908.488	4413
908.604	4390
908.72	4325
908.836	4409
908.952	4367
909.068	4451
909.184	4588
909.3	4447
909.415	4565
909.531	4569
909.647	4318
909.762	4356
909.878	4333
909.993	4417
910.108	4417
910.224	4440
910.339	4481
910.454	4402
910.57	4375
910.685	4348
910.8	4653
910.915	4584
911.03	4493
911.145	4299
911.259	4344
911.374	4383
911.489	4329
911.604	4253
911.718	4169
911.833	4181
911.947	4067
912.062	4051
912.176	4219
912.291	4249
912.405	4188
912.519	4451
912.633	4504
912.748	4386
912.862	4287
912.976	4215
913.09	4143
913.204	4162
913.318	4234
913.431	4356
913.545	4386
913.659	4417
913.772	4386
913.886	4280
914	4257
914.113	4424
914.226	4466
914.34	4360
914.453	4219
914.566	4398
914.68	4341
914.793	4306
914.906	4196
915.019	4158
915.132	4093
915.245	4196
915.358	4257
915.47	4185
915.583	4246
915.696	4303
915.809	4394
915.921	4443
916.034	4249
916.146	4230
916.259	4257
916.371	4375
916.483	4341
916.595	4261
916.708	4352
916.82	4295
916.932	4344
917.044	4329
917.156	4344
917.268	4234
917.38	4223
917.491	4284
917.603	4390
917.715	4421
917.826	4413
917.938	4379
918.049	4227
918.161	4390
918.272	4558
918.384	4599
918.495	4436
918.606	4329
918.717	4211
918.828	4341
918.939	4379
919.05	4268
919.161	4337
919.272	4147
919.383	4246
919.494	4386
919.604	4622
919.715	4409
919.826	4337
919.936	4421
920.047	4538
920.157	4504
920.267	4660
920.378	4588
920.488	4493
920.598	4694
920.708	4889
920.818	4752
920.928	4801
921.038	4938
921.148	4915
921.258	4630
921.368	4603
921.477	4485
921.587	4459
921.697	4348
921.806	4538
921.916	4455
922.025	4287
922.134	4318
922.244	4246
922.353	4329
922.462	4204
922.571	4124
922.68	4017
922.789	4021
922.898	4013
923.007	4044
923.116	4109
923.224	4059
923.333	4044
923.442	4032
923.55	3987
923.659	4048
923.767	4082
923.876	3983
923.984	4116
924.092	3991
924.201	4097
924.309	4120
924.417	4143
924.525	4036
924.633	4124
924.741	5045
924.849	3934
924.956	4147
925.064	3964
925.172	3915
925.279	3949
925.387	4063
925.494	4055
925.602	4230
925.709	4177
925.816	4032
925.924	4131
926.031	4219
926.138	4150
926.245	4223
926.352	4109
926.459	4265
926.566	4265
926.673	4169
926.779	4097
926.886	4048
926.993	3979
927.099	3994
927.206	3960
927.312	3937
927.419	4090
927.525	4036
927.631	4093
927.737	3991
927.843	3918
927.95	3865
928.056	3945
928.162	3983
928.267	4055
928.373	4675
928.479	4116
928.585	3876
928.69	4025
928.796	4074
928.901	3968
929.007	3808
929.112	4036
929.218	3983
929.323	3956
929.428	3896
929.533	4128
929.638	3903
929.743	3960
929.848	4029
929.953	3998
930.058	3937
930.163	3823
930.267	3808
930.372	3991
930.477	3816
930.581	4109
930.685	3972
930.79	3831
930.894	3896
930.998	3892
931.103	4063
931.207	3751
931.311	3713
931.415	3686
931.519	3469
931.623	3564
