Data from test_V78500241_2671.txt Node
Date: Fri Mar 25 17:07:34 CST 2022
User: usil
Spectrometer: V785-0024
Trigger mode: 0
Integration Time (sec): 4.000000E-1
Scans to average: 1
Nonlinearity correction enabled: false
Boxcar width: 0
Storing dark spectrum: false
XAxis mode: Wavelengths
Number of Pixels in Spectrum: 1024
>>>>>Begin Spectral Data<<<<<
801.071	8039
801.214	8024
801.356	7902
801.499	7906
801.641	7826
801.783	7852
801.926	8062
802.068	7963
802.211	8039
802.353	8027
802.496	7898
802.638	7921
802.78	7986
802.923	8005
803.065	7871
803.208	7849
803.35	8039
803.492	8100
803.635	8286
803.777	8088
803.919	8187
804.061	8476
804.204	8202
804.346	8088
804.488	7993
804.63	8088
804.773	8039
804.915	8195
805.057	8358
805.199	8275
805.341	8313
805.483	8366
805.626	8259
805.768	8164
805.91	8161
806.052	8172
806.194	8183
806.336	8332
806.478	8130
806.62	8115
806.762	8161
806.904	8244
807.046	8446
807.188	8324
807.33	8309
807.472	8351
807.614	8145
807.756	8187
807.898	8046
808.04	7871
808.182	7944
808.324	7917
808.465	7974
808.607	8126
808.749	8164
808.891	8244
809.033	8389
809.174	8218
809.316	8111
809.458	8161
809.6	8031
809.741	8027
809.883	8130
810.025	8176
810.166	8142
810.308	8153
810.45	8054
810.591	7902
810.733	7757
810.875	7685
811.016	7567
811.158	7495
811.299	7643
811.441	7811
811.582	7731
811.724	7677
811.865	7601
812.007	7677
812.148	7670
812.29	7700
812.431	7761
812.573	7879
812.714	8039
812.855	8180
812.997	8221
813.138	8324
813.279	8172
813.421	8153
813.562	8096
813.703	8008
813.845	7731
813.986	7502
814.127	7263
814.268	7339
814.41	7263
814.551	7168
814.692	7213
814.833	7129
814.974	7149
815.115	7190
815.256	6947
815.397	6954
815.539	6943
815.68	6859
815.821	6829
815.962	6913
816.103	6844
816.244	6741
816.385	6688
816.526	6639
816.666	6540
816.807	6346
816.948	6517
817.089	6464
817.23	6483
817.371	6414
817.512	6357
817.653	6407
817.793	6452
817.934	6452
818.075	6513
818.216	6471
818.356	6445
818.497	6262
818.638	6171
818.778	6224
818.919	6155
819.06	6171
819.2	6327
819.341	6357
819.481	6437
819.622	6547
819.762	6760
819.903	6722
820.043	6646
820.184	6570
820.324	6570
820.465	6722
820.605	6726
820.746	6730
820.886	6494
821.026	6669
821.167	6787
821.307	6806
821.447	6837
821.588	6722
821.728	6559
821.868	6547
822.008	6323
822.149	6399
822.289	6380
822.429	6213
822.569	6171
822.709	6102
822.849	5958
822.99	5958
823.13	5893
823.27	5958
823.41	5847
823.55	5802
823.69	5786
823.83	5802
823.97	5718
824.11	5611
824.25	5573
824.389	5581
824.529	5608
824.669	5554
824.809	5623
824.949	5672
825.089	5630
825.228	5573
825.368	5383
825.508	5391
825.648	5402
825.787	5433
825.927	5406
826.067	5322
826.206	5357
826.346	5414
826.485	5414
826.625	5433
826.765	5585
826.904	5539
827.044	5239
827.183	5231
827.323	5136
827.462	5277
827.601	5189
827.741	5273
827.88	5250
828.02	5174
828.159	5261
828.298	5322
828.437	5452
828.577	5277
828.716	5501
828.855	5368
828.994	5254
829.134	5185
829.273	5216
829.412	5239
829.551	5155
829.69	5181
829.829	5261
829.968	5368
830.107	5296
830.246	5315
830.385	5265
830.524	5159
830.663	5094
830.802	4984
830.941	4889
831.08	4873
831.219	4976
831.357	5045
831.496	5159
831.635	4949
831.774	4847
831.913	4927
832.051	4790
832.19	4748
832.329	4824
832.467	4729
832.606	4672
832.744	4759
832.883	4774
833.022	4714
833.16	4854
833.299	4858
833.437	4923
833.576	4862
833.714	4877
833.852	4904
833.991	4900
834.129	4953
834.267	4942
834.406	4911
834.544	5022
834.682	4980
834.821	5014
834.959	5204
835.097	5033
835.235	5204
835.373	5132
835.511	5109
835.65	5048
835.788	5029
835.926	4835
836.064	4881
836.202	4968
836.34	5193
836.478	5246
836.615	5136
836.753	5204
836.891	5326
837.029	5280
837.167	5189
837.305	5201
837.443	5079
837.58	5090
837.718	5242
837.856	5216
837.993	5147
838.131	5288
838.269	5242
838.406	5231
838.544	5185
838.681	5090
838.819	5056
838.956	4923
839.094	4889
839.231	5006
839.369	5102
839.506	5433
839.643	5231
839.781	5090
839.918	5029
840.055	5102
840.193	5109
840.33	5124
840.467	5140
840.604	5189
840.742	5478
840.879	5140
841.016	5102
841.153	5140
841.29	5395
841.427	5360
841.564	5387
841.701	5395
841.838	5307
841.975	5227
842.112	5292
842.249	5147
842.385	5083
842.522	5315
842.659	5197
842.796	5132
842.933	5258
843.069	5181
843.206	5170
843.343	5299
843.479	5223
843.616	5303
843.752	5025
843.889	5037
844.025	5223
844.162	5025
844.298	5231
844.435	5132
844.571	5041
844.708	5174
844.844	5337
844.98	5360
845.117	5326
845.253	5212
845.389	5121
845.525	5174
845.661	5178
845.798	5071
845.934	5162
846.07	5132
846.206	5227
846.342	5299
846.478	5208
846.614	5064
846.75	5067
846.886	4953
847.022	5117
847.158	5029
847.294	5067
847.429	5113
847.565	5067
847.701	5357
847.837	4866
847.972	4828
848.108	4942
848.244	4949
848.379	4820
848.515	4752
848.65	4729
848.786	4733
848.921	4790
849.057	4892
849.192	4889
849.328	4847
849.463	4858
849.598	4790
849.734	4778
849.869	4774
850.004	4603
850.14	4626
850.275	4592
850.41	4516
850.545	4588
850.68	4660
850.815	4645
850.95	4637
851.085	4862
851.22	4816
851.355	4679
851.49	4645
851.625	4653
851.76	4634
851.895	4592
852.03	4546
852.165	4717
852.299	4729
852.434	4809
852.569	4725
852.703	4748
852.838	4805
852.973	4927
853.107	4915
853.242	4771
853.376	4714
853.511	4558
853.645	4607
853.78	4847
853.914	4691
854.048	4744
854.183	4641
854.317	4725
854.451	4896
854.585	4702
854.72	4687
854.854	4740
854.988	4649
855.122	4634
855.256	4565
855.39	4721
855.524	4748
855.658	4744
855.792	4744
855.926	4744
856.06	4698
856.194	4797
856.327	4717
856.461	4656
856.595	4588
856.729	4653
856.862	4763
856.996	4687
857.13	4782
857.263	4729
857.397	4793
857.53	4668
857.664	4744
857.797	4767
857.931	4774
858.064	4698
858.197	4771
858.331	4683
858.464	4603
858.597	4588
858.731	4656
858.864	4637
858.997	4626
859.13	4725
859.263	4694
859.396	4653
859.529	4637
859.662	4584
859.795	4550
859.928	4660
860.061	4786
860.194	4767
860.327	4599
860.46	4634
860.592	4714
860.725	4729
860.858	4710
860.99	4561
861.123	4584
861.256	4558
861.388	4668
861.521	5425
861.653	4493
861.786	4519
861.918	4481
862.05	4573
862.183	4546
862.315	4630
862.447	4675
862.58	4523
862.712	4440
862.844	4356
862.976	4523
863.108	4443
863.24	4748
863.372	4341
863.504	4466
863.636	4428
863.768	4478
863.9	4440
864.032	4379
864.164	4413
864.296	4417
864.428	4573
864.559	4580
864.691	4531
864.823	4519
864.954	4573
865.086	4565
865.217	4462
865.349	4417
865.48	4474
865.612	4512
865.743	4649
865.875	4440
866.006	4436
866.137	4455
866.269	4474
866.4	4485
866.531	4424
866.662	4405
866.793	4417
866.924	4417
867.055	4470
867.186	4500
867.317	4474
867.448	4409
867.579	4379
867.71	4375
867.841	4383
867.972	4462
868.103	4489
868.233	4512
868.364	4493
868.495	4455
868.625	4675
868.756	4740
868.886	4596
869.017	4569
869.147	4748
869.278	4790
869.408	4660
869.539	4630
869.669	4702
869.799	4653
869.929	4778
870.06	4793
870.19	4942
870.32	4938
870.45	4923
870.58	5010
870.71	5128
870.84	5086
870.97	4953
871.1	4927
871.23	5143
871.36	5132
871.489	4995
871.619	5102
871.749	5121
871.879	5140
872.008	5197
872.138	5079
872.267	4946
872.397	4873
872.526	4805
872.656	4706
872.785	4828
872.915	4946
873.044	5041
873.173	4927
873.303	4991
873.432	4984
873.561	5018
873.69	4904
873.819	4839
873.948	4980
874.077	4805
874.206	4755
874.335	4812
874.464	4892
874.593	5143
874.722	4915
874.851	5060
874.979	5071
875.108	5033
875.237	4923
875.365	4873
875.494	4911
875.623	5010
875.751	4850
875.88	4904
876.008	4976
876.136	5022
876.265	5220
876.393	5349
876.521	5227
876.65	5288
876.778	5143
876.906	5094
877.034	5056
877.162	5029
877.29	5022
877.418	5067
877.546	5033
877.674	5052
877.802	4984
877.93	4995
878.058	4919
878.185	4824
878.313	4984
878.441	4984
878.568	4835
878.696	4911
878.824	4938
878.951	5033
879.079	5151
879.206	5307
879.333	5136
879.461	4984
879.588	5037
879.715	5090
879.842	5280
879.97	5064
880.097	4820
880.224	4771
880.351	4843
880.478	4812
880.605	4801
880.732	4797
880.859	5075
880.986	4892
881.112	4889
881.239	4786
881.366	4710
881.493	4611
881.619	4538
881.746	4645
881.872	4687
881.999	4611
882.125	4706
882.252	4816
882.378	4873
882.505	4938
882.631	4809
882.757	4687
882.883	4706
883.01	4740
883.136	4679
883.262	4675
883.388	4626
883.514	4778
883.64	4854
883.766	4782
883.892	4687
884.018	4672
884.143	4900
884.269	5071
884.395	4675
884.52	4683
884.646	4622
884.772	4596
884.897	4561
885.023	4641
885.148	4763
885.274	4896
885.399	4831
885.524	4736
885.65	4714
885.775	4763
885.9	4736
886.025	4885
886.15	4782
886.275	4694
886.4	4664
886.525	4740
886.65	4694
886.775	4714
886.9	4927
887.025	5064
887.149	4805
887.274	4683
887.399	4596
887.523	4588
887.648	4577
887.773	4611
887.897	4774
888.021	4786
888.146	4656
888.27	4828
888.395	4877
888.519	4782
888.643	4767
888.767	4847
888.891	4706
889.015	4615
889.139	4649
889.263	4664
889.387	4786
889.511	4923
889.635	4801
889.759	4687
889.883	4679
890.006	4733
890.13	4824
890.254	4660
890.377	4710
890.501	4558
890.624	4561
890.748	4664
890.871	4493
890.995	4417
891.118	4375
891.241	4546
891.364	4550
891.488	4634
891.611	4527
891.734	4523
891.857	4596
891.98	4573
892.103	4668
892.226	4584
892.349	4519
892.471	4440
892.594	4542
892.717	4607
892.839	4580
892.962	4580
893.085	4679
893.207	4615
893.33	4390
893.452	4535
893.575	4702
893.697	4599
893.819	4771
893.941	4831
894.064	4824
894.186	4558
894.308	4603
894.43	4759
894.552	4816
894.674	4748
894.796	4481
894.918	4588
895.04	4580
895.161	4694
895.283	4660
895.405	4596
895.526	4656
895.648	4683
895.769	4675
895.891	4717
896.012	4748
896.134	4679
896.255	4721
896.376	4645
896.498	4649
896.619	4714
896.74	4630
896.861	4611
896.982	4927
897.103	5083
897.224	4809
897.345	4786
897.466	4660
897.587	4729
897.708	4889
897.828	4782
897.949	4687
898.07	4573
898.19	4679
898.311	4820
898.431	4683
898.552	4740
898.672	4790
898.792	4824
898.913	4771
899.033	4630
899.153	4523
899.273	4428
899.393	4478
899.513	4470
899.633	4523
899.753	4588
899.873	4542
899.993	4596
900.113	4542
900.232	4630
900.352	4504
900.472	4519
900.591	4367
900.711	4508
900.83	4417
900.95	4607
901.069	4736
901.189	4531
901.308	4371
901.427	4299
901.546	4405
901.665	4500
901.784	4493
901.904	4405
902.023	4352
902.141	4181
902.26	4207
902.379	4325
902.498	4242
902.617	4215
902.735	4348
902.854	4394
902.973	4386
903.091	4204
903.21	4246
903.328	4333
903.446	4344
903.565	4287
903.683	4360
903.801	4257
903.919	4409
904.038	4432
904.156	4299
904.274	4413
904.392	4363
904.51	4466
904.627	4462
904.745	4592
904.863	4599
904.981	4360
905.098	4390
905.216	4356
905.334	4459
905.451	4462
905.569	4405
905.686	4504
905.803	4542
905.921	4386
906.038	4584
906.155	4470
906.272	4417
906.389	4493
906.506	4322
906.623	4363
906.74	4405
906.857	4253
906.974	4367
907.091	4588
907.208	4630
907.324	4565
907.441	4459
907.557	4337
907.674	4360
907.79	4287
907.907	4360
908.023	4485
908.139	4451
908.256	4413
908.372	4493
908.488	4470
908.604	4371
908.72	4306
908.836	4413
908.952	4424
909.068	4352
909.184	4584
909.3	4443
909.415	4554
909.531	4573
909.647	4371
909.762	4352
909.878	4337
909.993	4405
910.108	4421
910.224	4466
910.339	4478
910.454	4394
910.57	4383
910.685	4348
910.8	4637
910.915	4558
911.03	4481
911.145	4356
911.259	4253
911.374	4394
911.489	4314
911.604	4257
911.718	4181
911.833	4181
911.947	4074
912.062	4025
912.176	4173
912.291	4219
912.405	4284
912.519	4504
912.633	4535
912.748	4379
912.862	4322
912.976	4192
913.09	4128
913.204	4238
913.318	4249
913.431	4356
913.545	4333
913.659	4447
913.772	4360
913.886	4299
914	4215
914.113	4341
914.226	4424
914.34	4417
914.453	4211
914.566	4447
914.68	4299
914.793	4299
914.906	4169
915.019	4078
915.132	4040
915.245	4139
915.358	4215
915.47	4249
915.583	4261
915.696	4276
915.809	4383
915.921	4432
916.034	4246
916.146	4249
916.259	4242
916.371	4341
916.483	4333
916.595	4276
916.708	4322
916.82	4287
916.932	4337
917.044	4329
917.156	4325
917.268	4211
917.38	4280
917.491	4249
917.603	4329
917.715	4424
917.826	4451
917.938	4348
918.049	4219
918.161	4375
918.272	4519
918.384	4554
918.495	4398
918.606	4303
918.717	4230
918.828	4291
918.939	4363
919.05	4280
919.161	4325
919.272	4116
919.383	4192
919.494	4428
919.604	4649
919.715	4424
919.826	4318
919.936	4398
920.047	4519
920.157	4519
920.267	4714
920.378	4550
920.488	4531
920.598	4698
920.708	4831
920.818	4733
920.928	4755
921.038	4911
921.148	4900
921.258	4599
921.368	4516
921.477	4466
921.587	4443
921.697	4363
921.806	4523
921.916	4436
922.025	4272
922.134	4242
922.244	4204
922.353	4329
922.462	4196
922.571	4040
922.68	3991
922.789	3998
922.898	4006
923.007	4051
923.116	4112
923.224	4101
923.333	4071
923.442	3979
923.55	3972
923.659	4006
923.767	4105
923.876	4002
923.984	4112
924.092	4002
924.201	4086
924.309	4124
924.417	4101
924.525	4097
924.633	4116
924.741	5025
924.849	3915
924.956	4131
925.064	3968
925.172	3926
925.279	3991
925.387	4063
925.494	4055
925.602	4223
925.709	4158
925.816	4029
925.924	4109
926.031	4230
926.138	4158
926.245	4177
926.352	4029
926.459	4291
926.566	4337
926.673	4162
926.779	4071
926.886	4112
926.993	3979
927.099	3941
927.206	3911
927.312	3956
927.419	4082
927.525	4032
927.631	4135
927.737	3930
927.843	3949
927.95	3816
928.056	3911
928.162	3964
928.267	4040
928.373	4596
928.479	4093
928.585	3857
928.69	3987
928.796	4090
928.901	3975
929.007	3865
929.112	3983
929.218	4006
929.323	3953
929.428	3968
929.533	4116
929.638	3915
929.743	4006
929.848	3983
929.953	3987
930.058	3949
930.163	3747
930.267	3819
930.372	3960
930.477	3816
930.581	4029
930.685	3975
930.79	3850
930.894	3903
930.998	3854
931.103	4006
931.207	3709
931.311	3732
931.415	3679
931.519	3545
931.623	3557
