Data from test_V78500241_280.txt Node
Date: Fri Mar 25 16:50:57 CST 2022
User: usil
Spectrometer: V785-0024
Trigger mode: 0
Integration Time (sec): 4.000000E-1
Scans to average: 1
Nonlinearity correction enabled: false
Boxcar width: 0
Storing dark spectrum: false
XAxis mode: Wavelengths
Number of Pixels in Spectrum: 1024
>>>>>Begin Spectral Data<<<<<
801.071	8138
801.214	7997
801.356	7932
801.499	7849
801.641	7757
801.783	7830
801.926	8001
802.068	7951
802.211	7932
802.353	8016
802.496	7898
802.638	7921
802.78	7989
802.923	7902
803.065	7856
803.208	7883
803.35	7944
803.492	8164
803.635	8149
803.777	8012
803.919	8176
804.061	8476
804.204	8168
804.346	8107
804.488	7986
804.63	8069
804.773	8058
804.915	8058
805.057	8313
805.199	8107
805.341	8164
805.483	8218
805.626	8233
805.768	8126
805.91	8172
806.052	8149
806.194	8054
806.336	8362
806.478	8065
806.62	8046
806.762	8126
806.904	8214
807.046	8434
807.188	8263
807.33	8332
807.472	8351
807.614	8020
807.756	8123
807.898	8077
808.04	7906
808.182	7951
808.324	7936
808.465	7879
808.607	8149
808.749	8161
808.891	8187
809.033	8282
809.174	8180
809.316	8054
809.458	8088
809.6	8008
809.741	7967
809.883	7997
810.025	8134
810.166	8012
810.308	8046
810.45	7967
810.591	7864
810.733	7772
810.875	7647
811.016	7521
811.158	7453
811.299	7624
811.441	7776
811.582	7628
811.724	7544
811.865	7578
812.007	7628
812.148	7597
812.29	7563
812.431	7761
812.573	7890
812.714	7989
812.855	8134
812.997	8168
813.138	8324
813.279	8119
813.421	8062
813.562	7986
813.703	7830
813.845	7792
813.986	7460
814.127	7293
814.268	7305
814.41	7145
814.551	7141
814.692	7194
814.833	7103
814.974	7114
815.115	7095
815.256	6954
815.397	6875
815.539	6901
815.68	6875
815.821	6840
815.962	6886
816.103	6753
816.244	6779
816.385	6646
816.526	6627
816.666	6494
816.807	6350
816.948	6471
817.089	6429
817.23	6437
817.371	6418
817.512	6395
817.653	6410
817.793	6369
817.934	6388
818.075	6467
818.216	6437
818.356	6422
818.497	6239
818.638	6106
818.778	6171
818.919	6152
819.06	6194
819.2	6281
819.341	6327
819.481	6331
819.622	6475
819.762	6760
819.903	6711
820.043	6570
820.184	6601
820.324	6532
820.465	6665
820.605	6665
820.746	6654
820.886	6486
821.026	6616
821.167	6688
821.307	6776
821.447	6749
821.588	6673
821.728	6544
821.868	6517
822.008	6369
822.149	6369
822.289	6369
822.429	6167
822.569	6125
822.709	6209
822.849	5931
822.99	5889
823.13	5939
823.27	5855
823.41	5737
823.55	5828
823.69	5798
823.83	5745
823.97	5653
824.11	5501
824.25	5577
824.389	5570
824.529	5570
824.669	5532
824.809	5653
824.949	5684
825.089	5608
825.228	5596
825.368	5387
825.508	5349
825.648	5379
825.787	5398
825.927	5452
826.067	5288
826.206	5341
826.346	5379
826.485	5448
826.625	5406
826.765	5573
826.904	5497
827.044	5258
827.183	5212
827.323	5185
827.462	5269
827.601	5147
827.741	5189
827.88	5204
828.02	5102
828.159	5197
828.298	5322
828.437	5372
828.577	5261
828.716	5505
828.855	5318
828.994	5105
829.134	5102
829.273	5170
829.412	5105
829.551	5166
829.69	5143
829.829	5269
829.968	5395
830.107	5284
830.246	5284
830.385	5212
830.524	5151
830.663	5105
830.802	4968
830.941	4885
831.08	4862
831.219	5010
831.357	4984
831.496	5136
831.635	4885
831.774	4828
831.913	4831
832.051	4729
832.19	4740
832.329	4790
832.467	4656
832.606	4641
832.744	4710
832.883	4698
833.022	4755
833.16	4752
833.299	4816
833.437	4843
833.576	4908
833.714	4866
833.852	4858
833.991	4934
834.129	4927
834.267	4930
834.406	4885
834.544	4987
834.682	4938
834.821	4976
834.959	5216
835.097	4999
835.235	5140
835.373	5147
835.511	5136
835.65	5010
835.788	5025
835.926	4938
836.064	4930
836.202	4965
836.34	5151
836.478	5189
836.615	5143
836.753	5239
836.891	5299
837.029	5288
837.167	5201
837.305	5155
837.443	5204
837.58	5083
837.718	5265
837.856	5204
837.993	5155
838.131	5235
838.269	5223
838.406	5220
838.544	5204
838.681	5067
838.819	5022
838.956	4885
839.094	4889
839.231	4984
839.369	5105
839.506	5421
839.643	5220
839.781	5060
839.918	4980
840.055	5113
840.193	5060
840.33	5098
840.467	5086
840.604	5178
840.742	5471
840.879	5071
841.016	5079
841.153	5124
841.29	5398
841.427	5360
841.564	5284
841.701	5364
841.838	5239
841.975	5216
842.112	5242
842.249	5140
842.385	5094
842.522	5284
842.659	5189
842.796	5113
842.933	5239
843.069	5140
843.206	5155
843.343	5303
843.479	5216
843.616	5235
843.752	5048
843.889	5041
844.025	5155
844.162	4987
844.298	5193
844.435	5045
844.571	5025
844.708	5212
844.844	5341
844.98	5383
845.117	5315
845.253	5162
845.389	5067
845.525	5086
845.661	5105
845.798	5037
845.934	5083
846.07	5094
846.206	5189
846.342	5246
846.478	5185
846.614	5025
846.75	4923
846.886	4961
847.022	5151
847.158	4987
847.294	5128
847.429	5052
847.565	5029
847.701	5299
847.837	4801
847.972	4812
848.108	4976
848.244	4946
848.379	4805
848.515	4733
848.65	4664
848.786	4725
848.921	4782
849.057	4892
849.192	4896
849.328	4809
849.463	4843
849.598	4790
849.734	4748
849.869	4710
850.004	4679
850.14	4660
850.275	4580
850.41	4512
850.545	4535
850.68	4558
850.815	4592
850.95	4618
851.085	4850
851.22	4767
851.355	4694
851.49	4626
851.625	4641
851.76	4573
851.895	4588
852.03	4542
852.165	4626
852.299	4717
852.434	4805
852.569	4733
852.703	4774
852.838	4881
852.973	4961
853.107	4946
853.242	4744
853.376	4668
853.511	4561
853.645	4580
853.78	4812
853.914	4683
854.048	4694
854.183	4649
854.317	4710
854.451	4889
854.585	4687
854.72	4653
854.854	4740
854.988	4634
855.122	4675
855.256	4584
855.39	4698
855.524	4767
855.658	4729
855.792	4706
855.926	4721
856.06	4759
856.194	4835
856.327	4721
856.461	4637
856.595	4611
856.729	4706
856.862	4786
856.996	4752
857.13	4748
857.263	4805
857.397	4866
857.53	4694
857.664	4778
857.797	4835
857.931	4850
858.064	4706
858.197	4778
858.331	4714
858.464	4664
858.597	4554
858.731	4675
858.864	4645
858.997	4660
859.13	4702
859.263	4710
859.396	4771
859.529	4683
859.662	4577
859.795	4573
859.928	4672
860.061	4793
860.194	4873
860.327	4679
860.46	4615
860.592	4755
860.725	4755
860.858	4736
860.99	4599
861.123	4569
861.256	4565
861.388	4660
861.521	5391
861.653	4531
861.786	4466
861.918	4485
862.05	4599
862.183	4596
862.315	4641
862.447	4679
862.58	4580
862.712	4440
862.844	4352
862.976	4493
863.108	4489
863.24	4934
863.372	4379
863.504	4432
863.636	4432
863.768	4512
863.9	4474
864.032	4394
864.164	4459
864.296	4542
864.428	4645
864.559	4656
864.691	4584
864.823	4561
864.954	4478
865.086	4561
865.217	4485
865.349	4447
865.48	4489
865.612	4519
865.743	4675
865.875	4538
866.006	4455
866.137	4516
866.269	4519
866.4	4481
866.531	4440
866.662	4440
866.793	4440
866.924	4474
867.055	4569
867.186	4508
867.317	4451
867.448	4424
867.579	4443
867.71	4413
867.841	4421
867.972	4542
868.103	4519
868.233	4466
868.364	4497
868.495	4504
868.625	4698
868.756	4828
868.886	4618
869.017	4611
869.147	4828
869.278	4839
869.408	4702
869.539	4675
869.669	4744
869.799	4706
869.929	4835
870.06	4812
870.19	5025
870.32	4949
870.45	5014
870.58	5067
870.71	5147
870.84	5090
870.97	5025
871.1	4942
871.23	5223
871.36	5201
871.489	5083
871.619	5094
871.749	5151
871.879	5136
872.008	5261
872.138	5098
872.267	5045
872.397	4835
872.526	4896
872.656	4767
872.785	4820
872.915	4991
873.044	5033
873.173	5014
873.303	4923
873.432	4965
873.561	5003
873.69	4923
873.819	4843
873.948	4915
874.077	4835
874.206	4786
874.335	4862
874.464	4938
874.593	5056
874.722	4946
874.851	5113
874.979	5022
875.108	5064
875.237	4930
875.365	4919
875.494	4942
875.623	4987
875.751	4881
875.88	4923
876.008	5006
876.136	5079
876.265	5231
876.393	5360
876.521	5326
876.65	5261
876.778	5181
876.906	5113
877.034	5064
877.162	5086
877.29	5052
877.418	5056
877.546	5090
877.674	5098
877.802	5052
877.93	5086
878.058	4908
878.185	4900
878.313	5014
878.441	5003
878.568	4816
878.696	4854
878.824	4999
878.951	5033
879.079	5162
879.206	5322
879.333	5083
879.461	5037
879.588	5037
879.715	5170
879.842	5280
879.97	5018
880.097	4835
880.224	4809
880.351	4816
880.478	4915
880.605	4847
880.732	4801
880.859	5128
880.986	4904
881.112	4953
881.239	4824
881.366	4733
881.493	4675
881.619	4611
881.746	4691
881.872	4714
881.999	4660
882.125	4717
882.252	4828
882.378	4862
882.505	4942
882.631	4816
882.757	4721
882.883	4774
883.01	4809
883.136	4706
883.262	4630
883.388	4668
883.514	4839
883.64	4896
883.766	4809
883.892	4710
884.018	4759
884.143	4930
884.269	5048
884.395	4675
884.52	4656
884.646	4694
884.772	4634
884.897	4596
885.023	4687
885.148	4812
885.274	4923
885.399	4831
885.524	4763
885.65	4755
885.775	4835
885.9	4759
886.025	4904
886.15	4767
886.275	4748
886.4	4714
886.525	4736
886.65	4755
886.775	4687
886.9	4942
887.025	5086
887.149	4828
887.274	4698
887.399	4641
887.523	4615
887.648	4626
887.773	4668
887.897	4748
888.021	4797
888.146	4721
888.27	4847
888.395	4938
888.519	4801
888.643	4854
888.767	4892
888.891	4748
889.015	4592
889.139	4725
889.263	4679
889.387	4778
889.511	4911
889.635	4831
889.759	4687
889.883	4668
890.006	4759
890.13	4850
890.254	4660
890.377	4694
890.501	4618
890.624	4584
890.748	4687
890.871	4538
890.995	4455
891.118	4405
891.241	4497
891.364	4573
891.488	4672
891.611	4561
891.734	4592
891.857	4622
891.98	4558
892.103	4694
892.226	4630
892.349	4546
892.471	4493
892.594	4565
892.717	4649
892.839	4611
892.962	4622
893.085	4717
893.207	4641
893.33	4500
893.452	4523
893.575	4725
893.697	4573
893.819	4816
893.941	4889
894.064	4755
894.186	4653
894.308	4637
894.43	4767
894.552	4885
894.674	4771
894.796	4603
894.918	4599
895.04	4588
895.161	4736
895.283	4733
895.405	4596
895.526	4687
895.648	4767
895.769	4672
895.891	4736
896.012	4763
896.134	4729
896.255	4748
896.376	4679
896.498	4649
896.619	4694
896.74	4675
896.861	4675
896.982	4968
897.103	5155
897.224	4889
897.345	4793
897.466	4717
897.587	4744
897.708	4885
897.828	4831
897.949	4710
898.07	4615
898.19	4714
898.311	4854
898.431	4683
898.552	4763
898.672	4873
898.792	4801
898.913	4763
899.033	4679
899.153	4527
899.273	4478
899.393	4516
899.513	4588
899.633	4588
899.753	4546
899.873	4577
899.993	4634
900.113	4558
900.232	4626
900.352	4546
900.472	4550
900.591	4375
900.711	4508
900.83	4481
900.95	4675
901.069	4660
901.189	4580
901.308	4386
901.427	4318
901.546	4481
901.665	4478
901.784	4573
901.904	4405
902.023	4363
902.141	4242
902.26	4192
902.379	4325
902.498	4272
902.617	4249
902.735	4421
902.854	4436
902.973	4394
903.091	4257
903.21	4227
903.328	4314
903.446	4303
903.565	4348
903.683	4383
903.801	4318
903.919	4462
904.038	4436
904.156	4367
904.274	4527
904.392	4413
904.51	4383
904.627	4485
904.745	4630
904.863	4691
904.981	4432
905.098	4360
905.216	4432
905.334	4474
905.451	4527
905.569	4466
905.686	4569
905.803	4580
905.921	4421
906.038	4558
906.155	4519
906.272	4443
906.389	4466
906.506	4390
906.623	4394
906.74	4417
906.857	4348
906.974	4390
907.091	4603
907.208	4656
907.324	4561
907.441	4523
907.557	4402
907.674	4367
907.79	4344
907.907	4440
908.023	4554
908.139	4500
908.256	4500
908.372	4535
908.488	4519
908.604	4356
908.72	4367
908.836	4379
908.952	4398
909.068	4413
909.184	4630
909.3	4466
909.415	4672
909.531	4615
909.647	4333
909.762	4394
909.878	4322
909.993	4443
910.108	4447
910.224	4424
910.339	4489
910.454	4459
910.57	4375
910.685	4329
910.8	4698
910.915	4611
911.03	4542
911.145	4337
911.259	4363
911.374	4428
911.489	4348
911.604	4303
911.718	4200
911.833	4257
911.947	4074
912.062	4059
912.176	4249
912.291	4299
912.405	4249
912.519	4481
912.633	4569
912.748	4363
912.862	4341
912.976	4188
913.09	4128
913.204	4204
913.318	4257
913.431	4363
913.545	4371
913.659	4443
913.772	4386
913.886	4284
914	4265
914.113	4421
914.226	4440
914.34	4436
914.453	4257
914.566	4478
914.68	4352
914.793	4344
914.906	4177
915.019	4101
915.132	4109
915.245	4192
915.358	4234
915.47	4257
915.583	4261
915.696	4322
915.809	4447
915.921	4466
916.034	4314
916.146	4257
916.259	4227
916.371	4394
916.483	4398
916.595	4265
916.708	4325
916.82	4371
916.932	4333
917.044	4348
917.156	4318
917.268	4268
917.38	4261
917.491	4303
917.603	4383
917.715	4451
917.826	4466
917.938	4325
918.049	4261
918.161	4356
918.272	4561
918.384	4523
918.495	4474
918.606	4367
918.717	4246
918.828	4379
918.939	4409
919.05	4223
919.161	4337
919.272	4177
919.383	4230
919.494	4447
919.604	4668
919.715	4440
919.826	4344
919.936	4428
920.047	4538
920.157	4558
920.267	4691
920.378	4546
920.488	4531
920.598	4774
920.708	4908
920.818	4721
920.928	4824
921.038	5052
921.148	5029
921.258	4611
921.368	4580
921.477	4474
921.587	4504
921.697	4367
921.806	4546
921.916	4466
922.025	4310
922.134	4268
922.244	4219
922.353	4329
922.462	4234
922.571	4173
922.68	4048
922.789	3994
922.898	4071
923.007	4090
923.116	4116
923.224	4090
923.333	4131
923.442	4036
923.55	4040
923.659	4040
923.767	4131
923.876	4029
923.984	4150
924.092	4040
924.201	4147
924.309	4169
924.417	4177
924.525	4090
924.633	4135
924.741	5098
924.849	3972
924.956	4158
925.064	4010
925.172	3964
925.279	4032
925.387	4101
925.494	4071
925.602	4227
925.709	4234
925.816	4143
925.924	4211
926.031	4295
926.138	4219
926.245	4280
926.352	4120
926.459	4371
926.566	4348
926.673	4162
926.779	4143
926.886	4181
926.993	4025
927.099	4036
927.206	3998
927.312	3979
927.419	4124
927.525	4090
927.631	4150
927.737	4048
927.843	4048
927.95	3899
928.056	3972
928.162	4051
928.267	4112
928.373	4744
928.479	4169
928.585	3896
928.69	4093
928.796	4112
928.901	4025
929.007	3918
929.112	4071
929.218	4051
929.323	3960
929.428	3987
929.533	4188
929.638	3953
929.743	3987
929.848	4074
929.953	4090
930.058	3953
930.163	3827
930.267	3911
930.372	3972
930.477	3888
930.581	4147
930.685	3994
930.79	3884
930.894	3918
930.998	3865
931.103	4086
931.207	3770
931.311	3766
931.415	3701
931.519	3549
931.623	3614
