Data from test_V78500241_371.txt Node
Date: Fri Mar 25 16:51:34 CST 2022
User: usil
Spectrometer: V785-0024
Trigger mode: 0
Integration Time (sec): 4.000000E-1
Scans to average: 1
Nonlinearity correction enabled: false
Boxcar width: 0
Storing dark spectrum: false
XAxis mode: Wavelengths
Number of Pixels in Spectrum: 1024
>>>>>Begin Spectral Data<<<<<
801.071	8035
801.214	8043
801.356	7986
801.499	7849
801.641	7871
801.783	7841
801.926	7932
802.068	8012
802.211	7963
802.353	8039
802.496	7864
802.638	7959
802.78	7928
802.923	7963
803.065	7864
803.208	7909
803.35	8005
803.492	8081
803.635	8111
803.777	8020
803.919	8115
804.061	8412
804.204	8240
804.346	8027
804.488	7947
804.63	8221
804.773	7921
804.915	8100
805.057	8313
805.199	8145
805.341	8221
805.483	8267
805.626	8157
805.768	8111
805.91	8142
806.052	8145
806.194	8111
806.336	8294
806.478	8199
806.62	8161
806.762	8225
806.904	8294
807.046	8480
807.188	8351
807.33	8389
807.472	8294
807.614	8206
807.756	8164
807.898	7974
808.04	7860
808.182	7898
808.324	8020
808.465	7951
808.607	8096
808.749	8103
808.891	8267
809.033	8301
809.174	8210
809.316	8016
809.458	8065
809.6	8016
809.741	8073
809.883	8008
810.025	8142
810.166	8065
810.308	8065
810.45	8065
810.591	7887
810.733	7792
810.875	7639
811.016	7552
811.158	7552
811.299	7666
811.441	7780
811.582	7772
811.724	7616
811.865	7636
812.007	7693
812.148	7647
812.29	7696
812.431	7742
812.573	7902
812.714	8016
812.855	8153
812.997	8206
813.138	8271
813.279	8199
813.421	8115
813.562	8031
813.703	7860
813.845	7814
813.986	7537
814.127	7350
814.268	7312
814.41	7225
814.551	7198
814.692	7213
814.833	7110
814.974	7065
815.115	7103
815.256	6939
815.397	6897
815.539	6920
815.68	6852
815.821	6764
815.962	6954
816.103	6878
816.244	6783
816.385	6665
816.526	6662
816.666	6551
816.807	6289
816.948	6429
817.089	6445
817.23	6422
817.371	6376
817.512	6418
817.653	6490
817.793	6376
817.934	6414
818.075	6517
818.216	6376
818.356	6437
818.497	6224
818.638	6201
818.778	6121
818.919	6171
819.06	6182
819.2	6334
819.341	6342
819.481	6407
819.622	6563
819.762	6745
819.903	6700
820.043	6650
820.184	6574
820.324	6601
820.465	6726
820.605	6654
820.746	6662
820.886	6532
821.026	6681
821.167	6738
821.307	6825
821.447	6787
821.588	6684
821.728	6593
821.868	6528
822.008	6334
822.149	6361
822.289	6391
822.429	6190
822.569	6091
822.709	6102
822.849	5961
822.99	5916
823.13	5942
823.27	5920
823.41	5821
823.55	5821
823.69	5767
823.83	5824
823.97	5627
824.11	5585
824.25	5512
824.389	5592
824.529	5615
824.669	5566
824.809	5672
824.949	5630
825.089	5627
825.228	5615
825.368	5402
825.508	5429
825.648	5353
825.787	5383
825.927	5395
826.067	5299
826.206	5318
826.346	5402
826.485	5410
826.625	5383
826.765	5528
826.904	5482
827.044	5197
827.183	5223
827.323	5128
827.462	5261
827.601	5178
827.741	5193
827.88	5212
828.02	5128
828.159	5254
828.298	5326
828.437	5387
828.577	5349
828.716	5486
828.855	5357
828.994	5185
829.134	5155
829.273	5204
829.412	5143
829.551	5121
829.69	5174
829.829	5239
829.968	5398
830.107	5258
830.246	5254
830.385	5235
830.524	5159
830.663	5083
830.802	5010
830.941	4889
831.08	4892
831.219	4934
831.357	4984
831.496	5170
831.635	4961
831.774	4870
831.913	4816
832.051	4774
832.19	4831
832.329	4812
832.467	4725
832.606	4656
832.744	4714
832.883	4748
833.022	4736
833.16	4812
833.299	4831
833.437	4748
833.576	4839
833.714	4828
833.852	4911
833.991	4843
834.129	4968
834.267	4965
834.406	4946
834.544	4995
834.682	4976
834.821	4965
834.959	5155
835.097	4999
835.235	5136
835.373	5140
835.511	5155
835.65	5109
835.788	5018
835.926	4885
836.064	4892
836.202	4908
836.34	5201
836.478	5223
836.615	5143
836.753	5223
836.891	5292
837.029	5250
837.167	5250
837.305	5147
837.443	5155
837.58	5075
837.718	5258
837.856	5201
837.993	5178
838.131	5239
838.269	5223
838.406	5185
838.544	5223
838.681	5041
838.819	5029
838.956	4938
839.094	4957
839.231	5025
839.369	5098
839.506	5421
839.643	5227
839.781	5098
839.918	5033
840.055	5117
840.193	5075
840.33	5166
840.467	5159
840.604	5273
840.742	5425
840.879	5113
841.016	5060
841.153	5155
841.29	5421
841.427	5330
841.564	5299
841.701	5383
841.838	5292
841.975	5246
842.112	5265
842.249	5128
842.385	5121
842.522	5379
842.659	5185
842.796	5193
842.933	5227
843.069	5147
843.206	5174
843.343	5299
843.479	5223
843.616	5288
843.752	5025
843.889	5041
844.025	5212
844.162	5041
844.298	5189
844.435	5121
844.571	5067
844.708	5197
844.844	5349
844.98	5330
845.117	5296
845.253	5216
845.389	5086
845.525	5124
845.661	5170
845.798	5025
845.934	5155
846.07	5041
846.206	5220
846.342	5273
846.478	5223
846.614	5010
846.75	5018
846.886	4927
847.022	5117
847.158	5025
847.294	5056
847.429	5117
847.565	5052
847.701	5345
847.837	4908
847.972	4816
848.108	4976
848.244	4972
848.379	4801
848.515	4733
848.65	4733
848.786	4744
848.921	4774
849.057	4881
849.192	4908
849.328	4889
849.463	4877
849.598	4771
849.734	4790
849.869	4675
850.004	4641
850.14	4664
850.275	4603
850.41	4565
850.545	4588
850.68	4611
850.815	4630
850.95	4653
851.085	4858
851.22	4752
851.355	4687
851.49	4630
851.625	4611
851.76	4603
851.895	4558
852.03	4519
852.165	4641
852.299	4752
852.434	4782
852.569	4767
852.703	4729
852.838	4805
852.973	4946
853.107	4930
853.242	4721
853.376	4694
853.511	4554
853.645	4630
853.78	4809
853.914	4694
854.048	4664
854.183	4660
854.317	4706
854.451	4885
854.585	4675
854.72	4664
854.854	4755
854.988	4569
855.122	4653
855.256	4561
855.39	4653
855.524	4786
855.658	4733
855.792	4725
855.926	4744
856.06	4767
856.194	4816
856.327	4668
856.461	4653
856.595	4637
856.729	4653
856.862	4755
856.996	4668
857.13	4755
857.263	4786
857.397	4824
857.53	4637
857.664	4744
857.797	4786
857.931	4755
858.064	4710
858.197	4736
858.331	4618
858.464	4588
858.597	4531
858.731	4603
858.864	4618
858.997	4596
859.13	4641
859.263	4668
859.396	4702
859.529	4550
859.662	4565
859.795	4470
859.928	4687
860.061	4748
860.194	4793
860.327	4653
860.46	4588
860.592	4660
860.725	4752
860.858	4733
860.99	4596
861.123	4500
861.256	4535
861.388	4584
861.521	5410
861.653	4485
861.786	4390
861.918	4466
862.05	4558
862.183	4504
862.315	4599
862.447	4672
862.58	4607
862.712	4383
862.844	4325
862.976	4481
863.108	4440
863.24	4774
863.372	4386
863.504	4428
863.636	4398
863.768	4500
863.9	4432
864.032	4367
864.164	4424
864.296	4474
864.428	4550
864.559	4588
864.691	4538
864.823	4546
864.954	4497
865.086	4535
865.217	4466
865.349	4398
865.48	4485
865.612	4512
865.743	4634
865.875	4432
866.006	4417
866.137	4474
866.269	4497
866.4	4436
866.531	4360
866.662	4421
866.793	4363
866.924	4386
867.055	4466
867.186	4466
867.317	4451
867.448	4398
867.579	4402
867.71	4428
867.841	4390
867.972	4485
868.103	4451
868.233	4478
868.364	4443
868.495	4497
868.625	4675
868.756	4797
868.886	4554
869.017	4694
869.147	4782
869.278	4744
869.408	4706
869.539	4679
869.669	4702
869.799	4634
869.929	4812
870.06	4736
870.19	4957
870.32	4927
870.45	4938
870.58	4991
870.71	5094
870.84	5109
870.97	4885
871.1	4866
871.23	5155
871.36	5109
871.489	5064
871.619	5067
871.749	5083
871.879	5128
872.008	5193
872.138	5037
872.267	4995
872.397	4885
872.526	4782
872.656	4744
872.785	4782
872.915	4980
873.044	5037
873.173	4927
873.303	5003
873.432	4942
873.561	4991
873.69	4889
873.819	4870
873.948	4892
874.077	4816
874.206	4717
874.335	4843
874.464	4908
874.593	5075
874.722	4949
874.851	5132
874.979	5086
875.108	5022
875.237	4934
875.365	4881
875.494	4847
875.623	5056
875.751	4881
875.88	4843
876.008	5014
876.136	5018
876.265	5250
876.393	5315
876.521	5292
876.65	5212
876.778	5197
876.906	5079
877.034	5060
877.162	5060
877.29	5006
877.418	5056
877.546	5060
877.674	5025
877.802	5067
877.93	4976
878.058	4942
878.185	4858
878.313	4972
878.441	4946
878.568	4786
878.696	4828
878.824	4972
878.951	4965
879.079	5140
879.206	5261
879.333	5151
879.461	4987
879.588	4976
879.715	5124
879.842	5201
879.97	4980
880.097	4812
880.224	4763
880.351	4820
880.478	4831
880.605	4782
880.732	4805
880.859	5109
880.986	4892
881.112	4953
881.239	4812
881.366	4634
881.493	4626
881.619	4580
881.746	4645
881.872	4649
881.999	4588
882.125	4687
882.252	4771
882.378	4786
882.505	4930
882.631	4771
882.757	4675
882.883	4740
883.01	4748
883.136	4691
883.262	4637
883.388	4603
883.514	4801
883.64	4839
883.766	4835
883.892	4698
884.018	4744
884.143	4934
884.269	4999
884.395	4622
884.52	4645
884.646	4679
884.772	4615
884.897	4618
885.023	4683
885.148	4793
885.274	4873
885.399	4801
885.524	4748
885.65	4683
885.775	4778
885.9	4687
886.025	4889
886.15	4790
886.275	4698
886.4	4645
886.525	4714
886.65	4763
886.775	4721
886.9	4877
887.025	5071
887.149	4812
887.274	4675
887.399	4542
887.523	4645
887.648	4561
887.773	4584
887.897	4729
888.021	4778
888.146	4675
888.27	4812
888.395	4892
888.519	4782
888.643	4828
888.767	4801
888.891	4691
889.015	4622
889.139	4706
889.263	4603
889.387	4755
889.511	4904
889.635	4812
889.759	4580
889.883	4645
890.006	4702
890.13	4820
890.254	4626
890.377	4664
890.501	4550
890.624	4523
890.748	4630
890.871	4519
890.995	4451
891.118	4344
891.241	4512
891.364	4527
891.488	4664
891.611	4535
891.734	4542
891.857	4588
891.98	4569
892.103	4649
892.226	4626
892.349	4580
892.471	4432
892.594	4527
892.717	4599
892.839	4580
892.962	4618
893.085	4706
893.207	4607
893.33	4455
893.452	4550
893.575	4630
893.697	4558
893.819	4824
893.941	4793
894.064	4790
894.186	4546
894.308	4573
894.43	4721
894.552	4862
894.674	4759
894.796	4554
894.918	4630
895.04	4561
895.161	4687
895.283	4706
895.405	4588
895.526	4630
895.648	4683
895.769	4721
895.891	4744
896.012	4748
896.134	4698
896.255	4653
896.376	4630
896.498	4592
896.619	4622
896.74	4611
896.861	4618
896.982	4919
897.103	5105
897.224	4850
897.345	4740
897.466	4622
897.587	4759
897.708	4839
897.828	4778
897.949	4710
898.07	4592
898.19	4634
898.311	4831
898.431	4694
898.552	4706
898.672	4870
898.792	4759
898.913	4729
899.033	4668
899.153	4519
899.273	4405
899.393	4478
899.513	4535
899.633	4523
899.753	4519
899.873	4504
899.993	4592
900.113	4527
900.232	4622
900.352	4535
900.472	4489
900.591	4375
900.711	4466
900.83	4462
900.95	4599
901.069	4679
901.189	4569
901.308	4360
901.427	4360
901.546	4348
901.665	4497
901.784	4542
901.904	4363
902.023	4306
902.141	4204
902.26	4158
902.379	4325
902.498	4284
902.617	4207
902.735	4360
902.854	4375
902.973	4341
903.091	4265
903.21	4215
903.328	4318
903.446	4287
903.565	4261
903.683	4356
903.801	4299
903.919	4390
904.038	4459
904.156	4329
904.274	4451
904.392	4405
904.51	4443
904.627	4470
904.745	4622
904.863	4596
904.981	4440
905.098	4333
905.216	4341
905.334	4409
905.451	4440
905.569	4459
905.686	4565
905.803	4546
905.921	4394
906.038	4535
906.155	4474
906.272	4371
906.389	4470
906.506	4375
906.623	4383
906.74	4428
906.857	4306
906.974	4333
907.091	4527
907.208	4668
907.324	4554
907.441	4504
907.557	4322
907.674	4348
907.79	4348
907.907	4379
908.023	4527
908.139	4481
908.256	4432
908.372	4489
908.488	4516
908.604	4337
908.72	4360
908.836	4421
908.952	4394
909.068	4360
909.184	4550
909.3	4500
909.415	4580
909.531	4546
909.647	4367
909.762	4371
909.878	4303
909.993	4462
910.108	4424
910.224	4413
910.339	4478
910.454	4421
910.57	4386
910.685	4329
910.8	4706
910.915	4611
911.03	4481
911.145	4375
911.259	4310
911.374	4367
911.489	4299
911.604	4257
911.718	4181
911.833	4200
911.947	4158
912.062	4040
912.176	4200
912.291	4219
912.405	4227
912.519	4474
912.633	4489
912.748	4322
912.862	4284
912.976	4211
913.09	4116
913.204	4162
913.318	4238
913.431	4375
913.545	4363
913.659	4386
913.772	4402
913.886	4257
914	4188
914.113	4379
914.226	4405
914.34	4417
914.453	4227
914.566	4436
914.68	4295
914.793	4329
914.906	4150
915.019	4093
915.132	4074
915.245	4204
915.358	4234
915.47	4200
915.583	4272
915.696	4306
915.809	4432
915.921	4405
916.034	4265
916.146	4265
916.259	4246
916.371	4386
916.483	4333
916.595	4261
916.708	4318
916.82	4333
916.932	4356
917.044	4333
917.156	4337
917.268	4223
917.38	4276
917.491	4310
917.603	4325
917.715	4455
917.826	4428
917.938	4367
918.049	4257
918.161	4356
918.272	4535
918.384	4569
918.495	4493
918.606	4303
918.717	4238
918.828	4314
918.939	4333
919.05	4280
919.161	4341
919.272	4101
919.383	4276
919.494	4440
919.604	4645
919.715	4413
919.826	4363
919.936	4379
920.047	4508
920.157	4481
920.267	4714
920.378	4523
920.488	4455
920.598	4729
920.708	4900
920.818	4790
920.928	4755
921.038	4987
921.148	4877
921.258	4626
921.368	4565
921.477	4508
921.587	4470
921.697	4333
921.806	4527
921.916	4443
922.025	4291
922.134	4265
922.244	4177
922.353	4337
922.462	4181
922.571	4131
922.68	3979
922.789	3994
922.898	4032
923.007	3994
923.116	4143
923.224	4093
923.333	4116
923.442	3972
923.55	4029
923.659	4010
923.767	4112
923.876	3979
923.984	4101
924.092	3968
924.201	4063
924.309	4082
924.417	4105
924.525	4078
924.633	4109
924.741	4850
924.849	3888
924.956	4128
925.064	3953
925.172	3880
925.279	4006
925.387	4040
925.494	4032
925.602	4215
925.709	4188
925.816	4063
925.924	4158
926.031	4234
926.138	4135
926.245	4230
926.352	4082
926.459	4234
926.566	4287
926.673	4162
926.779	4109
926.886	4093
926.993	3987
927.099	3945
927.206	3972
927.312	3979
927.419	4044
927.525	4044
927.631	4143
927.737	3994
927.843	3979
927.95	3857
928.056	3964
928.162	4017
928.267	4097
928.373	4725
928.479	4120
928.585	3903
928.69	4040
928.796	4067
928.901	3987
929.007	3903
929.112	3991
929.218	3979
929.323	3968
929.428	4013
929.533	4162
929.638	3953
929.743	3987
929.848	4078
929.953	3987
930.058	3945
930.163	3812
930.267	3873
930.372	3994
930.477	3835
930.581	4101
930.685	3956
930.79	3865
930.894	3911
930.998	3884
931.103	4101
931.207	3766
931.311	3762
931.415	3732
931.519	3572
931.623	3591
