Data from test_V78500241_1757.txt Node
Date: Fri Mar 25 17:01:13 CST 2022
User: usil
Spectrometer: V785-0024
Trigger mode: 0
Integration Time (sec): 4.000000E-1
Scans to average: 1
Nonlinearity correction enabled: false
Boxcar width: 0
Storing dark spectrum: false
XAxis mode: Wavelengths
Number of Pixels in Spectrum: 1024
>>>>>Begin Spectral Data<<<<<
801.071	7970
801.214	8077
801.356	7864
801.499	7959
801.641	7826
801.783	7845
801.926	7875
802.068	7902
802.211	8012
802.353	7955
802.496	7879
802.638	7849
802.78	7947
802.923	7875
803.065	7860
803.208	8001
803.35	7986
803.492	8054
803.635	8214
803.777	8016
803.919	8126
804.061	8492
804.204	8145
804.346	8050
804.488	8005
804.63	8126
804.773	8103
804.915	8145
805.057	8328
805.199	8225
805.341	8172
805.483	8256
805.626	8252
805.768	8100
805.91	8309
806.052	8221
806.194	8081
806.336	8305
806.478	8123
806.62	8081
806.762	8153
806.904	8309
807.046	8461
807.188	8381
807.33	8279
807.472	8339
807.614	8199
807.756	8164
807.898	8016
808.04	7902
808.182	7974
808.324	7917
808.465	7833
808.607	8046
808.749	8149
808.891	8221
809.033	8377
809.174	8172
809.316	8084
809.458	8073
809.6	8020
809.741	8050
809.883	8031
810.025	8027
810.166	8054
810.308	8065
810.45	8005
810.591	7826
810.733	7693
810.875	7651
811.016	7529
811.158	7495
811.299	7658
811.441	7700
811.582	7651
811.724	7609
811.865	7552
812.007	7628
812.148	7548
812.29	7597
812.431	7761
812.573	7913
812.714	7936
812.855	8149
812.997	8134
813.138	8240
813.279	8218
813.421	8096
813.562	7936
813.703	7818
813.845	7769
813.986	7468
814.127	7240
814.268	7236
814.41	7213
814.551	7171
814.692	7209
814.833	7152
814.974	7091
815.115	7103
815.256	6958
815.397	6958
815.539	6970
815.68	6856
815.821	6802
815.962	6901
816.103	6825
816.244	6753
816.385	6650
816.526	6646
816.666	6490
816.807	6327
816.948	6460
817.089	6460
817.23	6429
817.371	6410
817.512	6448
817.653	6456
817.793	6395
817.934	6384
818.075	6486
818.216	6525
818.356	6391
818.497	6277
818.638	6163
818.778	6194
818.919	6159
819.06	6178
819.2	6357
819.341	6334
819.481	6361
819.622	6547
819.762	6684
819.903	6696
820.043	6578
820.184	6566
820.324	6631
820.465	6711
820.605	6631
820.746	6688
820.886	6490
821.026	6684
821.167	6688
821.307	6795
821.447	6764
821.588	6662
821.728	6620
821.868	6479
822.008	6407
822.149	6350
822.289	6407
822.429	6155
822.569	6091
822.709	6155
822.849	5878
822.99	5908
823.13	5904
823.27	5904
823.41	5821
823.55	5764
823.69	5805
823.83	5798
823.97	5680
824.11	5570
824.25	5493
824.389	5535
824.529	5566
824.669	5592
824.809	5600
824.949	5680
825.089	5642
825.228	5592
825.368	5337
825.508	5326
825.648	5387
825.787	5372
825.927	5391
826.067	5288
826.206	5292
826.346	5414
826.485	5387
826.625	5410
826.765	5577
826.904	5444
827.044	5288
827.183	5220
827.323	5136
827.462	5223
827.601	5147
827.741	5227
827.88	5246
828.02	5117
828.159	5239
828.298	5330
828.437	5391
828.577	5341
828.716	5516
828.855	5364
828.994	5178
829.134	5189
829.273	5181
829.412	5140
829.551	5067
829.69	5166
829.829	5242
829.968	5440
830.107	5322
830.246	5303
830.385	5197
830.524	5121
830.663	5029
830.802	4953
830.941	4896
831.08	4850
831.219	5010
831.357	4949
831.496	5197
831.635	4949
831.774	4854
831.913	4820
832.051	4748
832.19	4714
832.329	4843
832.467	4698
832.606	4603
832.744	4752
832.883	4782
833.022	4710
833.16	4790
833.299	4790
833.437	4809
833.576	4793
833.714	4908
833.852	4919
833.991	4877
834.129	4961
834.267	4927
834.406	4862
834.544	4934
834.682	4987
834.821	4957
834.959	5159
835.097	5003
835.235	5117
835.373	5124
835.511	5060
835.65	5022
835.788	5048
835.926	4908
836.064	4854
836.202	4923
836.34	5166
836.478	5246
836.615	5113
836.753	5246
836.891	5315
837.029	5246
837.167	5212
837.305	5094
837.443	5121
837.58	5071
837.718	5204
837.856	5155
837.993	5147
838.131	5235
838.269	5212
838.406	5212
838.544	5197
838.681	5048
838.819	5014
838.956	4930
839.094	4911
839.231	4987
839.369	5064
839.506	5448
839.643	5231
839.781	5086
839.918	5003
840.055	5102
840.193	5067
840.33	5124
840.467	5098
840.604	5216
840.742	5448
840.879	5083
841.016	5071
841.153	5155
841.29	5307
841.427	5307
841.564	5307
841.701	5357
841.838	5254
841.975	5288
842.112	5246
842.249	5155
842.385	5124
842.522	5330
842.659	5181
842.796	5170
842.933	5185
843.069	5204
843.206	5147
843.343	5280
843.479	5227
843.616	5261
843.752	5052
843.889	5022
844.025	5185
844.162	4999
844.298	5231
844.435	5071
844.571	5086
844.708	5147
844.844	5273
844.98	5353
845.117	5345
845.253	5227
845.389	5086
845.525	5128
845.661	5162
845.798	5060
845.934	5140
846.07	5079
846.206	5193
846.342	5242
846.478	5151
846.614	5048
846.75	4968
846.886	4942
847.022	5113
847.158	4987
847.294	5029
847.429	5098
847.565	5048
847.701	5330
847.837	4843
847.972	4805
848.108	4919
848.244	4923
848.379	4831
848.515	4725
848.65	4675
848.786	4740
848.921	4752
849.057	4877
849.192	4870
849.328	4816
849.463	4896
849.598	4771
849.734	4797
849.869	4687
850.004	4653
850.14	4660
850.275	4592
850.41	4531
850.545	4561
850.68	4561
850.815	4656
850.95	4603
851.085	4866
851.22	4740
851.355	4679
851.49	4615
851.625	4607
851.76	4649
851.895	4550
852.03	4516
852.165	4641
852.299	4721
852.434	4793
852.569	4710
852.703	4790
852.838	4835
852.973	4923
853.107	4991
853.242	4767
853.376	4672
853.511	4542
853.645	4630
853.78	4797
853.914	4634
854.048	4721
854.183	4599
854.317	4687
854.451	4889
854.585	4694
854.72	4596
854.854	4774
854.988	4588
855.122	4675
855.256	4500
855.39	4694
855.524	4809
855.658	4729
855.792	4660
855.926	4774
856.06	4801
856.194	4797
856.327	4664
856.461	4573
856.595	4660
856.729	4607
856.862	4774
856.996	4679
857.13	4759
857.263	4725
857.397	4824
857.53	4664
857.664	4744
857.797	4725
857.931	4793
858.064	4691
858.197	4752
858.331	4668
858.464	4584
858.597	4546
858.731	4626
858.864	4668
858.997	4588
859.13	4656
859.263	4672
859.396	4698
859.529	4637
859.662	4558
859.795	4569
859.928	4603
860.061	4725
860.194	4778
860.327	4573
860.46	4569
860.592	4687
860.725	4725
860.858	4721
860.99	4603
861.123	4546
861.256	4466
861.388	4649
861.521	5326
861.653	4497
861.786	4474
861.918	4447
862.05	4569
862.183	4618
862.315	4596
862.447	4634
862.58	4592
862.712	4432
862.844	4325
862.976	4497
863.108	4394
863.24	4892
863.372	4314
863.504	4432
863.636	4421
863.768	4466
863.9	4424
864.032	4398
864.164	4413
864.296	4500
864.428	4516
864.559	4538
864.691	4497
864.823	4531
864.954	4531
865.086	4497
865.217	4485
865.349	4455
865.48	4436
865.612	4519
865.743	4626
865.875	4459
866.006	4443
866.137	4462
866.269	4447
866.4	4428
866.531	4402
866.662	4413
866.793	4386
866.924	4428
867.055	4527
867.186	4440
867.317	4436
867.448	4379
867.579	4363
867.71	4360
867.841	4386
867.972	4436
868.103	4447
868.233	4481
868.364	4455
868.495	4409
868.625	4622
868.756	4698
868.886	4497
869.017	4637
869.147	4721
869.278	4774
869.408	4626
869.539	4618
869.669	4691
869.799	4679
869.929	4755
870.06	4744
870.19	4980
870.32	4896
870.45	4961
870.58	4984
870.71	5064
870.84	5075
870.97	4927
871.1	4908
871.23	5162
871.36	5128
871.489	5022
871.619	5018
871.749	5083
871.879	5079
872.008	5193
872.138	5025
872.267	4949
872.397	4904
872.526	4809
872.656	4721
872.785	4774
872.915	4908
873.044	4957
873.173	4896
873.303	4965
873.432	4980
873.561	4946
873.69	4870
873.819	4873
873.948	4881
874.077	4885
874.206	4790
874.335	4793
874.464	4923
874.593	5086
874.722	4957
874.851	5071
874.979	5052
875.108	5075
875.237	4885
875.365	4889
875.494	4873
875.623	4984
875.751	4786
875.88	4885
876.008	4965
876.136	5041
876.265	5212
876.393	5364
876.521	5242
876.65	5235
876.778	5105
876.906	5075
877.034	5075
877.162	5014
877.29	4980
877.418	5022
877.546	5086
877.674	5048
877.802	5056
877.93	5045
878.058	4919
878.185	4835
878.313	4980
878.441	4946
878.568	4763
878.696	4858
878.824	4976
878.951	5014
879.079	5124
879.206	5299
879.333	5075
879.461	4968
879.588	5029
879.715	5128
879.842	5254
879.97	4980
880.097	4790
880.224	4717
880.351	4801
880.478	4862
880.605	4793
880.732	4733
880.859	5102
880.986	4930
881.112	4949
881.239	4763
881.366	4634
881.493	4611
881.619	4542
881.746	4634
881.872	4653
881.999	4664
882.125	4698
882.252	4733
882.378	4816
882.505	4934
882.631	4831
882.757	4660
882.883	4714
883.01	4687
883.136	4653
883.262	4596
883.388	4596
883.514	4790
883.64	4889
883.766	4801
883.892	4691
884.018	4729
884.143	4843
884.269	5052
884.395	4698
884.52	4611
884.646	4626
884.772	4569
884.897	4554
885.023	4668
885.148	4774
885.274	4809
885.399	4801
885.524	4653
885.65	4683
885.775	4691
885.9	4740
886.025	4812
886.15	4763
886.275	4725
886.4	4668
886.525	4767
886.65	4641
886.775	4691
886.9	4949
887.025	5052
887.149	4812
887.274	4679
887.399	4618
887.523	4592
887.648	4538
887.773	4584
887.897	4744
888.021	4774
888.146	4664
888.27	4820
888.395	4843
888.519	4820
888.643	4763
888.767	4820
888.891	4687
889.015	4634
889.139	4664
889.263	4637
889.387	4733
889.511	4866
889.635	4816
889.759	4569
889.883	4634
890.006	4759
890.13	4820
890.254	4596
890.377	4714
890.501	4584
890.624	4519
890.748	4626
890.871	4504
890.995	4402
891.118	4337
891.241	4508
891.364	4554
891.488	4630
891.611	4485
891.734	4550
891.857	4588
891.98	4561
892.103	4653
892.226	4630
892.349	4516
892.471	4424
892.594	4542
892.717	4588
892.839	4580
892.962	4630
893.085	4622
893.207	4649
893.33	4500
893.452	4497
893.575	4653
893.697	4645
893.819	4790
893.941	4797
894.064	4729
894.186	4577
894.308	4565
894.43	4736
894.552	4820
894.674	4752
894.796	4538
894.918	4565
895.04	4554
895.161	4702
895.283	4710
895.405	4569
895.526	4615
895.648	4679
895.769	4698
895.891	4694
896.012	4740
896.134	4736
896.255	4656
896.376	4618
896.498	4615
896.619	4656
896.74	4626
896.861	4683
896.982	4965
897.103	5056
897.224	4831
897.345	4736
897.466	4660
897.587	4691
897.708	4854
897.828	4847
897.949	4664
898.07	4550
898.19	4683
898.311	4782
898.431	4687
898.552	4717
898.672	4866
898.792	4816
898.913	4725
899.033	4622
899.153	4466
899.273	4409
899.393	4497
899.513	4535
899.633	4504
899.753	4561
899.873	4508
899.993	4569
900.113	4535
900.232	4577
900.352	4523
900.472	4485
900.591	4363
900.711	4459
900.83	4481
900.95	4565
901.069	4710
901.189	4558
901.308	4348
901.427	4272
901.546	4356
901.665	4451
901.784	4508
901.904	4363
902.023	4325
902.141	4234
902.26	4154
902.379	4287
902.498	4215
902.617	4219
902.735	4360
902.854	4409
902.973	4360
903.091	4166
903.21	4215
903.328	4314
903.446	4310
903.565	4322
903.683	4341
903.801	4261
903.919	4413
904.038	4455
904.156	4329
904.274	4424
904.392	4405
904.51	4417
904.627	4493
904.745	4577
904.863	4630
904.981	4371
905.098	4272
905.216	4379
905.334	4436
905.451	4466
905.569	4447
905.686	4584
905.803	4558
905.921	4409
906.038	4519
906.155	4466
906.272	4375
906.389	4462
906.506	4325
906.623	4367
906.74	4417
906.857	4344
906.974	4341
907.091	4500
907.208	4679
907.324	4558
907.441	4508
907.557	4379
907.674	4337
907.79	4337
907.907	4405
908.023	4485
908.139	4493
908.256	4447
908.372	4485
908.488	4455
908.604	4348
908.72	4291
908.836	4379
908.952	4383
909.068	4417
909.184	4577
909.3	4493
909.415	4531
909.531	4523
909.647	4367
909.762	4371
909.878	4318
909.993	4474
910.108	4424
910.224	4443
910.339	4493
910.454	4421
910.57	4375
910.685	4299
910.8	4672
910.915	4615
911.03	4519
911.145	4322
911.259	4295
911.374	4344
911.489	4303
911.604	4276
911.718	4124
911.833	4185
911.947	4074
912.062	4040
912.176	4215
912.291	4207
912.405	4238
912.519	4466
912.633	4569
912.748	4383
912.862	4257
912.976	4261
913.09	4093
913.204	4185
913.318	4196
913.431	4341
913.545	4367
913.659	4424
913.772	4363
913.886	4253
914	4230
914.113	4383
914.226	4481
914.34	4360
914.453	4284
914.566	4432
914.68	4306
914.793	4295
914.906	4154
915.019	4082
915.132	4074
915.245	4150
915.358	4204
915.47	4173
915.583	4280
915.696	4268
915.809	4428
915.921	4394
916.034	4295
916.146	4265
916.259	4249
916.371	4348
916.483	4356
916.595	4280
916.708	4322
916.82	4314
916.932	4329
917.044	4314
917.156	4325
917.268	4249
917.38	4280
917.491	4268
917.603	4360
917.715	4440
917.826	4443
917.938	4367
918.049	4261
918.161	4386
918.272	4500
918.384	4508
918.495	4436
918.606	4341
918.717	4166
918.828	4325
918.939	4329
919.05	4257
919.161	4337
919.272	4120
919.383	4261
919.494	4474
919.604	4641
919.715	4443
919.826	4375
919.936	4383
920.047	4542
920.157	4512
920.267	4710
920.378	4535
920.488	4478
920.598	4752
920.708	4908
920.818	4793
920.928	4778
921.038	4927
921.148	4949
921.258	4649
921.368	4580
921.477	4504
921.587	4421
921.697	4386
921.806	4584
921.916	4398
922.025	4276
922.134	4253
922.244	4204
922.353	4348
922.462	4162
922.571	4147
922.68	4032
922.789	3960
922.898	3998
923.007	3998
923.116	4109
923.224	4082
923.333	4086
923.442	3994
923.55	3983
923.659	4006
923.767	4116
923.876	4002
923.984	4112
924.092	4017
924.201	4029
924.309	4082
924.417	4063
924.525	4086
924.633	4139
924.741	5025
924.849	3956
924.956	4158
925.064	3979
925.172	3903
925.279	3934
925.387	4025
925.494	4029
925.602	4188
925.709	4173
925.816	4025
925.924	4124
926.031	4246
926.138	4166
926.245	4207
926.352	4067
926.459	4200
926.566	4314
926.673	4120
926.779	4044
926.886	4074
926.993	3994
927.099	4017
927.206	3930
927.312	3937
927.419	4059
927.525	4044
927.631	4067
927.737	3949
927.843	3956
927.95	3823
928.056	3926
928.162	3972
928.267	4063
928.373	4641
928.479	4124
928.585	3869
928.69	4017
928.796	4071
928.901	3975
929.007	3876
929.112	3979
929.218	3968
929.323	3975
929.428	3987
929.533	4090
929.638	3918
929.743	3930
929.848	4044
929.953	3968
930.058	3949
930.163	3808
930.267	3823
930.372	3937
930.477	3838
930.581	4051
930.685	3953
930.79	3819
930.894	3854
930.998	3823
931.103	4006
931.207	3675
931.311	3709
931.415	3629
931.519	3511
931.623	3564
