Data from test_V78500241_288.txt Node
Date: Fri Mar 25 16:51:00 CST 2022
User: usil
Spectrometer: V785-0024
Trigger mode: 0
Integration Time (sec): 4.000000E-1
Scans to average: 1
Nonlinearity correction enabled: false
Boxcar width: 0
Storing dark spectrum: false
XAxis mode: Wavelengths
Number of Pixels in Spectrum: 1024
>>>>>Begin Spectral Data<<<<<
801.071	8107
801.214	8050
801.356	7894
801.499	7932
801.641	7814
801.783	7849
801.926	7967
802.068	7993
802.211	8016
802.353	7997
802.496	7902
802.638	7978
802.78	7944
802.923	7986
803.065	7849
803.208	7898
803.35	7925
803.492	8031
803.635	8046
803.777	8046
803.919	8187
804.061	8450
804.204	8202
804.346	8084
804.488	7879
804.63	8149
804.773	8005
804.915	8054
805.057	8267
805.199	8126
805.341	8138
805.483	8195
805.626	8123
805.768	8077
805.91	8130
806.052	8172
806.194	8096
806.336	8366
806.478	8142
806.62	8027
806.762	8153
806.904	8267
807.046	8484
807.188	8343
807.33	8263
807.472	8347
807.614	8077
807.756	8138
807.898	7951
808.04	7887
808.182	7921
808.324	7951
808.465	7947
808.607	8088
808.749	8149
808.891	8244
809.033	8271
809.174	8172
809.316	8020
809.458	7997
809.6	7906
809.741	8035
809.883	8077
810.025	8046
810.166	8050
810.308	8077
810.45	8069
810.591	7875
810.733	7799
810.875	7715
811.016	7525
811.158	7533
811.299	7696
811.441	7776
811.582	7651
811.724	7548
811.865	7563
812.007	7605
812.148	7594
812.29	7689
812.431	7811
812.573	7864
812.714	7955
812.855	8149
812.997	8210
813.138	8256
813.279	8172
813.421	8145
813.562	7993
813.703	7875
813.845	7807
813.986	7415
814.127	7259
814.268	7244
814.41	7228
814.551	7175
814.692	7209
814.833	7080
814.974	7156
815.115	7152
815.256	6989
815.397	6920
815.539	6939
815.68	6795
815.821	6818
815.962	6901
816.103	6818
816.244	6730
816.385	6692
816.526	6669
816.666	6528
816.807	6338
816.948	6407
817.089	6502
817.23	6448
817.371	6372
817.512	6376
817.653	6346
817.793	6315
817.934	6384
818.075	6483
818.216	6429
818.356	6410
818.497	6235
818.638	6133
818.778	6144
818.919	6110
819.06	6125
819.2	6308
819.341	6289
819.481	6361
819.622	6532
819.762	6719
819.903	6658
820.043	6601
820.184	6593
820.324	6506
820.465	6631
820.605	6658
820.746	6616
820.886	6460
821.026	6623
821.167	6726
821.307	6844
821.447	6779
821.588	6639
821.728	6616
821.868	6521
822.008	6346
822.149	6407
822.289	6346
822.429	6175
822.569	6102
822.709	6095
822.849	6003
822.99	5889
823.13	5908
823.27	5920
823.41	5794
823.55	5805
823.69	5794
823.83	5771
823.97	5676
824.11	5528
824.25	5543
824.389	5532
824.529	5547
824.669	5551
824.809	5684
824.949	5604
825.089	5562
825.228	5554
825.368	5425
825.508	5364
825.648	5341
825.787	5391
825.927	5402
826.067	5326
826.206	5246
826.346	5433
826.485	5429
826.625	5436
826.765	5570
826.904	5509
827.044	5220
827.183	5204
827.323	5121
827.462	5269
827.601	5147
827.741	5292
827.88	5258
828.02	5079
828.159	5235
828.298	5277
828.437	5353
828.577	5299
828.716	5474
828.855	5326
828.994	5181
829.134	5155
829.273	5197
829.412	5197
829.551	5105
829.69	5151
829.829	5265
829.968	5383
830.107	5303
830.246	5315
830.385	5216
830.524	5132
830.663	5052
830.802	4968
830.941	4915
831.08	4942
831.219	4987
831.357	4995
831.496	5178
831.635	4968
831.774	4873
831.913	4889
832.051	4767
832.19	4782
832.329	4790
832.467	4702
832.606	4683
832.744	4653
832.883	4691
833.022	4717
833.16	4809
833.299	4831
833.437	4843
833.576	4820
833.714	4847
833.852	4858
833.991	4881
834.129	4987
834.267	4976
834.406	4915
834.544	5045
834.682	5010
834.821	4991
834.959	5147
835.097	4968
835.235	5147
835.373	5105
835.511	5041
835.65	5022
835.788	4965
835.926	4911
836.064	4850
836.202	4953
836.34	5159
836.478	5227
836.615	5140
836.753	5227
836.891	5277
837.029	5288
837.167	5239
837.305	5197
837.443	5143
837.58	5132
837.718	5258
837.856	5159
837.993	5124
838.131	5201
838.269	5239
838.406	5189
838.544	5246
838.681	5067
838.819	5033
838.956	4896
839.094	4900
839.231	4957
839.369	5105
839.506	5368
839.643	5311
839.781	5071
839.918	5025
840.055	5147
840.193	5140
840.33	5113
840.467	5140
840.604	5181
840.742	5478
840.879	5067
841.016	5083
841.153	5159
841.29	5349
841.427	5368
841.564	5322
841.701	5349
841.838	5277
841.975	5204
842.112	5277
842.249	5166
842.385	5128
842.522	5341
842.659	5140
842.796	5132
842.933	5170
843.069	5181
843.206	5136
843.343	5288
843.479	5258
843.616	5246
843.752	5006
843.889	4999
844.025	5235
844.162	4995
844.298	5197
844.435	5090
844.571	5071
844.708	5181
844.844	5258
844.98	5341
845.117	5235
845.253	5147
845.389	5056
845.525	5204
845.661	5102
845.798	5025
845.934	5124
846.07	5067
846.206	5204
846.342	5315
846.478	5162
846.614	5010
846.75	4972
846.886	4961
847.022	5185
847.158	4991
847.294	5022
847.429	5102
847.565	5086
847.701	5296
847.837	4839
847.972	4824
848.108	4972
848.244	4942
848.379	4797
848.515	4698
848.65	4759
848.786	4835
848.921	4778
849.057	4850
849.192	4930
849.328	4824
849.463	4858
849.598	4816
849.734	4763
849.869	4641
850.004	4630
850.14	4653
850.275	4622
850.41	4561
850.545	4611
850.68	4599
850.815	4634
850.95	4634
851.085	4873
851.22	4755
851.355	4664
851.49	4641
851.625	4683
851.76	4634
851.895	4558
852.03	4558
852.165	4641
852.299	4752
852.434	4774
852.569	4725
852.703	4805
852.838	4858
852.973	4923
853.107	4930
853.242	4786
853.376	4725
853.511	4497
853.645	4584
853.78	4816
853.914	4683
854.048	4668
854.183	4618
854.317	4691
854.451	4881
854.585	4675
854.72	4599
854.854	4774
854.988	4584
855.122	4653
855.256	4546
855.39	4736
855.524	4752
855.658	4744
855.792	4710
855.926	4717
856.06	4755
856.194	4801
856.327	4687
856.461	4611
856.595	4672
856.729	4653
856.862	4744
856.996	4733
857.13	4740
857.263	4763
857.397	4805
857.53	4626
857.664	4771
857.797	4725
857.931	4793
858.064	4698
858.197	4717
858.331	4702
858.464	4615
858.597	4546
858.731	4618
858.864	4649
858.997	4618
859.13	4637
859.263	4702
859.396	4694
859.529	4592
859.662	4588
859.795	4516
859.928	4626
860.061	4828
860.194	4786
860.327	4683
860.46	4584
860.592	4740
860.725	4721
860.858	4691
860.99	4523
861.123	4512
861.256	4531
861.388	4573
861.521	5330
861.653	4478
861.786	4451
861.918	4436
862.05	4481
862.183	4561
862.315	4580
862.447	4687
862.58	4588
862.712	4436
862.844	4360
862.976	4535
863.108	4436
863.24	4919
863.372	4337
863.504	4436
863.636	4413
863.768	4485
863.9	4443
864.032	4417
864.164	4394
864.296	4485
864.428	4554
864.559	4558
864.691	4527
864.823	4550
864.954	4481
865.086	4455
865.217	4459
865.349	4436
865.48	4481
865.612	4493
865.743	4634
865.875	4462
866.006	4432
866.137	4470
866.269	4455
866.4	4459
866.531	4447
866.662	4455
866.793	4390
866.924	4428
867.055	4489
867.186	4485
867.317	4443
867.448	4375
867.579	4356
867.71	4394
867.841	4314
867.972	4489
868.103	4443
868.233	4481
868.364	4447
868.495	4485
868.625	4683
868.756	4675
868.886	4607
869.017	4607
869.147	4805
869.278	4748
869.408	4710
869.539	4634
869.669	4717
869.799	4717
869.929	4778
870.06	4698
870.19	4949
870.32	4900
870.45	4976
870.58	4995
870.71	5083
870.84	5143
870.97	4961
871.1	4927
871.23	5132
871.36	5109
871.489	5025
871.619	5102
871.749	5075
871.879	5143
872.008	5178
872.138	5086
872.267	4961
872.397	4801
872.526	4847
872.656	4748
872.785	4816
872.915	4961
873.044	5048
873.173	4984
873.303	4927
873.432	4942
873.561	4915
873.69	4885
873.819	4862
873.948	4953
874.077	4824
874.206	4767
874.335	4854
874.464	4904
874.593	4999
874.722	4961
874.851	5121
874.979	5052
875.108	5067
875.237	4915
875.365	4881
875.494	4896
875.623	4972
875.751	4828
875.88	4877
876.008	4946
876.136	5045
876.265	5170
876.393	5349
876.521	5223
876.65	5231
876.778	5071
876.906	5048
877.034	5052
877.162	5067
877.29	4980
877.418	5071
877.546	5048
877.674	5006
877.802	5067
877.93	5033
878.058	4942
878.185	4896
878.313	4938
878.441	4923
878.568	4839
878.696	4843
878.824	4919
878.951	5033
879.079	5162
879.206	5284
879.333	5067
879.461	4984
879.588	5029
879.715	5113
879.842	5189
879.97	5010
880.097	4797
880.224	4771
880.351	4839
880.478	4831
880.605	4801
880.732	4774
880.859	5086
880.986	4923
881.112	4923
881.239	4866
881.366	4702
881.493	4615
881.619	4622
881.746	4653
881.872	4668
881.999	4626
882.125	4706
882.252	4843
882.378	4805
882.505	4930
882.631	4820
882.757	4714
882.883	4736
883.01	4721
883.136	4698
883.262	4580
883.388	4653
883.514	4835
883.64	4904
883.766	4816
883.892	4645
884.018	4759
884.143	4877
884.269	5033
884.395	4675
884.52	4672
884.646	4702
884.772	4607
884.897	4554
885.023	4683
885.148	4805
885.274	4892
885.399	4797
885.524	4710
885.65	4683
885.775	4748
885.9	4687
886.025	4858
886.15	4801
886.275	4702
886.4	4668
886.525	4736
886.65	4698
886.775	4630
886.9	4930
887.025	5060
887.149	4778
887.274	4675
887.399	4584
887.523	4577
887.648	4607
887.773	4554
887.897	4778
888.021	4797
888.146	4729
888.27	4850
888.395	4934
888.519	4885
888.643	4828
888.767	4889
888.891	4687
889.015	4653
889.139	4626
889.263	4599
889.387	4767
889.511	4847
889.635	4793
889.759	4668
889.883	4702
890.006	4710
890.13	4850
890.254	4626
890.377	4694
890.501	4565
890.624	4535
890.748	4672
890.871	4516
890.995	4455
891.118	4390
891.241	4535
891.364	4558
891.488	4653
891.611	4493
891.734	4554
891.857	4653
891.98	4561
892.103	4660
892.226	4546
892.349	4558
892.471	4424
892.594	4569
892.717	4664
892.839	4558
892.962	4592
893.085	4656
893.207	4596
893.33	4447
893.452	4569
893.575	4721
893.697	4580
893.819	4778
893.941	4824
894.064	4744
894.186	4592
894.308	4561
894.43	4672
894.552	4820
894.674	4801
894.796	4580
894.918	4603
895.04	4558
895.161	4672
895.283	4691
895.405	4596
895.526	4664
895.648	4710
895.769	4691
895.891	4714
896.012	4790
896.134	4702
896.255	4710
896.376	4630
896.498	4649
896.619	4675
896.74	4645
896.861	4668
896.982	4911
897.103	5029
897.224	4862
897.345	4759
897.466	4679
897.587	4740
897.708	4873
897.828	4797
897.949	4714
898.07	4531
898.19	4683
898.311	4847
898.431	4729
898.552	4698
898.672	4850
898.792	4828
898.913	4755
899.033	4653
899.153	4512
899.273	4466
899.393	4470
899.513	4504
899.633	4542
899.753	4569
899.873	4500
899.993	4561
900.113	4489
900.232	4615
900.352	4523
900.472	4512
900.591	4379
900.711	4459
900.83	4474
900.95	4634
901.069	4714
901.189	4531
901.308	4367
901.427	4367
901.546	4413
901.665	4470
901.784	4516
901.904	4432
902.023	4291
902.141	4173
902.26	4177
902.379	4318
902.498	4249
902.617	4223
902.735	4360
902.854	4428
902.973	4390
903.091	4188
903.21	4234
903.328	4287
903.446	4303
903.565	4268
903.683	4398
903.801	4280
903.919	4443
904.038	4428
904.156	4306
904.274	4436
904.392	4405
904.51	4405
904.627	4455
904.745	4580
904.863	4622
904.981	4386
905.098	4310
905.216	4360
905.334	4413
905.451	4398
905.569	4485
905.686	4577
905.803	4580
905.921	4409
906.038	4546
906.155	4478
906.272	4421
906.389	4485
906.506	4379
906.623	4421
906.74	4356
906.857	4295
906.974	4417
907.091	4637
907.208	4660
907.324	4561
907.441	4409
907.557	4379
907.674	4375
907.79	4318
907.907	4375
908.023	4455
908.139	4478
908.256	4417
908.372	4409
908.488	4440
908.604	4325
908.72	4306
908.836	4375
908.952	4386
909.068	4451
909.184	4577
909.3	4478
909.415	4565
909.531	4584
909.647	4398
909.762	4417
909.878	4356
909.993	4443
910.108	4405
910.224	4394
910.339	4516
910.454	4409
910.57	4333
910.685	4337
910.8	4679
910.915	4554
911.03	4462
911.145	4383
911.259	4314
911.374	4386
911.489	4265
911.604	4272
911.718	4200
911.833	4185
911.947	4105
912.062	4051
912.176	4219
912.291	4261
912.405	4265
912.519	4459
912.633	4489
912.748	4375
912.862	4333
912.976	4211
913.09	4143
913.204	4162
913.318	4253
913.431	4344
913.545	4356
913.659	4462
913.772	4375
913.886	4234
914	4223
914.113	4402
914.226	4428
914.34	4390
914.453	4261
914.566	4398
914.68	4360
914.793	4310
914.906	4158
915.019	4154
915.132	4086
915.245	4169
915.358	4196
915.47	4246
915.583	4249
915.696	4284
915.809	4443
915.921	4390
916.034	4284
916.146	4268
916.259	4219
916.371	4402
916.483	4409
916.595	4242
916.708	4333
916.82	4356
916.932	4325
917.044	4341
917.156	4325
917.268	4261
917.38	4306
917.491	4291
917.603	4375
917.715	4390
917.826	4436
917.938	4367
918.049	4246
918.161	4379
918.272	4577
918.384	4542
918.495	4424
918.606	4344
918.717	4272
918.828	4371
918.939	4322
919.05	4249
919.161	4337
919.272	4162
919.383	4234
919.494	4432
919.604	4668
919.715	4470
919.826	4363
919.936	4371
920.047	4504
920.157	4500
920.267	4714
920.378	4546
920.488	4538
920.598	4687
920.708	4911
920.818	4771
920.928	4793
921.038	4923
921.148	4904
921.258	4641
921.368	4542
921.477	4523
921.587	4489
921.697	4367
921.806	4558
921.916	4451
922.025	4276
922.134	4257
922.244	4200
922.353	4318
922.462	4219
922.571	4173
922.68	4006
922.789	3983
922.898	4051
923.007	4021
923.116	4116
923.224	4063
923.333	4093
923.442	3983
923.55	3960
923.659	4078
923.767	4124
923.876	4051
923.984	4116
924.092	3964
924.201	4055
924.309	4086
924.417	4158
924.525	4082
924.633	4135
924.741	5064
924.849	3911
924.956	4105
925.064	3915
925.172	3903
925.279	3949
925.387	4067
925.494	4109
925.602	4200
925.709	4223
925.816	4059
925.924	4135
926.031	4219
926.138	4200
926.245	4211
926.352	4090
926.459	4246
926.566	4314
926.673	4166
926.779	4093
926.886	4082
926.993	3972
927.099	3972
927.206	3953
927.312	3941
927.419	4040
927.525	4006
927.631	4112
927.737	3960
927.843	3953
927.95	3842
928.056	3964
928.162	3956
928.267	4048
928.373	4736
928.479	4120
928.585	3880
928.69	4017
928.796	4124
928.901	3937
929.007	3846
929.112	3994
929.218	3987
929.323	3892
929.428	3953
929.533	4131
929.638	3934
929.743	3979
929.848	4013
929.953	3979
930.058	3941
930.163	3800
930.267	3785
930.372	3972
930.477	3819
930.581	4082
930.685	3937
930.79	3823
930.894	3835
930.998	3873
931.103	4055
931.207	3717
931.311	3717
931.415	3637
931.519	3515
931.623	3557
