Data from test_V78500241_2173.txt Node
Date: Fri Mar 25 17:04:06 CST 2022
User: usil
Spectrometer: V785-0024
Trigger mode: 0
Integration Time (sec): 4.000000E-1
Scans to average: 1
Nonlinearity correction enabled: false
Boxcar width: 0
Storing dark spectrum: false
XAxis mode: Wavelengths
Number of Pixels in Spectrum: 1024
>>>>>Begin Spectral Data<<<<<
801.071	8081
801.214	8065
801.356	7898
801.499	7841
801.641	7837
801.783	7883
801.926	8016
802.068	7974
802.211	8043
802.353	8008
802.496	7909
802.638	7890
802.78	7887
802.923	7917
803.065	7898
803.208	7921
803.35	7978
803.492	8062
803.635	8233
803.777	8100
803.919	8168
804.061	8454
804.204	8191
804.346	8096
804.488	8039
804.63	8157
804.773	8008
804.915	8145
805.057	8313
805.199	8210
805.341	8248
805.483	8233
805.626	8237
805.768	8134
805.91	8256
806.052	8252
806.194	8180
806.336	8294
806.478	8157
806.62	8172
806.762	8157
806.904	8256
807.046	8568
807.188	8442
807.33	8305
807.472	8339
807.614	8256
807.756	8176
807.898	7944
808.04	7849
808.182	7936
808.324	7921
808.465	7909
808.607	8111
808.749	8164
808.891	8313
809.033	8377
809.174	8248
809.316	8115
809.458	8138
809.6	8046
809.741	8050
809.883	8012
810.025	8149
810.166	8142
810.308	8039
810.45	8001
810.591	7871
810.733	7674
810.875	7670
811.016	7533
811.158	7468
811.299	7578
811.441	7700
811.582	7666
811.724	7594
811.865	7563
812.007	7559
812.148	7647
812.29	7689
812.431	7746
812.573	7932
812.714	8024
812.855	8176
812.997	8199
813.138	8279
813.279	8126
813.421	8111
813.562	7982
813.703	7864
813.845	7712
813.986	7453
814.127	7285
814.268	7297
814.41	7228
814.551	7221
814.692	7293
814.833	7110
814.974	7137
815.115	7091
815.256	7046
815.397	6954
815.539	6935
815.68	6787
815.821	6772
815.962	6890
816.103	6833
816.244	6810
816.385	6585
816.526	6593
816.666	6509
816.807	6334
816.948	6506
817.089	6452
817.23	6483
817.371	6414
817.512	6479
817.653	6384
817.793	6384
817.934	6426
818.075	6509
818.216	6506
818.356	6498
818.497	6220
818.638	6079
818.778	6190
818.919	6178
819.06	6148
819.2	6365
819.341	6372
819.481	6399
819.622	6566
819.762	6719
819.903	6700
820.043	6601
820.184	6612
820.324	6612
820.465	6700
820.605	6692
820.746	6665
820.886	6540
821.026	6677
821.167	6711
821.307	6837
821.447	6837
821.588	6673
821.728	6639
821.868	6486
822.008	6319
822.149	6426
822.289	6334
822.429	6178
822.569	6155
822.709	6155
822.849	5961
822.99	5927
823.13	5942
823.27	5958
823.41	5802
823.55	5813
823.69	5821
823.83	5847
823.97	5707
824.11	5592
824.25	5570
824.389	5573
824.529	5600
824.669	5630
824.809	5684
824.949	5680
825.089	5615
825.228	5554
825.368	5421
825.508	5383
825.648	5341
825.787	5387
825.927	5357
826.067	5303
826.206	5292
826.346	5372
826.485	5414
826.625	5448
826.765	5558
826.904	5497
827.044	5326
827.183	5208
827.323	5124
827.462	5239
827.601	5185
827.741	5208
827.88	5242
828.02	5109
828.159	5250
828.298	5345
828.437	5360
828.577	5296
828.716	5551
828.855	5364
828.994	5212
829.134	5140
829.273	5181
829.412	5197
829.551	5170
829.69	5197
829.829	5261
829.968	5433
830.107	5315
830.246	5360
830.385	5208
830.524	5185
830.663	5067
830.802	5014
830.941	4885
831.08	4862
831.219	4965
831.357	4984
831.496	5212
831.635	4915
831.774	4881
831.913	4870
832.051	4782
832.19	4797
832.329	4831
832.467	4683
832.606	4634
832.744	4714
832.883	4717
833.022	4729
833.16	4801
833.299	4824
833.437	4900
833.576	4858
833.714	4889
833.852	4885
833.991	4908
834.129	4961
834.267	4965
834.406	4873
834.544	4984
834.682	4946
834.821	4927
834.959	5193
835.097	5033
835.235	5151
835.373	5075
835.511	5140
835.65	5045
835.788	5033
835.926	4892
836.064	4877
836.202	4942
836.34	5223
836.478	5231
836.615	5124
836.753	5258
836.891	5315
837.029	5284
837.167	5189
837.305	5166
837.443	5185
837.58	5147
837.718	5227
837.856	5197
837.993	5201
838.131	5223
838.269	5239
838.406	5166
838.544	5208
838.681	5098
838.819	4995
838.956	4915
839.094	4900
839.231	4980
839.369	5041
839.506	5452
839.643	5311
839.781	5128
839.918	5067
840.055	5060
840.193	5128
840.33	5151
840.467	5193
840.604	5204
840.742	5486
840.879	5132
841.016	5090
841.153	5113
841.29	5372
841.427	5330
841.564	5326
841.701	5410
841.838	5341
841.975	5280
842.112	5269
842.249	5140
842.385	5064
842.522	5357
842.659	5204
842.796	5174
842.933	5181
843.069	5140
843.206	5174
843.343	5322
843.479	5220
843.616	5334
843.752	5014
843.889	5025
844.025	5223
844.162	5003
844.298	5208
844.435	5117
844.571	5071
844.708	5220
844.844	5357
844.98	5337
845.117	5273
845.253	5105
845.389	5048
845.525	5155
845.661	5117
845.798	5025
845.934	5132
846.07	5052
846.206	5201
846.342	5322
846.478	5204
846.614	5067
846.75	4987
846.886	4908
847.022	5162
847.158	5029
847.294	5083
847.429	5128
847.565	5045
847.701	5318
847.837	4900
847.972	4820
848.108	4972
848.244	4938
848.379	4774
848.515	4672
848.65	4714
848.786	4736
848.921	4778
849.057	4881
849.192	4911
849.328	4812
849.463	4835
849.598	4793
849.734	4828
849.869	4675
850.004	4668
850.14	4698
850.275	4641
850.41	4558
850.545	4630
850.68	4596
850.815	4596
850.95	4596
851.085	4801
851.22	4725
851.355	4656
851.49	4675
851.625	4660
851.76	4618
851.895	4599
852.03	4531
852.165	4641
852.299	4729
852.434	4782
852.569	4748
852.703	4755
852.838	4835
852.973	4980
853.107	4854
853.242	4729
853.376	4672
853.511	4569
853.645	4607
853.78	4824
853.914	4687
854.048	4694
854.183	4626
854.317	4710
854.451	4877
854.585	4748
854.72	4675
854.854	4740
854.988	4615
855.122	4653
855.256	4531
855.39	4717
855.524	4782
855.658	4733
855.792	4702
855.926	4698
856.06	4809
856.194	4816
856.327	4668
856.461	4645
856.595	4584
856.729	4634
856.862	4763
856.996	4691
857.13	4805
857.263	4774
857.397	4793
857.53	4664
857.664	4653
857.797	4778
857.931	4797
858.064	4698
858.197	4736
858.331	4683
858.464	4577
858.597	4508
858.731	4618
858.864	4668
858.997	4607
859.13	4672
859.263	4675
859.396	4725
859.529	4546
859.662	4599
859.795	4538
859.928	4618
860.061	4793
860.194	4702
860.327	4569
860.46	4519
860.592	4733
860.725	4717
860.858	4683
860.99	4554
861.123	4516
861.256	4485
861.388	4618
861.521	5425
861.653	4481
861.786	4405
861.918	4478
862.05	4550
862.183	4580
862.315	4588
862.447	4683
862.58	4558
862.712	4405
862.844	4348
862.976	4436
863.108	4432
863.24	4736
863.372	4306
863.504	4417
863.636	4428
863.768	4474
863.9	4405
864.032	4356
864.164	4394
864.296	4485
864.428	4523
864.559	4626
864.691	4550
864.823	4542
864.954	4516
865.086	4497
865.217	4470
865.349	4424
865.48	4428
865.612	4481
865.743	4634
865.875	4428
866.006	4474
866.137	4466
866.269	4443
866.4	4489
866.531	4451
866.662	4424
866.793	4432
866.924	4436
867.055	4481
867.186	4478
867.317	4421
867.448	4375
867.579	4363
867.71	4367
867.841	4363
867.972	4455
868.103	4489
868.233	4436
868.364	4451
868.495	4436
868.625	4714
868.756	4786
868.886	4615
869.017	4573
869.147	4774
869.278	4721
869.408	4637
869.539	4683
869.669	4698
869.799	4649
869.929	4793
870.06	4710
870.19	4976
870.32	4927
870.45	4858
870.58	5033
870.71	5124
870.84	5102
870.97	4927
871.1	4930
871.23	5109
871.36	5064
871.489	4999
871.619	5121
871.749	5117
871.879	5147
872.008	5162
872.138	5064
872.267	5025
872.397	4881
872.526	4843
872.656	4729
872.785	4786
872.915	4953
873.044	5022
873.173	4968
873.303	4968
873.432	4980
873.561	4976
873.69	4835
873.819	4866
873.948	4961
874.077	4850
874.206	4778
874.335	4831
874.464	4915
874.593	5071
874.722	4965
874.851	5105
874.979	5064
875.108	5045
875.237	4919
875.365	4904
875.494	4930
875.623	4953
875.751	4805
875.88	4881
876.008	5006
876.136	5029
876.265	5208
876.393	5395
876.521	5296
876.65	5223
876.778	5181
876.906	5098
877.034	4991
877.162	5037
877.29	5018
877.418	5045
877.546	5086
877.674	5113
877.802	5067
877.93	5029
878.058	4923
878.185	4866
878.313	4923
878.441	4965
878.568	4774
878.696	4862
878.824	4984
878.951	5041
879.079	5140
879.206	5269
879.333	5067
879.461	4980
879.588	4995
879.715	5132
879.842	5223
879.97	5010
880.097	4809
880.224	4763
880.351	4786
880.478	4786
880.605	4786
880.732	4778
880.859	5102
880.986	4877
881.112	4892
881.239	4778
881.366	4691
881.493	4615
881.619	4577
881.746	4622
881.872	4641
881.999	4634
882.125	4672
882.252	4763
882.378	4820
882.505	4942
882.631	4782
882.757	4675
882.883	4687
883.01	4752
883.136	4683
883.262	4584
883.388	4653
883.514	4870
883.64	4866
883.766	4828
883.892	4649
884.018	4755
884.143	4854
884.269	5052
884.395	4710
884.52	4626
884.646	4683
884.772	4554
884.897	4565
885.023	4668
885.148	4748
885.274	4843
885.399	4805
885.524	4717
885.65	4698
885.775	4755
885.9	4748
886.025	4896
886.15	4755
886.275	4698
886.4	4687
886.525	4725
886.65	4664
886.775	4714
886.9	4896
887.025	5010
887.149	4835
887.274	4664
887.399	4592
887.523	4592
887.648	4637
887.773	4634
887.897	4717
888.021	4763
888.146	4710
888.27	4752
888.395	4896
888.519	4793
888.643	4839
888.767	4812
888.891	4668
889.015	4618
889.139	4664
889.263	4573
889.387	4740
889.511	4828
889.635	4793
889.759	4679
889.883	4634
890.006	4706
890.13	4866
890.254	4626
890.377	4683
890.501	4554
890.624	4542
890.748	4634
890.871	4504
890.995	4424
891.118	4379
891.241	4546
891.364	4531
891.488	4664
891.611	4516
891.734	4546
891.857	4607
891.98	4580
892.103	4626
892.226	4561
892.349	4527
892.471	4432
892.594	4527
892.717	4588
892.839	4573
892.962	4626
893.085	4656
893.207	4645
893.33	4478
893.452	4504
893.575	4653
893.697	4580
893.819	4847
893.941	4854
894.064	4778
894.186	4550
894.308	4489
894.43	4714
894.552	4820
894.674	4733
894.796	4588
894.918	4626
895.04	4577
895.161	4736
895.283	4694
895.405	4554
895.526	4645
895.648	4626
895.769	4664
895.891	4679
896.012	4687
896.134	4729
896.255	4687
896.376	4626
896.498	4611
896.619	4698
896.74	4588
896.861	4615
896.982	4866
897.103	5029
897.224	4835
897.345	4771
897.466	4653
897.587	4736
897.708	4858
897.828	4725
897.949	4634
898.07	4584
898.19	4588
898.311	4801
898.431	4641
898.552	4755
898.672	4828
898.792	4801
898.913	4733
899.033	4611
899.153	4504
899.273	4417
899.393	4531
899.513	4554
899.633	4527
899.753	4485
899.873	4481
899.993	4577
900.113	4577
900.232	4569
900.352	4569
900.472	4504
900.591	4462
900.711	4504
900.83	4417
900.95	4611
901.069	4683
901.189	4531
901.308	4352
901.427	4314
901.546	4394
901.665	4443
901.784	4489
901.904	4363
902.023	4322
902.141	4147
902.26	4135
902.379	4322
902.498	4219
902.617	4268
902.735	4333
902.854	4352
902.973	4291
903.091	4257
903.21	4196
903.328	4299
903.446	4253
903.565	4253
903.683	4341
903.801	4238
903.919	4379
904.038	4428
904.156	4299
904.274	4417
904.392	4386
904.51	4421
904.627	4455
904.745	4580
904.863	4645
904.981	4424
905.098	4295
905.216	4314
905.334	4405
905.451	4436
905.569	4398
905.686	4538
905.803	4592
905.921	4424
906.038	4561
906.155	4481
906.272	4398
906.389	4459
906.506	4360
906.623	4383
906.74	4413
906.857	4299
906.974	4322
907.091	4596
907.208	4660
907.324	4596
907.441	4516
907.557	4314
907.674	4310
907.79	4318
907.907	4390
908.023	4462
908.139	4497
908.256	4413
908.372	4455
908.488	4500
908.604	4375
908.72	4371
908.836	4402
908.952	4386
909.068	4390
909.184	4535
909.3	4462
909.415	4546
909.531	4573
909.647	4413
909.762	4341
909.878	4295
909.993	4447
910.108	4405
910.224	4455
910.339	4459
910.454	4367
910.57	4348
910.685	4291
910.8	4679
910.915	4637
911.03	4474
911.145	4325
911.259	4325
911.374	4329
911.489	4280
911.604	4295
911.718	4188
911.833	4169
911.947	4109
912.062	4040
912.176	4253
912.291	4246
912.405	4219
912.519	4405
912.633	4550
912.748	4379
912.862	4325
912.976	4242
913.09	4093
913.204	4200
913.318	4230
913.431	4363
913.545	4363
913.659	4390
913.772	4386
913.886	4276
914	4265
914.113	4394
914.226	4436
914.34	4356
914.453	4219
914.566	4440
914.68	4287
914.793	4325
914.906	4173
915.019	4139
915.132	4090
915.245	4207
915.358	4207
915.47	4200
915.583	4246
915.696	4303
915.809	4436
915.921	4440
916.034	4249
916.146	4219
916.259	4196
916.371	4344
916.483	4390
916.595	4303
916.708	4284
916.82	4333
916.932	4303
917.044	4329
917.156	4265
917.268	4219
917.38	4310
917.491	4234
917.603	4322
917.715	4405
917.826	4390
917.938	4325
918.049	4219
918.161	4409
918.272	4489
918.384	4546
918.495	4447
918.606	4367
918.717	4230
918.828	4344
918.939	4344
919.05	4268
919.161	4268
919.272	4128
919.383	4223
919.494	4455
919.604	4611
919.715	4462
919.826	4344
919.936	4413
920.047	4561
920.157	4485
920.267	4736
920.378	4546
920.488	4478
920.598	4714
920.708	4835
920.818	4759
920.928	4748
921.038	4949
921.148	4900
921.258	4618
921.368	4519
921.477	4478
921.587	4462
921.697	4394
921.806	4527
921.916	4459
922.025	4306
922.134	4276
922.244	4185
922.353	4322
922.462	4135
922.571	4150
922.68	4017
922.789	3968
922.898	4010
923.007	4010
923.116	4074
923.224	4063
923.333	4040
923.442	3979
923.55	4029
923.659	4013
923.767	4082
923.876	4017
923.984	4124
924.092	3956
924.201	4101
924.309	4078
924.417	4097
924.525	4071
924.633	4086
924.741	5037
924.849	3945
924.956	4124
925.064	3949
925.172	3884
925.279	3922
925.387	4048
925.494	4032
925.602	4192
925.709	4124
925.816	4021
925.924	4120
926.031	4211
926.138	4158
926.245	4181
926.352	4082
926.459	4246
926.566	4291
926.673	4158
926.779	4074
926.886	4082
926.993	3972
927.099	4002
927.206	3911
927.312	3934
927.419	4029
927.525	4017
927.631	4105
927.737	3960
927.843	3941
927.95	3865
928.056	3930
928.162	3953
928.267	4010
928.373	4664
928.479	4109
928.585	3869
928.69	4006
928.796	4017
928.901	3956
929.007	3835
929.112	4017
929.218	3953
929.323	3915
929.428	3899
929.533	4078
929.638	3922
929.743	3991
929.848	4032
929.953	3979
930.058	3937
930.163	3778
930.267	3850
930.372	3937
930.477	3835
930.581	4116
930.685	3934
930.79	3823
930.894	3892
930.998	3835
931.103	4032
931.207	3736
931.311	3671
931.415	3690
931.519	3542
931.623	3564
