Data from test_V78500241_2096.txt Node
Date: Fri Mar 25 17:03:34 CST 2022
User: usil
Spectrometer: V785-0024
Trigger mode: 0
Integration Time (sec): 4.000000E-1
Scans to average: 1
Nonlinearity correction enabled: false
Boxcar width: 0
Storing dark spectrum: false
XAxis mode: Wavelengths
Number of Pixels in Spectrum: 1024
>>>>>Begin Spectral Data<<<<<
801.071	7967
801.214	7997
801.356	7845
801.499	7818
801.641	7788
801.783	7803
801.926	7963
802.068	7959
802.211	7944
802.353	7997
802.496	7932
802.638	7860
802.78	7913
802.923	7883
803.065	7864
803.208	7845
803.35	7959
803.492	8020
803.635	8115
803.777	7982
803.919	8123
804.061	8419
804.204	8058
804.346	8043
804.488	7970
804.63	8081
804.773	8031
804.915	8130
805.057	8225
805.199	8119
805.341	8202
805.483	8202
805.626	8214
805.768	8043
805.91	8248
806.052	8259
806.194	8081
806.336	8332
806.478	8069
806.62	8073
806.762	8180
806.904	8286
807.046	8499
807.188	8385
807.33	8298
807.472	8290
807.614	8100
807.756	8202
807.898	8024
808.04	7860
808.182	7807
808.324	7860
808.465	7894
808.607	8100
808.749	8123
808.891	8252
809.033	8336
809.174	8252
809.316	8096
809.458	8138
809.6	8039
809.741	8043
809.883	8046
810.025	8062
810.166	8081
810.308	8031
810.45	7993
810.591	7860
810.733	7761
810.875	7609
811.016	7483
811.158	7460
811.299	7533
811.441	7727
811.582	7643
811.724	7613
811.865	7537
812.007	7575
812.148	7609
812.29	7582
812.431	7746
812.573	7841
812.714	7978
812.855	8115
812.997	8176
813.138	8275
813.279	8145
813.421	8073
813.562	7932
813.703	7852
813.845	7753
813.986	7411
814.127	7228
814.268	7228
814.41	7175
814.551	7099
814.692	7221
814.833	7088
814.974	7095
815.115	7091
815.256	6970
815.397	6905
815.539	6871
815.68	6768
815.821	6779
815.962	6859
816.103	6818
816.244	6711
816.385	6616
816.526	6551
816.666	6528
816.807	6311
816.948	6429
817.089	6426
817.23	6429
817.371	6372
817.512	6346
817.653	6357
817.793	6353
817.934	6414
818.075	6502
818.216	6369
818.356	6372
818.497	6194
818.638	6083
818.778	6144
818.919	6171
819.06	6125
819.2	6350
819.341	6376
819.481	6388
819.622	6460
819.762	6768
819.903	6688
820.043	6597
820.184	6547
820.324	6604
820.465	6692
820.605	6684
820.746	6681
820.886	6490
821.026	6658
821.167	6749
821.307	6829
821.447	6795
821.588	6703
821.728	6620
821.868	6471
822.008	6262
822.149	6369
822.289	6365
822.429	6106
822.569	6114
822.709	6064
822.849	5969
822.99	5916
823.13	5844
823.27	5908
823.41	5760
823.55	5764
823.69	5718
823.83	5775
823.97	5680
824.11	5573
824.25	5501
824.389	5535
824.529	5558
824.669	5524
824.809	5608
824.949	5623
825.089	5623
825.228	5573
825.368	5429
825.508	5318
825.648	5360
825.787	5452
825.927	5353
826.067	5277
826.206	5334
826.346	5395
826.485	5406
826.625	5444
826.765	5501
826.904	5482
827.044	5220
827.183	5162
827.323	5109
827.462	5197
827.601	5162
827.741	5189
827.88	5231
828.02	5113
828.159	5181
828.298	5292
828.437	5315
828.577	5239
828.716	5482
828.855	5353
828.994	5197
829.134	5117
829.273	5181
829.412	5132
829.551	5083
829.69	5109
829.829	5216
829.968	5383
830.107	5250
830.246	5269
830.385	5113
830.524	5117
830.663	5067
830.802	4946
830.941	4923
831.08	4843
831.219	4972
831.357	4980
831.496	5102
831.635	4900
831.774	4797
831.913	4877
832.051	4714
832.19	4740
832.329	4843
832.467	4683
832.606	4630
832.744	4748
832.883	4736
833.022	4630
833.16	4725
833.299	4797
833.437	4847
833.576	4854
833.714	4862
833.852	4881
833.991	4831
834.129	4946
834.267	4957
834.406	4908
834.544	5048
834.682	4999
834.821	4980
834.959	5197
835.097	5003
835.235	5113
835.373	5064
835.511	5071
835.65	5037
835.788	5029
835.926	4847
836.064	4828
836.202	4919
836.34	5151
836.478	5193
836.615	5041
836.753	5178
836.891	5269
837.029	5239
837.167	5227
837.305	5166
837.443	5117
837.58	5109
837.718	5318
837.856	5147
837.993	5151
838.131	5216
838.269	5201
838.406	5204
838.544	5204
838.681	5048
838.819	5022
838.956	4866
839.094	4934
839.231	4949
839.369	5083
839.506	5459
839.643	5250
839.781	5067
839.918	5003
840.055	5056
840.193	5094
840.33	5113
840.467	5090
840.604	5212
840.742	5406
840.879	5102
841.016	5117
841.153	5094
841.29	5387
841.427	5288
841.564	5307
841.701	5368
841.838	5273
841.975	5216
842.112	5220
842.249	5071
842.385	5109
842.522	5360
842.659	5239
842.796	5140
842.933	5147
843.069	5132
843.206	5155
843.343	5315
843.479	5204
843.616	5277
843.752	5022
843.889	4949
844.025	5178
844.162	4957
844.298	5231
844.435	5048
844.571	4991
844.708	5220
844.844	5349
844.98	5299
845.117	5284
845.253	5117
845.389	5140
845.525	5166
845.661	5105
845.798	5067
845.934	5124
846.07	5060
846.206	5162
846.342	5277
846.478	5159
846.614	4987
846.75	4930
846.886	4889
847.022	5113
847.158	4984
847.294	5079
847.429	5102
847.565	5033
847.701	5334
847.837	4831
847.972	4854
848.108	4938
848.244	4923
848.379	4736
848.515	4714
848.65	4721
848.786	4752
848.921	4763
849.057	4847
849.192	4877
849.328	4797
849.463	4854
849.598	4790
849.734	4767
849.869	4706
850.004	4618
850.14	4660
850.275	4649
850.41	4535
850.545	4542
850.68	4565
850.815	4626
850.95	4641
851.085	4870
851.22	4767
851.355	4694
851.49	4580
851.625	4653
851.76	4653
851.895	4558
852.03	4546
852.165	4656
852.299	4736
852.434	4774
852.569	4744
852.703	4763
852.838	4881
852.973	4938
853.107	4911
853.242	4744
853.376	4649
853.511	4569
853.645	4588
853.78	4771
853.914	4706
854.048	4702
854.183	4603
854.317	4626
854.451	4843
854.585	4641
854.72	4596
854.854	4694
854.988	4626
855.122	4653
855.256	4523
855.39	4679
855.524	4790
855.658	4672
855.792	4725
855.926	4714
856.06	4702
856.194	4831
856.327	4687
856.461	4599
856.595	4618
856.729	4653
856.862	4729
856.996	4702
857.13	4729
857.263	4755
857.397	4740
857.53	4679
857.664	4736
857.797	4786
857.931	4767
858.064	4710
858.197	4710
858.331	4679
858.464	4592
858.597	4554
858.731	4630
858.864	4607
858.997	4558
859.13	4634
859.263	4630
859.396	4683
859.529	4569
859.662	4603
859.795	4573
859.928	4630
860.061	4748
860.194	4721
860.327	4618
860.46	4599
860.592	4687
860.725	4714
860.858	4694
860.99	4538
861.123	4554
861.256	4531
861.388	4546
861.521	5391
861.653	4489
861.786	4447
861.918	4462
862.05	4527
862.183	4512
862.315	4607
862.447	4668
862.58	4508
862.712	4363
862.844	4341
862.976	4478
863.108	4447
863.24	4786
863.372	4329
863.504	4375
863.636	4386
863.768	4493
863.9	4436
864.032	4363
864.164	4409
864.296	4504
864.428	4588
864.559	4630
864.691	4577
864.823	4535
864.954	4459
865.086	4504
865.217	4485
865.349	4424
865.48	4424
865.612	4523
865.743	4634
865.875	4402
866.006	4371
866.137	4432
866.269	4470
866.4	4470
866.531	4436
866.662	4394
866.793	4360
866.924	4405
867.055	4516
867.186	4428
867.317	4398
867.448	4360
867.579	4348
867.71	4383
867.841	4344
867.972	4447
868.103	4478
868.233	4481
868.364	4421
868.495	4500
868.625	4683
868.756	4774
868.886	4550
869.017	4645
869.147	4767
869.278	4759
869.408	4641
869.539	4645
869.669	4717
869.799	4641
869.929	4752
870.06	4717
870.19	4965
870.32	4908
870.45	4904
870.58	4984
870.71	5056
870.84	5075
870.97	4934
871.1	4904
871.23	5124
871.36	5109
871.489	5056
871.619	5079
871.749	5102
871.879	5174
872.008	5185
872.138	5052
872.267	4995
872.397	4805
872.526	4786
872.656	4733
872.785	4870
872.915	4930
873.044	5075
873.173	4946
873.303	5006
873.432	5006
873.561	4938
873.69	4866
873.819	4858
873.948	4885
874.077	4824
874.206	4816
874.335	4831
874.464	4953
874.593	5064
874.722	4965
874.851	5083
874.979	5083
875.108	5083
875.237	4915
875.365	4885
875.494	4904
875.623	4927
875.751	4816
875.88	4904
876.008	5014
876.136	5018
876.265	5231
876.393	5337
876.521	5220
876.65	5216
876.778	5098
876.906	5060
877.034	5052
877.162	5060
877.29	5010
877.418	5022
877.546	5064
877.674	5045
877.802	5010
877.93	5022
878.058	4946
878.185	4858
878.313	4934
878.441	4949
878.568	4839
878.696	4866
878.824	4927
878.951	4953
879.079	5124
879.206	5269
879.333	5117
879.461	4965
879.588	4965
879.715	5159
879.842	5216
879.97	5010
880.097	4767
880.224	4755
880.351	4782
880.478	4812
880.605	4793
880.732	4820
880.859	5121
880.986	4896
881.112	4881
881.239	4790
881.366	4645
881.493	4577
881.619	4622
881.746	4622
881.872	4618
881.999	4634
882.125	4660
882.252	4797
882.378	4828
882.505	4965
882.631	4782
882.757	4641
882.883	4771
883.01	4714
883.136	4687
883.262	4615
883.388	4641
883.514	4793
883.64	4850
883.766	4812
883.892	4679
884.018	4717
884.143	4881
884.269	5018
884.395	4645
884.52	4653
884.646	4626
884.772	4588
884.897	4596
885.023	4694
885.148	4782
885.274	4839
885.399	4835
885.524	4729
885.65	4706
885.775	4725
885.9	4717
886.025	4866
886.15	4820
886.275	4759
886.4	4649
886.525	4687
886.65	4653
886.775	4729
886.9	4942
887.025	5006
887.149	4786
887.274	4660
887.399	4565
887.523	4561
887.648	4584
887.773	4615
887.897	4782
888.021	4801
888.146	4675
888.27	4778
888.395	4980
888.519	4736
888.643	4824
888.767	4801
888.891	4649
889.015	4641
889.139	4630
889.263	4607
889.387	4698
889.511	4847
889.635	4812
889.759	4656
889.883	4668
890.006	4778
890.13	4885
890.254	4596
890.377	4660
890.501	4584
890.624	4535
890.748	4645
890.871	4455
890.995	4421
891.118	4424
891.241	4523
891.364	4542
891.488	4634
891.611	4493
891.734	4546
891.857	4573
891.98	4607
892.103	4596
892.226	4622
892.349	4542
892.471	4440
892.594	4538
892.717	4611
892.839	4519
892.962	4611
893.085	4599
893.207	4615
893.33	4440
893.452	4489
893.575	4634
893.697	4584
893.819	4755
893.941	4809
894.064	4759
894.186	4554
894.308	4569
894.43	4714
894.552	4824
894.674	4729
894.796	4565
894.918	4599
895.04	4565
895.161	4721
895.283	4714
895.405	4500
895.526	4694
895.648	4679
895.769	4691
895.891	4782
896.012	4672
896.134	4729
896.255	4653
896.376	4584
896.498	4588
896.619	4664
896.74	4596
896.861	4656
896.982	4877
897.103	5071
897.224	4850
897.345	4729
897.466	4660
897.587	4733
897.708	4831
897.828	4786
897.949	4679
898.07	4554
898.19	4622
898.311	4858
898.431	4656
898.552	4714
898.672	4786
898.792	4805
898.913	4729
899.033	4588
899.153	4485
899.273	4409
899.393	4470
899.513	4542
899.633	4474
899.753	4531
899.873	4512
899.993	4607
900.113	4538
900.232	4573
900.352	4516
900.472	4504
900.591	4394
900.711	4519
900.83	4443
900.95	4622
901.069	4694
901.189	4573
901.308	4360
901.427	4306
901.546	4383
901.665	4493
901.784	4527
901.904	4421
902.023	4318
902.141	4196
902.26	4185
902.379	4280
902.498	4238
902.617	4234
902.735	4367
902.854	4386
902.973	4348
903.091	4219
903.21	4207
903.328	4284
903.446	4284
903.565	4242
903.683	4367
903.801	4253
903.919	4383
904.038	4428
904.156	4303
904.274	4459
904.392	4390
904.51	4436
904.627	4447
904.745	4603
904.863	4626
904.981	4413
905.098	4299
905.216	4341
905.334	4436
905.451	4462
905.569	4428
905.686	4535
905.803	4592
905.921	4390
906.038	4481
906.155	4466
906.272	4421
906.389	4466
906.506	4333
906.623	4390
906.74	4360
906.857	4341
906.974	4402
907.091	4519
907.208	4626
907.324	4603
907.441	4466
907.557	4356
907.674	4348
907.79	4333
907.907	4371
908.023	4459
908.139	4466
908.256	4489
908.372	4440
908.488	4455
908.604	4379
908.72	4291
908.836	4348
908.952	4394
909.068	4417
909.184	4596
909.3	4485
909.415	4535
909.531	4550
909.647	4322
909.762	4379
909.878	4303
909.993	4421
910.108	4386
910.224	4459
910.339	4474
910.454	4394
910.57	4383
910.685	4238
910.8	4615
910.915	4599
911.03	4451
911.145	4310
911.259	4329
911.374	4386
911.489	4306
911.604	4280
911.718	4200
911.833	4181
911.947	4082
912.062	4044
912.176	4230
912.291	4242
912.405	4310
912.519	4481
912.633	4478
912.748	4360
912.862	4303
912.976	4215
913.09	4097
913.204	4128
913.318	4265
913.431	4356
913.545	4348
913.659	4421
913.772	4367
913.886	4227
914	4219
914.113	4398
914.226	4474
914.34	4341
914.453	4242
914.566	4436
914.68	4337
914.793	4265
914.906	4139
915.019	4109
915.132	4032
915.245	4207
915.358	4196
915.47	4253
915.583	4234
915.696	4329
915.809	4390
915.921	4405
916.034	4249
916.146	4246
916.259	4257
916.371	4348
916.483	4314
916.595	4257
916.708	4268
916.82	4310
916.932	4295
917.044	4344
917.156	4322
917.268	4265
917.38	4280
917.491	4207
917.603	4303
917.715	4402
917.826	4440
917.938	4337
918.049	4253
918.161	4447
918.272	4535
918.384	4535
918.495	4443
918.606	4299
918.717	4246
918.828	4383
918.939	4383
919.05	4234
919.161	4265
919.272	4147
919.383	4227
919.494	4424
919.604	4599
919.715	4455
919.826	4310
919.936	4390
920.047	4569
920.157	4478
920.267	4717
920.378	4569
920.488	4523
920.598	4710
920.708	4930
920.818	4767
920.928	4752
921.038	4984
921.148	4889
921.258	4653
921.368	4550
921.477	4512
921.587	4428
921.697	4383
921.806	4569
921.916	4398
922.025	4230
922.134	4253
922.244	4257
922.353	4337
922.462	4200
922.571	4162
922.68	4021
922.789	3994
922.898	4010
923.007	3975
923.116	4116
923.224	4029
923.333	4105
923.442	4044
923.55	3994
923.659	3998
923.767	4082
923.876	3987
923.984	4135
924.092	3994
924.201	4067
924.309	4055
924.417	4105
924.525	4025
924.633	4139
924.741	5029
924.849	3896
924.956	4154
925.064	3956
925.172	3892
925.279	3937
925.387	4017
925.494	4051
925.602	4207
925.709	4158
925.816	4055
925.924	4128
926.031	4257
926.138	4166
926.245	4177
926.352	4109
926.459	4284
926.566	4265
926.673	4215
926.779	4086
926.886	4044
926.993	3994
927.099	3956
927.206	3949
927.312	3911
927.419	4071
927.525	4059
927.631	4074
927.737	4002
927.843	3983
927.95	3846
928.056	3979
928.162	3983
928.267	4051
928.373	4554
928.479	4097
928.585	3892
928.69	4040
928.796	4059
928.901	3960
929.007	3842
929.112	4010
929.218	4002
929.323	3975
929.428	3937
929.533	4101
929.638	3915
929.743	3998
929.848	4051
929.953	3998
930.058	3934
930.163	3759
930.267	3808
930.372	3987
930.477	3819
930.581	4090
930.685	3956
930.79	3827
930.894	3884
930.998	3842
931.103	4055
931.207	3709
931.311	3671
931.415	3633
931.519	3530
931.623	3576
