Data from test_V78500241_971.txt Node
Date: Fri Mar 25 16:55:45 CST 2022
User: usil
Spectrometer: V785-0024
Trigger mode: 0
Integration Time (sec): 4.000000E-1
Scans to average: 1
Nonlinearity correction enabled: false
Boxcar width: 0
Storing dark spectrum: false
XAxis mode: Wavelengths
Number of Pixels in Spectrum: 1024
>>>>>Begin Spectral Data<<<<<
801.071	8024
801.214	8088
801.356	7887
801.499	7894
801.641	7784
801.783	7799
801.926	7890
802.068	7940
802.211	7978
802.353	7932
802.496	7902
802.638	7841
802.78	7868
802.923	7864
803.065	7845
803.208	7909
803.35	7974
803.492	8031
803.635	8138
803.777	7978
803.919	8111
804.061	8465
804.204	8111
804.346	8012
804.488	7940
804.63	8119
804.773	8024
804.915	8088
805.057	8259
805.199	8138
805.341	8202
805.483	8218
805.626	8214
805.768	8103
805.91	8145
806.052	8138
806.194	8092
806.336	8225
806.478	8050
806.62	8081
806.762	8142
806.904	8202
807.046	8370
807.188	8347
807.33	8309
807.472	8328
807.614	8180
807.756	8172
807.898	8016
808.04	7856
808.182	7849
808.324	7879
808.465	7906
808.607	8008
808.749	8058
808.891	8206
809.033	8290
809.174	8218
809.316	8058
809.458	8054
809.6	7947
809.741	8024
809.883	7959
810.025	8103
810.166	8069
810.308	8012
810.45	7993
810.591	7936
810.733	7727
810.875	7601
811.016	7521
811.158	7434
811.299	7563
811.441	7704
811.582	7613
811.724	7548
811.865	7514
812.007	7540
812.148	7594
812.29	7647
812.431	7761
812.573	7849
812.714	7967
812.855	8100
812.997	8130
813.138	8282
813.279	8153
813.421	8149
813.562	8054
813.703	7830
813.845	7681
813.986	7457
814.127	7297
814.268	7225
814.41	7209
814.551	7069
814.692	7099
814.833	7076
814.974	7114
815.115	7088
815.256	6939
815.397	6882
815.539	6932
815.68	6806
815.821	6722
815.962	6821
816.103	6783
816.244	6738
816.385	6684
816.526	6566
816.666	6494
816.807	6220
816.948	6369
817.089	6483
817.23	6414
817.371	6429
817.512	6483
817.653	6353
817.793	6395
817.934	6338
818.075	6395
818.216	6441
818.356	6380
818.497	6228
818.638	6152
818.778	6091
818.919	6129
819.06	6079
819.2	6300
819.341	6270
819.481	6407
819.622	6574
819.762	6696
819.903	6734
820.043	6612
820.184	6551
820.324	6555
820.465	6673
820.605	6669
820.746	6627
820.886	6494
821.026	6677
821.167	6696
821.307	6726
821.447	6795
821.588	6684
821.728	6544
821.868	6448
822.008	6327
822.149	6315
822.289	6414
822.429	6114
822.569	6072
822.709	6117
822.849	5897
822.99	5901
823.13	5931
823.27	5904
823.41	5767
823.55	5748
823.69	5741
823.83	5771
823.97	5649
824.11	5501
824.25	5532
824.389	5592
824.529	5528
824.669	5512
824.809	5619
824.949	5630
825.089	5592
825.228	5528
825.368	5421
825.508	5326
825.648	5383
825.787	5383
825.927	5315
826.067	5318
826.206	5284
826.346	5379
826.485	5387
826.625	5372
826.765	5543
826.904	5482
827.044	5250
827.183	5181
827.323	5185
827.462	5201
827.601	5208
827.741	5132
827.88	5140
828.02	5102
828.159	5212
828.298	5216
828.437	5299
828.577	5284
828.716	5471
828.855	5318
828.994	5166
829.134	5094
829.273	5151
829.412	5113
829.551	5124
829.69	5166
829.829	5178
829.968	5372
830.107	5258
830.246	5227
830.385	5117
830.524	5105
830.663	5052
830.802	4968
830.941	4854
831.08	4900
831.219	4953
831.357	4949
831.496	5162
831.635	4896
831.774	4805
831.913	4866
832.051	4691
832.19	4698
832.329	4782
832.467	4721
832.606	4611
832.744	4721
832.883	4744
833.022	4675
833.16	4759
833.299	4767
833.437	4767
833.576	4816
833.714	4862
833.852	4866
833.991	4877
834.129	4942
834.267	4961
834.406	4984
834.544	5006
834.682	5014
834.821	4968
834.959	5102
835.097	4919
835.235	5086
835.373	5090
835.511	5064
835.65	5014
835.788	4976
835.926	4858
836.064	4797
836.202	4957
836.34	5147
836.478	5174
836.615	5113
836.753	5201
836.891	5311
837.029	5220
837.167	5220
837.305	5170
837.443	5128
837.58	5071
837.718	5239
837.856	5220
837.993	5208
838.131	5239
838.269	5147
838.406	5155
838.544	5136
838.681	5022
838.819	4965
838.956	4862
839.094	4900
839.231	4987
839.369	5029
839.506	5372
839.643	5269
839.781	5022
839.918	4972
840.055	5045
840.193	5086
840.33	5132
840.467	5117
840.604	5178
840.742	5429
840.879	5052
841.016	5064
841.153	5136
841.29	5326
841.427	5357
841.564	5277
841.701	5292
841.838	5246
841.975	5189
842.112	5220
842.249	5086
842.385	5098
842.522	5292
842.659	5090
842.796	5151
842.933	5162
843.069	5105
843.206	5162
843.343	5303
843.479	5220
843.616	5273
843.752	4984
843.889	5003
844.025	5155
844.162	4972
844.298	5143
844.435	5079
844.571	5025
844.708	5132
844.844	5284
844.98	5315
845.117	5284
845.253	5056
845.389	5064
845.525	5170
845.661	5117
845.798	5010
845.934	5128
846.07	5075
846.206	5189
846.342	5265
846.478	5162
846.614	4953
846.75	4949
846.886	4923
847.022	5159
847.158	4965
847.294	5045
847.429	5098
847.565	5022
847.701	5220
847.837	4843
847.972	4816
848.108	4972
848.244	4904
848.379	4733
848.515	4752
848.65	4698
848.786	4759
848.921	4748
849.057	4854
849.192	4896
849.328	4786
849.463	4805
849.598	4755
849.734	4797
849.869	4637
850.004	4634
850.14	4641
850.275	4592
850.41	4516
850.545	4516
850.68	4637
850.815	4637
850.95	4626
851.085	4805
851.22	4740
851.355	4664
851.49	4569
851.625	4607
851.76	4634
851.895	4538
852.03	4508
852.165	4630
852.299	4615
852.434	4740
852.569	4706
852.703	4702
852.838	4854
852.973	4915
853.107	4915
853.242	4710
853.376	4634
853.511	4531
853.645	4615
853.78	4828
853.914	4691
854.048	4660
854.183	4622
854.317	4675
854.451	4831
854.585	4634
854.72	4592
854.854	4748
854.988	4596
855.122	4615
855.256	4538
855.39	4683
855.524	4729
855.658	4721
855.792	4645
855.926	4714
856.06	4706
856.194	4755
856.327	4691
856.461	4569
856.595	4611
856.729	4622
856.862	4755
856.996	4717
857.13	4717
857.263	4755
857.397	4767
857.53	4649
857.664	4721
857.797	4748
857.931	4782
858.064	4672
858.197	4729
858.331	4580
858.464	4637
858.597	4500
858.731	4573
858.864	4588
858.997	4558
859.13	4607
859.263	4683
859.396	4717
859.529	4588
859.662	4577
859.795	4489
859.928	4687
860.061	4729
860.194	4721
860.327	4596
860.46	4474
860.592	4687
860.725	4706
860.858	4748
860.99	4577
861.123	4561
861.256	4481
861.388	4637
861.521	5189
861.653	4470
861.786	4405
861.918	4428
862.05	4550
862.183	4573
862.315	4615
862.447	4626
862.58	4535
862.712	4413
862.844	4337
862.976	4443
863.108	4409
863.24	4835
863.372	4333
863.504	4386
863.636	4371
863.768	4447
863.9	4390
864.032	4337
864.164	4375
864.296	4432
864.428	4497
864.559	4512
864.691	4500
864.823	4500
864.954	4428
865.086	4459
865.217	4436
865.349	4436
865.48	4455
865.612	4409
865.743	4569
865.875	4443
866.006	4398
866.137	4398
866.269	4455
866.4	4443
866.531	4375
866.662	4402
866.793	4348
866.924	4432
867.055	4462
867.186	4440
867.317	4443
867.448	4318
867.579	4356
867.71	4344
867.841	4344
867.972	4417
868.103	4417
868.233	4428
868.364	4432
868.495	4459
868.625	4588
868.756	4725
868.886	4538
869.017	4546
869.147	4744
869.278	4729
869.408	4645
869.539	4599
869.669	4641
869.799	4615
869.929	4725
870.06	4714
870.19	4968
870.32	4919
870.45	4877
870.58	4987
870.71	5090
870.84	5086
870.97	4908
871.1	4862
871.23	5090
871.36	5105
871.489	4987
871.619	5003
871.749	5071
871.879	5117
872.008	5151
872.138	5075
872.267	4991
872.397	4824
872.526	4771
872.656	4706
872.785	4831
872.915	4942
873.044	5003
873.173	4980
873.303	4915
873.432	4965
873.561	4991
873.69	4892
873.819	4831
873.948	4915
874.077	4801
874.206	4786
874.335	4828
874.464	4938
874.593	5056
874.722	4995
874.851	5117
874.979	5045
875.108	5022
875.237	4927
875.365	4923
875.494	4862
875.623	5033
875.751	4885
875.88	4881
876.008	5010
876.136	5067
876.265	5178
876.393	5364
876.521	5280
876.65	5181
876.778	5174
876.906	5090
877.034	5045
877.162	5105
877.29	5025
877.418	5052
877.546	5064
877.674	5113
877.802	5048
877.93	5033
878.058	4957
878.185	4904
878.313	5014
878.441	4942
878.568	4843
878.696	4877
878.824	5014
878.951	5067
879.079	5204
879.206	5292
879.333	5124
879.461	5022
879.588	5083
879.715	5185
879.842	5265
879.97	5018
880.097	4805
880.224	4763
880.351	4862
880.478	4847
880.605	4816
880.732	4778
880.859	5090
880.986	4919
881.112	4904
881.239	4831
881.366	4668
881.493	4626
881.619	4603
881.746	4649
881.872	4668
881.999	4660
882.125	4748
882.252	4801
882.378	4809
882.505	4968
882.631	4828
882.757	4679
882.883	4820
883.01	4729
883.136	4694
883.262	4634
883.388	4649
883.514	4885
883.64	4961
883.766	4820
883.892	4706
884.018	4774
884.143	4896
884.269	5041
884.395	4755
884.52	4630
884.646	4679
884.772	4580
884.897	4622
885.023	4649
885.148	4771
885.274	4877
885.399	4812
885.524	4710
885.65	4733
885.775	4755
885.9	4714
886.025	4847
886.15	4793
886.275	4687
886.4	4668
886.525	4755
886.65	4702
886.775	4702
886.9	4927
887.025	5056
887.149	4805
887.274	4668
887.399	4618
887.523	4637
887.648	4596
887.773	4630
887.897	4805
888.021	4824
888.146	4668
888.27	4790
888.395	4900
888.519	4782
888.643	4858
888.767	4866
888.891	4721
889.015	4607
889.139	4691
889.263	4615
889.387	4736
889.511	4904
889.635	4820
889.759	4645
889.883	4618
890.006	4683
890.13	4889
890.254	4641
890.377	4710
890.501	4519
890.624	4588
890.748	4664
890.871	4573
890.995	4443
891.118	4413
891.241	4531
891.364	4599
891.488	4691
891.611	4558
891.734	4538
891.857	4660
891.98	4588
892.103	4641
892.226	4584
892.349	4565
892.471	4459
892.594	4550
892.717	4634
892.839	4626
892.962	4641
893.085	4641
893.207	4622
893.33	4432
893.452	4497
893.575	4668
893.697	4573
893.819	4820
893.941	4892
894.064	4805
894.186	4653
894.308	4599
894.43	4763
894.552	4839
894.674	4774
894.796	4603
894.918	4626
895.04	4599
895.161	4698
895.283	4687
895.405	4615
895.526	4660
895.648	4740
895.769	4710
895.891	4733
896.012	4759
896.134	4717
896.255	4717
896.376	4656
896.498	4618
896.619	4710
896.74	4653
896.861	4668
896.982	4889
897.103	5121
897.224	4854
897.345	4782
897.466	4702
897.587	4801
897.708	4862
897.828	4736
897.949	4694
898.07	4607
898.19	4656
898.311	4877
898.431	4691
898.552	4752
898.672	4812
898.792	4782
898.913	4778
899.033	4630
899.153	4516
899.273	4424
899.393	4485
899.513	4516
899.633	4565
899.753	4538
899.873	4470
899.993	4622
900.113	4531
900.232	4599
900.352	4565
900.472	4478
900.591	4390
900.711	4516
900.83	4390
900.95	4607
901.069	4710
901.189	4493
901.308	4386
901.427	4348
901.546	4405
901.665	4462
901.784	4558
901.904	4424
902.023	4344
902.141	4192
902.26	4192
902.379	4299
902.498	4257
902.617	4234
902.735	4352
902.854	4409
902.973	4383
903.091	4246
903.21	4246
903.328	4295
903.446	4322
903.565	4276
903.683	4371
903.801	4291
903.919	4390
904.038	4440
904.156	4344
904.274	4447
904.392	4405
904.51	4500
904.627	4508
904.745	4607
904.863	4634
904.981	4443
905.098	4318
905.216	4402
905.334	4455
905.451	4413
905.569	4481
905.686	4569
905.803	4599
905.921	4459
906.038	4599
906.155	4512
906.272	4421
906.389	4470
906.506	4333
906.623	4417
906.74	4413
906.857	4337
906.974	4398
907.091	4615
907.208	4683
907.324	4618
907.441	4531
907.557	4352
907.674	4398
907.79	4299
907.907	4462
908.023	4489
908.139	4493
908.256	4462
908.372	4516
908.488	4421
908.604	4367
908.72	4356
908.836	4413
908.952	4405
909.068	4470
909.184	4622
909.3	4474
909.415	4569
909.531	4580
909.647	4432
909.762	4424
909.878	4375
909.993	4421
910.108	4386
910.224	4417
910.339	4519
910.454	4402
910.57	4390
910.685	4318
910.8	4675
910.915	4603
911.03	4489
911.145	4341
911.259	4394
911.374	4383
911.489	4299
911.604	4284
911.718	4211
911.833	4223
911.947	4128
912.062	4017
912.176	4234
912.291	4272
912.405	4276
912.519	4447
912.633	4481
912.748	4344
912.862	4371
912.976	4207
913.09	4124
913.204	4177
913.318	4227
913.431	4371
913.545	4390
913.659	4436
913.772	4344
913.886	4227
914	4284
914.113	4409
914.226	4474
914.34	4394
914.453	4257
914.566	4428
914.68	4291
914.793	4333
914.906	4177
915.019	4124
915.132	4086
915.245	4169
915.358	4200
915.47	4249
915.583	4299
915.696	4341
915.809	4360
915.921	4455
916.034	4257
916.146	4280
916.259	4204
916.371	4383
916.483	4383
916.595	4268
916.708	4360
916.82	4333
916.932	4348
917.044	4337
917.156	4348
917.268	4261
917.38	4291
917.491	4295
917.603	4363
917.715	4424
917.826	4443
917.938	4371
918.049	4246
918.161	4360
918.272	4497
918.384	4550
918.495	4474
918.606	4303
918.717	4234
918.828	4383
918.939	4367
919.05	4234
919.161	4310
919.272	4173
919.383	4215
919.494	4443
919.604	4649
919.715	4481
919.826	4398
919.936	4383
920.047	4550
920.157	4478
920.267	4706
920.378	4565
920.488	4531
920.598	4729
920.708	4919
920.818	4736
920.928	4793
921.038	4942
921.148	4968
921.258	4630
921.368	4542
921.477	4538
921.587	4485
921.697	4421
921.806	4531
921.916	4455
922.025	4272
922.134	4306
922.244	4249
922.353	4375
922.462	4211
922.571	4143
922.68	4025
922.789	3930
922.898	4048
923.007	4013
923.116	4131
923.224	4086
923.333	4086
923.442	4010
923.55	4044
923.659	4021
923.767	4116
923.876	4059
923.984	4093
924.092	4021
924.201	4082
924.309	4090
924.417	4093
924.525	4059
924.633	4120
924.741	5105
924.849	3956
924.956	4150
925.064	3953
925.172	3926
925.279	3975
925.387	4093
925.494	4044
925.602	4173
925.709	4192
925.816	4044
925.924	4169
926.031	4215
926.138	4162
926.245	4211
926.352	4086
926.459	4287
926.566	4314
926.673	4135
926.779	4090
926.886	4074
926.993	3979
927.099	3972
927.206	4002
927.312	3953
927.419	4090
927.525	4002
927.631	4090
927.737	3998
927.843	3956
927.95	3854
928.056	3964
928.162	4032
928.267	4063
928.373	4660
928.479	4109
928.585	3869
928.69	4040
928.796	4040
928.901	3968
929.007	3892
929.112	4032
929.218	3945
929.323	3937
929.428	3949
929.533	4158
929.638	3911
929.743	3994
929.848	4013
929.953	4017
930.058	3937
930.163	3785
930.267	3819
930.372	3953
930.477	3846
930.581	4116
930.685	3949
930.79	3804
930.894	3915
930.998	3888
931.103	4036
931.207	3724
931.311	3751
931.415	3720
931.519	3542
931.623	3534
