Data from test_V78500241_1839.txt Node
Date: Fri Mar 25 17:01:47 CST 2022
User: usil
Spectrometer: V785-0024
Trigger mode: 0
Integration Time (sec): 4.000000E-1
Scans to average: 1
Nonlinearity correction enabled: false
Boxcar width: 0
Storing dark spectrum: false
XAxis mode: Wavelengths
Number of Pixels in Spectrum: 1024
>>>>>Begin Spectral Data<<<<<
801.071	8016
801.214	8027
801.356	7909
801.499	7841
801.641	7811
801.783	7978
801.926	7959
802.068	7970
802.211	8005
802.353	8012
802.496	7917
802.638	7875
802.78	7932
802.923	7944
803.065	7841
803.208	7898
803.35	7955
803.492	8062
803.635	8149
803.777	8046
803.919	8088
804.061	8446
804.204	8176
804.346	8008
804.488	7955
804.63	8149
804.773	8005
804.915	8210
805.057	8279
805.199	8161
805.341	8218
805.483	8210
805.626	8183
805.768	8180
805.91	8172
806.052	8199
806.194	8043
806.336	8294
806.478	8100
806.62	8084
806.762	8111
806.904	8263
807.046	8552
807.188	8415
807.33	8358
807.472	8282
807.614	8195
807.756	8172
807.898	7955
808.04	7921
808.182	7936
808.324	7894
808.465	7967
808.607	8088
808.749	8123
808.891	8229
809.033	8286
809.174	8244
809.316	8012
809.458	8100
809.6	8020
809.741	8043
809.883	8012
810.025	8107
810.166	8092
810.308	8027
810.45	8054
810.591	7864
810.733	7723
810.875	7689
811.016	7544
811.158	7533
811.299	7601
811.441	7685
811.582	7719
811.724	7578
811.865	7597
812.007	7590
812.148	7658
812.29	7647
812.431	7769
812.573	7841
812.714	7959
812.855	8100
812.997	8271
813.138	8301
813.279	8252
813.421	8111
813.562	7959
813.703	7887
813.845	7742
813.986	7502
814.127	7255
814.268	7240
814.41	7190
814.551	7209
814.692	7194
814.833	7095
814.974	7091
815.115	7156
815.256	6962
815.397	6985
815.539	6932
815.68	6867
815.821	6818
815.962	6787
816.103	6840
816.244	6692
816.385	6616
816.526	6563
816.666	6555
816.807	6327
816.948	6460
817.089	6456
817.23	6437
817.371	6380
817.512	6414
817.653	6361
817.793	6410
817.934	6384
818.075	6464
818.216	6483
818.356	6433
818.497	6289
818.638	6121
818.778	6121
818.919	6125
819.06	6262
819.2	6315
819.341	6273
819.481	6376
819.622	6601
819.762	6757
819.903	6707
820.043	6578
820.184	6646
820.324	6612
820.465	6719
820.605	6703
820.746	6658
820.886	6498
821.026	6642
821.167	6665
821.307	6787
821.447	6741
821.588	6700
821.728	6528
821.868	6521
822.008	6281
822.149	6369
822.289	6391
822.429	6144
822.569	6144
822.709	6125
822.849	5935
822.99	5859
823.13	5954
823.27	5946
823.41	5775
823.55	5748
823.69	5779
823.83	5764
823.97	5646
824.11	5528
824.25	5497
824.389	5577
824.529	5608
824.669	5512
824.809	5577
824.949	5672
825.089	5623
825.228	5581
825.368	5376
825.508	5307
825.648	5337
825.787	5353
825.927	5391
826.067	5315
826.206	5277
826.346	5391
826.485	5395
826.625	5452
826.765	5554
826.904	5490
827.044	5250
827.183	5231
827.323	5117
827.462	5227
827.601	5174
827.741	5242
827.88	5239
828.02	5090
828.159	5239
828.298	5357
828.437	5345
828.577	5330
828.716	5482
828.855	5280
828.994	5147
829.134	5189
829.273	5170
829.412	5178
829.551	5094
829.69	5197
829.829	5223
829.968	5326
830.107	5277
830.246	5292
830.385	5132
830.524	5189
830.663	5086
830.802	4965
830.941	4942
831.08	4873
831.219	5010
831.357	4923
831.496	5174
831.635	4946
831.774	4816
831.913	4877
832.051	4725
832.19	4748
832.329	4835
832.467	4660
832.606	4656
832.744	4729
832.883	4710
833.022	4717
833.16	4790
833.299	4828
833.437	4850
833.576	4854
833.714	4835
833.852	4824
833.991	4870
834.129	4999
834.267	4965
834.406	4915
834.544	4987
834.682	4972
834.821	4972
834.959	5102
835.097	5064
835.235	5140
835.373	5090
835.511	5102
835.65	5033
835.788	5048
835.926	4889
836.064	4889
836.202	4987
836.34	5162
836.478	5178
836.615	5147
836.753	5185
836.891	5357
837.029	5284
837.167	5223
837.305	5159
837.443	5124
837.58	5064
837.718	5269
837.856	5212
837.993	5117
838.131	5204
838.269	5201
838.406	5227
838.544	5178
838.681	5048
838.819	5025
838.956	4900
839.094	4908
839.231	4995
839.369	5060
839.506	5410
839.643	5269
839.781	5086
839.918	5010
840.055	5098
840.193	5045
840.33	5121
840.467	5113
840.604	5162
840.742	5440
840.879	5022
841.016	5083
841.153	5136
841.29	5383
841.427	5337
841.564	5307
841.701	5360
841.838	5254
841.975	5208
842.112	5318
842.249	5155
842.385	5102
842.522	5326
842.659	5124
842.796	5204
842.933	5220
843.069	5174
843.206	5170
843.343	5303
843.479	5239
843.616	5277
843.752	5052
843.889	5010
844.025	5242
844.162	5003
844.298	5170
844.435	5022
844.571	5109
844.708	5216
844.844	5269
844.98	5296
845.117	5326
845.253	5086
845.389	5105
845.525	5136
845.661	5162
845.798	5025
845.934	5117
846.07	5064
846.206	5197
846.342	5258
846.478	5174
846.614	5003
846.75	5018
846.886	4957
847.022	5162
847.158	5048
847.294	5094
847.429	5109
847.565	5060
847.701	5360
847.837	4866
847.972	4847
848.108	4968
848.244	4938
848.379	4797
848.515	4736
848.65	4687
848.786	4736
848.921	4831
849.057	4858
849.192	4877
849.328	4831
849.463	4889
849.598	4805
849.734	4721
849.869	4683
850.004	4649
850.14	4637
850.275	4622
850.41	4512
850.545	4626
850.68	4592
850.815	4596
850.95	4645
851.085	4877
851.22	4778
851.355	4672
851.49	4592
851.625	4626
851.76	4645
851.895	4531
852.03	4550
852.165	4679
852.299	4771
852.434	4797
852.569	4763
852.703	4816
852.838	4831
852.973	4942
853.107	4915
853.242	4714
853.376	4656
853.511	4535
853.645	4626
853.78	4786
853.914	4664
854.048	4656
854.183	4626
854.317	4706
854.451	4854
854.585	4641
854.72	4622
854.854	4778
854.988	4615
855.122	4668
855.256	4588
855.39	4714
855.524	4782
855.658	4733
855.792	4668
855.926	4767
856.06	4778
856.194	4831
856.327	4637
856.461	4607
856.595	4645
856.729	4611
856.862	4809
856.996	4706
857.13	4736
857.263	4774
857.397	4778
857.53	4626
857.664	4683
857.797	4733
857.931	4778
858.064	4721
858.197	4702
858.331	4653
858.464	4622
858.597	4546
858.731	4599
858.864	4653
858.997	4561
859.13	4706
859.263	4668
859.396	4714
859.529	4607
859.662	4546
859.795	4508
859.928	4672
860.061	4717
860.194	4782
860.327	4668
860.46	4558
860.592	4683
860.725	4698
860.858	4725
860.99	4580
861.123	4542
861.256	4474
861.388	4656
861.521	5376
861.653	4432
861.786	4432
861.918	4474
862.05	4519
862.183	4542
862.315	4603
862.447	4702
862.58	4588
862.712	4436
862.844	4333
862.976	4493
863.108	4455
863.24	4873
863.372	4379
863.504	4443
863.636	4421
863.768	4497
863.9	4398
864.032	4371
864.164	4390
864.296	4489
864.428	4535
864.559	4542
864.691	4542
864.823	4554
864.954	4497
865.086	4523
865.217	4462
865.349	4409
865.48	4474
865.612	4493
865.743	4649
865.875	4436
866.006	4421
866.137	4519
866.269	4470
866.4	4424
866.531	4417
866.662	4398
866.793	4375
866.924	4421
867.055	4489
867.186	4478
867.317	4402
867.448	4386
867.579	4383
867.71	4398
867.841	4379
867.972	4436
868.103	4451
868.233	4462
868.364	4478
868.495	4470
868.625	4641
868.756	4733
868.886	4550
869.017	4649
869.147	4721
869.278	4828
869.408	4645
869.539	4645
869.669	4679
869.799	4603
869.929	4740
870.06	4748
870.19	4957
870.32	4949
870.45	4984
870.58	5003
870.71	5086
870.84	5113
870.97	4949
871.1	4862
871.23	5162
871.36	5143
871.489	4968
871.619	4999
871.749	5071
871.879	5052
872.008	5155
872.138	5071
872.267	4968
872.397	4896
872.526	4820
872.656	4733
872.785	4790
872.915	4942
873.044	5022
873.173	4953
873.303	4942
873.432	4984
873.561	4946
873.69	4839
873.819	4862
873.948	4904
874.077	4850
874.206	4744
874.335	4755
874.464	4889
874.593	5041
874.722	4987
874.851	5079
874.979	5083
875.108	5006
875.237	4896
875.365	4892
875.494	4866
875.623	4927
875.751	4824
875.88	4862
876.008	4968
876.136	5006
876.265	5193
876.393	5353
876.521	5208
876.65	5265
876.778	5166
876.906	5052
877.034	5045
877.162	5025
877.29	4976
877.418	5083
877.546	5052
877.674	5056
877.802	5064
877.93	4987
878.058	4915
878.185	4881
878.313	4972
878.441	4927
878.568	4774
878.696	4870
878.824	4946
878.951	4949
879.079	5124
879.206	5284
879.333	5094
879.461	4968
879.588	4987
879.715	5128
879.842	5181
879.97	5056
880.097	4774
880.224	4736
880.351	4820
880.478	4805
880.605	4767
880.732	4759
880.859	5105
880.986	4854
881.112	4904
881.239	4778
881.366	4683
881.493	4584
881.619	4561
881.746	4634
881.872	4626
881.999	4618
882.125	4710
882.252	4771
882.378	4805
882.505	4900
882.631	4828
882.757	4660
882.883	4725
883.01	4679
883.136	4626
883.262	4607
883.388	4569
883.514	4812
883.64	4854
883.766	4790
883.892	4691
884.018	4717
884.143	4892
884.269	4961
884.395	4645
884.52	4630
884.646	4630
884.772	4630
884.897	4569
885.023	4618
885.148	4793
885.274	4843
885.399	4797
885.524	4664
885.65	4714
885.775	4733
885.9	4672
886.025	4843
886.15	4782
886.275	4733
886.4	4698
886.525	4714
886.65	4672
886.775	4664
886.9	4866
887.025	4961
887.149	4812
887.274	4710
887.399	4584
887.523	4637
887.648	4596
887.773	4592
887.897	4698
888.021	4786
888.146	4630
888.27	4793
888.395	4881
888.519	4835
888.643	4793
888.767	4812
888.891	4656
889.015	4592
889.139	4656
889.263	4561
889.387	4759
889.511	4839
889.635	4782
889.759	4637
889.883	4641
890.006	4672
890.13	4778
890.254	4618
890.377	4634
890.501	4516
890.624	4481
890.748	4596
890.871	4489
890.995	4398
891.118	4367
891.241	4519
891.364	4523
891.488	4615
891.611	4508
891.734	4527
891.857	4615
891.98	4592
892.103	4637
892.226	4546
892.349	4558
892.471	4417
892.594	4493
892.717	4603
892.839	4577
892.962	4592
893.085	4687
893.207	4558
893.33	4417
893.452	4538
893.575	4649
893.697	4592
893.819	4831
893.941	4820
894.064	4782
894.186	4550
894.308	4573
894.43	4710
894.552	4809
894.674	4755
894.796	4550
894.918	4603
895.04	4527
895.161	4691
895.283	4691
895.405	4596
895.526	4637
895.648	4683
895.769	4687
895.891	4706
896.012	4763
896.134	4740
896.255	4664
896.376	4634
896.498	4649
896.619	4679
896.74	4588
896.861	4675
896.982	4870
897.103	5060
897.224	4835
897.345	4755
897.466	4626
897.587	4721
897.708	4877
897.828	4778
897.949	4656
898.07	4554
898.19	4675
898.311	4881
898.431	4683
898.552	4778
898.672	4793
898.792	4797
898.913	4733
899.033	4599
899.153	4493
899.273	4440
899.393	4478
899.513	4504
899.633	4516
899.753	4504
899.873	4512
899.993	4558
900.113	4558
900.232	4577
900.352	4554
900.472	4504
900.591	4409
900.711	4558
900.83	4413
900.95	4618
901.069	4660
901.189	4550
901.308	4363
901.427	4367
901.546	4352
901.665	4421
901.784	4512
901.904	4409
902.023	4356
902.141	4185
902.26	4150
902.379	4333
902.498	4249
902.617	4173
902.735	4394
902.854	4409
902.973	4363
903.091	4158
903.21	4223
903.328	4303
903.446	4234
903.565	4268
903.683	4379
903.801	4249
903.919	4432
904.038	4409
904.156	4337
904.274	4383
904.392	4421
904.51	4413
904.627	4459
904.745	4558
904.863	4615
904.981	4390
905.098	4306
905.216	4371
905.334	4409
905.451	4432
905.569	4421
905.686	4516
905.803	4554
905.921	4417
906.038	4527
906.155	4481
906.272	4363
906.389	4417
906.506	4337
906.623	4360
906.74	4386
906.857	4314
906.974	4383
907.091	4592
907.208	4641
907.324	4569
907.441	4508
907.557	4329
907.674	4356
907.79	4276
907.907	4390
908.023	4462
908.139	4470
908.256	4424
908.372	4500
908.488	4436
908.604	4341
908.72	4299
908.836	4341
908.952	4348
909.068	4398
909.184	4577
909.3	4481
909.415	4538
909.531	4523
909.647	4344
909.762	4322
909.878	4371
909.993	4443
910.108	4371
910.224	4417
910.339	4462
910.454	4398
910.57	4329
910.685	4318
910.8	4577
910.915	4607
911.03	4447
911.145	4322
911.259	4348
911.374	4375
911.489	4287
911.604	4287
911.718	4166
911.833	4196
911.947	4082
912.062	4067
912.176	4249
912.291	4257
912.405	4287
912.519	4455
912.633	4531
912.748	4360
912.862	4306
912.976	4261
913.09	4124
913.204	4124
913.318	4265
913.431	4390
913.545	4333
913.659	4436
913.772	4344
913.886	4257
914	4211
914.113	4371
914.226	4428
914.34	4367
914.453	4238
914.566	4390
914.68	4287
914.793	4352
914.906	4139
915.019	4109
915.132	4097
915.245	4185
915.358	4215
915.47	4211
915.583	4272
915.696	4306
915.809	4421
915.921	4409
916.034	4242
916.146	4261
916.259	4181
916.371	4379
916.483	4333
916.595	4291
916.708	4306
916.82	4299
916.932	4314
917.044	4348
917.156	4348
917.268	4211
917.38	4261
917.491	4265
917.603	4333
917.715	4462
917.826	4413
917.938	4337
918.049	4211
918.161	4363
918.272	4516
918.384	4493
918.495	4436
918.606	4284
918.717	4242
918.828	4333
918.939	4344
919.05	4253
919.161	4276
919.272	4135
919.383	4242
919.494	4363
919.604	4634
919.715	4383
919.826	4371
919.936	4348
920.047	4527
920.157	4481
920.267	4683
920.378	4485
920.488	4512
920.598	4698
920.708	4873
920.818	4748
920.928	4702
921.038	4995
921.148	4896
921.258	4675
921.368	4546
921.477	4440
921.587	4443
921.697	4360
921.806	4550
921.916	4424
922.025	4265
922.134	4249
922.244	4215
922.353	4333
922.462	4128
922.571	4143
922.68	4013
922.789	3941
922.898	4040
923.007	3972
923.116	4044
923.224	4044
923.333	4067
923.442	3994
923.55	3960
923.659	4063
923.767	4090
923.876	3911
923.984	4120
924.092	3960
924.201	4048
924.309	4071
924.417	4105
924.525	4017
924.633	4078
924.741	5056
924.849	3869
924.956	4162
925.064	3987
925.172	3930
925.279	3979
925.387	4059
925.494	4082
925.602	4188
925.709	4162
925.816	4029
925.924	4135
926.031	4207
926.138	4105
926.245	4135
926.352	4055
926.459	4265
926.566	4280
926.673	4143
926.779	4067
926.886	4048
926.993	3979
927.099	3983
927.206	3941
927.312	3968
927.419	3960
927.525	4059
927.631	4078
927.737	4010
927.843	3953
927.95	3873
928.056	3964
928.162	3991
928.267	3987
928.373	4573
928.479	4131
928.585	3876
928.69	3968
928.796	4032
928.901	3979
929.007	3819
929.112	3998
929.218	4010
929.323	3956
929.428	4010
929.533	4101
929.638	3949
929.743	3953
929.848	3979
929.953	4017
930.058	3911
930.163	3800
930.267	3785
930.372	3953
930.477	3804
930.581	4109
930.685	3911
930.79	3846
930.894	3873
930.998	3850
931.103	4029
931.207	3759
931.311	3660
931.415	3641
931.519	3538
931.623	3504
