Data from test_V78500241_2100.txt Node
Date: Fri Mar 25 17:03:36 CST 2022
User: usil
Spectrometer: V785-0024
Trigger mode: 0
Integration Time (sec): 4.000000E-1
Scans to average: 1
Nonlinearity correction enabled: false
Boxcar width: 0
Storing dark spectrum: false
XAxis mode: Wavelengths
Number of Pixels in Spectrum: 1024
>>>>>Begin Spectral Data<<<<<
801.071	8046
801.214	7986
801.356	7883
801.499	7875
801.641	7837
801.783	7849
801.926	7925
802.068	7887
802.211	7864
802.353	8020
802.496	7875
802.638	7925
802.78	7909
802.923	7883
803.065	7887
803.208	7860
803.35	7974
803.492	8054
803.635	8088
803.777	8050
803.919	8100
804.061	8476
804.204	8199
804.346	8046
804.488	7986
804.63	8073
804.773	8035
804.915	8081
805.057	8332
805.199	8111
805.341	8199
805.483	8252
805.626	8252
805.768	8157
805.91	8248
806.052	8187
806.194	8126
806.336	8275
806.478	8096
806.62	8088
806.762	8195
806.904	8256
807.046	8499
807.188	8355
807.33	8298
807.472	8324
807.614	8168
807.756	8206
807.898	8005
808.04	7868
808.182	7860
808.324	7871
808.465	7917
808.607	7989
808.749	8153
808.891	8202
809.033	8271
809.174	8244
809.316	8126
809.458	8088
809.6	8012
809.741	8054
809.883	8043
810.025	8081
810.166	8073
810.308	8005
810.45	7989
810.591	7868
810.733	7704
810.875	7681
811.016	7578
811.158	7422
811.299	7582
811.441	7689
811.582	7616
811.724	7632
811.865	7590
812.007	7597
812.148	7586
812.29	7647
812.431	7753
812.573	7852
812.714	7955
812.855	8123
812.997	8183
813.138	8240
813.279	8149
813.421	8008
813.562	7940
813.703	7818
813.845	7750
813.986	7468
814.127	7228
814.268	7206
814.41	7228
814.551	7206
814.692	7240
814.833	7103
814.974	7080
815.115	7118
815.256	7034
815.397	6913
815.539	6932
815.68	6821
815.821	6757
815.962	6894
816.103	6798
816.244	6707
816.385	6608
816.526	6627
816.666	6475
816.807	6334
816.948	6403
817.089	6528
817.23	6448
817.371	6357
817.512	6342
817.653	6357
817.793	6361
817.934	6445
818.075	6464
818.216	6456
818.356	6399
818.497	6277
818.638	6167
818.778	6171
818.919	6117
819.06	6182
819.2	6361
819.341	6296
819.481	6429
819.622	6528
819.762	6722
819.903	6688
820.043	6566
820.184	6578
820.324	6574
820.465	6730
820.605	6612
820.746	6711
820.886	6536
821.026	6639
821.167	6726
821.307	6757
821.447	6757
821.588	6623
821.728	6597
821.868	6509
822.008	6311
822.149	6391
822.289	6369
822.429	6175
822.569	6136
822.709	6129
822.849	5958
822.99	5882
823.13	5927
823.27	5954
823.41	5832
823.55	5737
823.69	5714
823.83	5805
823.97	5691
824.11	5528
824.25	5543
824.389	5535
824.529	5573
824.669	5547
824.809	5623
824.949	5646
825.089	5608
825.228	5543
825.368	5448
825.508	5345
825.648	5341
825.787	5402
825.927	5387
826.067	5349
826.206	5318
826.346	5376
826.485	5429
826.625	5467
826.765	5570
826.904	5501
827.044	5239
827.183	5208
827.323	5159
827.462	5246
827.601	5193
827.741	5208
827.88	5258
828.02	5121
828.159	5193
828.298	5334
828.437	5357
828.577	5261
828.716	5474
828.855	5322
828.994	5151
829.134	5155
829.273	5124
829.412	5117
829.551	5151
829.69	5189
829.829	5223
829.968	5341
830.107	5269
830.246	5318
830.385	5174
830.524	5174
830.663	5109
830.802	4961
830.941	4900
831.08	4870
831.219	4938
831.357	4995
831.496	5181
831.635	4987
831.774	4870
831.913	4847
832.051	4698
832.19	4744
832.329	4854
832.467	4679
832.606	4592
832.744	4740
832.883	4763
833.022	4698
833.16	4782
833.299	4820
833.437	4854
833.576	4797
833.714	4881
833.852	4896
833.991	4900
834.129	4946
834.267	4980
834.406	4850
834.544	4980
834.682	5029
834.821	4968
834.959	5193
835.097	4987
835.235	5159
835.373	5071
835.511	5071
835.65	5056
835.788	5045
835.926	4908
836.064	4934
836.202	4908
836.34	5159
836.478	5239
836.615	5113
836.753	5223
836.891	5273
837.029	5231
837.167	5227
837.305	5147
837.443	5121
837.58	5083
837.718	5246
837.856	5174
837.993	5098
838.131	5212
838.269	5223
838.406	5201
838.544	5193
838.681	4968
838.819	4965
838.956	4866
839.094	4949
839.231	4961
839.369	5041
839.506	5463
839.643	5204
839.781	5083
839.918	5010
840.055	5075
840.193	5124
840.33	5075
840.467	5105
840.604	5159
840.742	5410
840.879	5113
841.016	5128
841.153	5174
841.29	5368
841.427	5357
841.564	5311
841.701	5337
841.838	5254
841.975	5239
842.112	5261
842.249	5121
842.385	5105
842.522	5326
842.659	5090
842.796	5166
842.933	5189
843.069	5102
843.206	5124
843.343	5307
843.479	5223
843.616	5288
843.752	5045
843.889	5048
844.025	5197
844.162	4991
844.298	5143
844.435	5083
844.571	5033
844.708	5178
844.844	5299
844.98	5368
845.117	5273
845.253	5193
845.389	5052
845.525	5208
845.661	5121
845.798	5079
845.934	5124
846.07	5025
846.206	5235
846.342	5303
846.478	5105
846.614	5033
846.75	5018
846.886	4942
847.022	5208
847.158	5056
847.294	5048
847.429	5136
847.565	5086
847.701	5311
847.837	4908
847.972	4793
848.108	4957
848.244	4919
848.379	4774
848.515	4740
848.65	4721
848.786	4778
848.921	4729
849.057	4866
849.192	4850
849.328	4797
849.463	4839
849.598	4782
849.734	4763
849.869	4687
850.004	4641
850.14	4645
850.275	4607
850.41	4497
850.545	4565
850.68	4592
850.815	4630
850.95	4592
851.085	4831
851.22	4790
851.355	4649
851.49	4611
851.625	4618
851.76	4653
851.895	4504
852.03	4481
852.165	4641
852.299	4725
852.434	4812
852.569	4790
852.703	4771
852.838	4858
852.973	4953
853.107	4866
853.242	4752
853.376	4683
853.511	4516
853.645	4596
853.78	4778
853.914	4672
854.048	4645
854.183	4641
854.317	4653
854.451	4771
854.585	4668
854.72	4668
854.854	4759
854.988	4588
855.122	4630
855.256	4519
855.39	4668
855.524	4820
855.658	4717
855.792	4714
855.926	4702
856.06	4763
856.194	4820
856.327	4694
856.461	4596
856.595	4637
856.729	4675
856.862	4767
856.996	4672
857.13	4687
857.263	4725
857.397	4790
857.53	4672
857.664	4694
857.797	4744
857.931	4755
858.064	4683
858.197	4740
858.331	4634
858.464	4599
858.597	4512
858.731	4615
858.864	4607
858.997	4618
859.13	4660
859.263	4660
859.396	4660
859.529	4584
859.662	4546
859.795	4542
859.928	4630
860.061	4740
860.194	4786
860.327	4569
860.46	4607
860.592	4687
860.725	4740
860.858	4694
860.99	4615
861.123	4523
861.256	4512
861.388	4550
861.521	5383
861.653	4474
861.786	4409
861.918	4504
862.05	4516
862.183	4497
862.315	4630
862.447	4622
862.58	4504
862.712	4394
862.844	4348
862.976	4436
863.108	4405
863.24	4744
863.372	4333
863.504	4443
863.636	4398
863.768	4489
863.9	4417
864.032	4386
864.164	4390
864.296	4436
864.428	4558
864.559	4504
864.691	4531
864.823	4508
864.954	4474
865.086	4535
865.217	4451
865.349	4421
865.48	4478
865.612	4493
865.743	4622
865.875	4470
866.006	4417
866.137	4455
866.269	4443
866.4	4459
866.531	4409
866.662	4440
866.793	4386
866.924	4413
867.055	4497
867.186	4402
867.317	4432
867.448	4329
867.579	4348
867.71	4386
867.841	4398
867.972	4443
868.103	4447
868.233	4394
868.364	4493
868.495	4489
868.625	4641
868.756	4725
868.886	4596
869.017	4596
869.147	4744
869.278	4706
869.408	4721
869.539	4694
869.669	4679
869.799	4683
869.929	4774
870.06	4748
870.19	4980
870.32	4953
870.45	4965
870.58	4980
870.71	5086
870.84	5136
870.97	4946
871.1	4908
871.23	5124
871.36	5147
871.489	5064
871.619	5071
871.749	5094
871.879	5128
872.008	5178
872.138	5041
872.267	5003
872.397	4816
872.526	4801
872.656	4736
872.785	4793
872.915	4896
873.044	5052
873.173	4980
873.303	4984
873.432	4957
873.561	4987
873.69	4850
873.819	4850
873.948	4870
874.077	4793
874.206	4733
874.335	4805
874.464	4942
874.593	5075
874.722	4965
874.851	5113
874.979	5025
875.108	5018
875.237	4847
875.365	4908
875.494	4900
875.623	4987
875.751	4828
875.88	4847
876.008	4991
876.136	5022
876.265	5197
876.393	5307
876.521	5239
876.65	5201
876.778	5121
876.906	5037
877.034	5071
877.162	5048
877.29	4957
877.418	5071
877.546	5048
877.674	5025
877.802	5010
877.93	4972
878.058	4904
878.185	4831
878.313	4915
878.441	4942
878.568	4809
878.696	4820
878.824	4915
878.951	4972
879.079	5132
879.206	5307
879.333	5098
879.461	4968
879.588	4957
879.715	5086
879.842	5246
879.97	5022
880.097	4774
880.224	4752
880.351	4816
880.478	4801
880.605	4763
880.732	4824
880.859	5090
880.986	4930
881.112	4870
881.239	4809
881.366	4706
881.493	4622
881.619	4558
881.746	4599
881.872	4645
881.999	4649
882.125	4664
882.252	4812
882.378	4831
882.505	4965
882.631	4824
882.757	4656
882.883	4683
883.01	4755
883.136	4641
883.262	4611
883.388	4588
883.514	4793
883.64	4889
883.766	4771
883.892	4649
884.018	4698
884.143	4904
884.269	5003
884.395	4653
884.52	4622
884.646	4584
884.772	4607
884.897	4561
885.023	4622
885.148	4782
885.274	4820
885.399	4824
885.524	4679
885.65	4656
885.775	4706
885.9	4660
886.025	4850
886.15	4835
886.275	4714
886.4	4668
886.525	4717
886.65	4653
886.775	4679
886.9	4927
887.025	5045
887.149	4805
887.274	4611
887.399	4588
887.523	4603
887.648	4580
887.773	4599
887.897	4759
888.021	4767
888.146	4637
888.27	4831
888.395	4904
888.519	4843
888.643	4812
888.767	4812
888.891	4649
889.015	4618
889.139	4626
889.263	4569
889.387	4691
889.511	4854
889.635	4801
889.759	4634
889.883	4672
890.006	4729
890.13	4793
890.254	4607
890.377	4679
890.501	4489
890.624	4512
890.748	4615
890.871	4485
890.995	4459
891.118	4413
891.241	4508
891.364	4550
891.488	4626
891.611	4493
891.734	4550
891.857	4618
891.98	4538
892.103	4641
892.226	4630
892.349	4554
892.471	4405
892.594	4489
892.717	4615
892.839	4554
892.962	4538
893.085	4626
893.207	4580
893.33	4478
893.452	4500
893.575	4660
893.697	4577
893.819	4801
893.941	4824
894.064	4774
894.186	4561
894.308	4569
894.43	4744
894.552	4790
894.674	4767
894.796	4531
894.918	4592
895.04	4538
895.161	4755
895.283	4702
895.405	4561
895.526	4634
895.648	4664
895.769	4683
895.891	4725
896.012	4729
896.134	4725
896.255	4675
896.376	4618
896.498	4615
896.619	4691
896.74	4554
896.861	4675
896.982	4919
897.103	5090
897.224	4793
897.345	4706
897.466	4683
897.587	4641
897.708	4831
897.828	4786
897.949	4691
898.07	4569
898.19	4645
898.311	4793
898.431	4649
898.552	4714
898.672	4839
898.792	4801
898.913	4748
899.033	4622
899.153	4516
899.273	4440
899.393	4481
899.513	4516
899.633	4550
899.753	4546
899.873	4531
899.993	4573
900.113	4508
900.232	4573
900.352	4546
900.472	4462
900.591	4394
900.711	4497
900.83	4462
900.95	4588
901.069	4702
901.189	4508
901.308	4348
901.427	4287
901.546	4379
901.665	4443
901.784	4512
901.904	4360
902.023	4291
902.141	4215
902.26	4173
902.379	4284
902.498	4257
902.617	4246
902.735	4371
902.854	4413
902.973	4371
903.091	4207
903.21	4211
903.328	4280
903.446	4249
903.565	4227
903.683	4360
903.801	4287
903.919	4386
904.038	4394
904.156	4363
904.274	4436
904.392	4432
904.51	4409
904.627	4504
904.745	4599
904.863	4615
904.981	4413
905.098	4287
905.216	4333
905.334	4470
905.451	4402
905.569	4455
905.686	4538
905.803	4512
905.921	4405
906.038	4527
906.155	4455
906.272	4386
906.389	4497
906.506	4386
906.623	4409
906.74	4417
906.857	4261
906.974	4402
907.091	4584
907.208	4675
907.324	4580
907.441	4523
907.557	4337
907.674	4303
907.79	4318
907.907	4344
908.023	4478
908.139	4474
908.256	4432
908.372	4459
908.488	4451
908.604	4348
908.72	4344
908.836	4333
908.952	4352
909.068	4451
909.184	4573
909.3	4459
909.415	4622
909.531	4596
909.647	4337
909.762	4394
909.878	4325
909.993	4436
910.108	4436
910.224	4383
910.339	4470
910.454	4398
910.57	4352
910.685	4295
910.8	4656
910.915	4611
911.03	4504
911.145	4348
911.259	4287
911.374	4360
911.489	4295
911.604	4268
911.718	4150
911.833	4192
911.947	4055
912.062	4040
912.176	4234
912.291	4234
912.405	4284
912.519	4481
912.633	4508
912.748	4379
912.862	4265
912.976	4211
913.09	4059
913.204	4154
913.318	4246
913.431	4409
913.545	4352
913.659	4443
913.772	4348
913.886	4204
914	4185
914.113	4413
914.226	4447
914.34	4383
914.453	4219
914.566	4474
914.68	4284
914.793	4337
914.906	4131
915.019	4147
915.132	4101
915.245	4204
915.358	4169
915.47	4265
915.583	4291
915.696	4325
915.809	4405
915.921	4375
916.034	4230
916.146	4257
916.259	4249
916.371	4409
916.483	4371
916.595	4238
916.708	4303
916.82	4337
916.932	4333
917.044	4306
917.156	4348
917.268	4242
917.38	4261
917.491	4204
917.603	4344
917.715	4386
917.826	4428
917.938	4394
918.049	4284
918.161	4341
918.272	4481
918.384	4550
918.495	4470
918.606	4284
918.717	4196
918.828	4329
918.939	4383
919.05	4246
919.161	4360
919.272	4135
919.383	4253
919.494	4440
919.604	4668
919.715	4436
919.826	4398
919.936	4398
920.047	4516
920.157	4474
920.267	4683
920.378	4596
920.488	4508
920.598	4691
920.708	4873
920.818	4759
920.928	4771
921.038	4930
921.148	4919
921.258	4637
921.368	4588
921.477	4523
921.587	4485
921.697	4344
921.806	4527
921.916	4409
922.025	4238
922.134	4276
922.244	4238
922.353	4325
922.462	4177
922.571	4131
922.68	4025
922.789	4006
922.898	4040
923.007	3953
923.116	4109
923.224	4082
923.333	4097
923.442	3937
923.55	3945
923.659	4006
923.767	4109
923.876	3979
923.984	4162
924.092	4010
924.201	4086
924.309	4071
924.417	4139
924.525	4032
924.633	4101
924.741	5052
924.849	3915
924.956	4124
925.064	3941
925.172	3926
925.279	3918
925.387	4032
925.494	4090
925.602	4200
925.709	4147
925.816	4021
925.924	4150
926.031	4230
926.138	4166
926.245	4158
926.352	4082
926.459	4261
926.566	4291
926.673	4143
926.779	4101
926.886	4082
926.993	3983
927.099	3949
927.206	3956
927.312	3953
927.419	4013
927.525	4017
927.631	4093
927.737	3953
927.843	3918
927.95	3857
928.056	3979
928.162	4017
928.267	4059
928.373	4558
928.479	4101
928.585	3896
928.69	3994
928.796	4109
928.901	3983
929.007	3800
929.112	4017
929.218	3975
929.323	3907
929.428	3937
929.533	4143
929.638	3922
929.743	3930
929.848	4044
929.953	3960
930.058	3915
930.163	3804
930.267	3854
930.372	3983
930.477	3781
930.581	4093
930.685	3918
930.79	3827
930.894	3899
930.998	3835
931.103	4040
931.207	3690
931.311	3686
931.415	3671
931.519	3511
931.623	3568
