Data from test_V78500241_405.txt Node
Date: Fri Mar 25 16:51:49 CST 2022
User: usil
Spectrometer: V785-0024
Trigger mode: 0
Integration Time (sec): 4.000000E-1
Scans to average: 1
Nonlinearity correction enabled: false
Boxcar width: 0
Storing dark spectrum: false
XAxis mode: Wavelengths
Number of Pixels in Spectrum: 1024
>>>>>Begin Spectral Data<<<<<
801.071	8092
801.214	8016
801.356	7959
801.499	7890
801.641	7845
801.783	7913
801.926	8050
802.068	8012
802.211	8027
802.353	8020
802.496	7906
802.638	7932
802.78	8020
802.923	8008
803.065	7890
803.208	7928
803.35	8001
803.492	8077
803.635	8153
803.777	8077
803.919	8119
804.061	8469
804.204	8111
804.346	8149
804.488	7917
804.63	8081
804.773	8046
804.915	8103
805.057	8362
805.199	8199
805.341	8252
805.483	8275
805.626	8161
805.768	8039
805.91	8191
806.052	8244
806.194	8119
806.336	8362
806.478	8214
806.62	8107
806.762	8244
806.904	8286
807.046	8457
807.188	8366
807.33	8320
807.472	8355
807.614	8134
807.756	8195
807.898	8058
808.04	7909
808.182	8001
808.324	7989
808.465	7951
808.607	8035
808.749	8164
808.891	8221
809.033	8347
809.174	8214
809.316	8069
809.458	8161
809.6	8062
809.741	8088
809.883	8088
810.025	8058
810.166	8157
810.308	8054
810.45	8054
810.591	7921
810.733	7753
810.875	7636
811.016	7495
811.158	7578
811.299	7723
811.441	7776
811.582	7738
811.724	7670
811.865	7616
812.007	7715
812.148	7582
812.29	7693
812.431	7792
812.573	7974
812.714	8020
812.855	8149
812.997	8290
813.138	8351
813.279	8206
813.421	8168
813.562	8115
813.703	7852
813.845	7826
813.986	7578
814.127	7403
814.268	7301
814.41	7209
814.551	7282
814.692	7232
814.833	7137
814.974	7149
815.115	7202
815.256	7008
815.397	6890
815.539	6977
815.68	6871
815.821	6852
815.962	6943
816.103	6924
816.244	6757
816.385	6719
816.526	6662
816.666	6506
816.807	6361
816.948	6494
817.089	6502
817.23	6494
817.371	6479
817.512	6464
817.653	6464
817.793	6380
817.934	6433
818.075	6490
818.216	6456
818.356	6448
818.497	6258
818.638	6190
818.778	6171
818.919	6121
819.06	6209
819.2	6334
819.341	6353
819.481	6369
819.622	6566
819.762	6787
819.903	6700
820.043	6627
820.184	6570
820.324	6604
820.465	6749
820.605	6703
820.746	6715
820.886	6532
821.026	6642
821.167	6757
821.307	6810
821.447	6810
821.588	6715
821.728	6658
821.868	6528
822.008	6429
822.149	6418
822.289	6365
822.429	6152
822.569	6102
822.709	6129
822.849	5908
822.99	5942
823.13	5977
823.27	5908
823.41	5889
823.55	5805
823.69	5897
823.83	5828
823.97	5684
824.11	5630
824.25	5551
824.389	5619
824.529	5649
824.669	5585
824.809	5646
824.949	5741
825.089	5718
825.228	5570
825.368	5433
825.508	5391
825.648	5376
825.787	5448
825.927	5379
826.067	5345
826.206	5303
826.346	5429
826.485	5452
826.625	5452
826.765	5600
826.904	5486
827.044	5296
827.183	5174
827.323	5170
827.462	5258
827.601	5223
827.741	5193
827.88	5277
828.02	5170
828.159	5303
828.298	5277
828.437	5376
828.577	5284
828.716	5505
828.855	5368
828.994	5162
829.134	5265
829.273	5280
829.412	5212
829.551	5162
829.69	5166
829.829	5284
829.968	5341
830.107	5261
830.246	5311
830.385	5239
830.524	5201
830.663	5151
830.802	4987
830.941	4953
831.08	4923
831.219	5022
831.357	5022
831.496	5227
831.635	4965
831.774	4843
831.913	4858
832.051	4755
832.19	4816
832.329	4839
832.467	4740
832.606	4679
832.744	4721
832.883	4717
833.022	4714
833.16	4835
833.299	4904
833.437	4854
833.576	4854
833.714	4835
833.852	4885
833.991	4915
834.129	5025
834.267	4942
834.406	4900
834.544	5037
834.682	5010
834.821	5006
834.959	5208
835.097	5025
835.235	5170
835.373	5159
835.511	5155
835.65	5014
835.788	5064
835.926	4923
836.064	4949
836.202	4904
836.34	5181
836.478	5250
836.615	5147
836.753	5258
836.891	5250
837.029	5288
837.167	5227
837.305	5197
837.443	5178
837.58	5136
837.718	5277
837.856	5197
837.993	5197
838.131	5239
838.269	5261
838.406	5235
838.544	5242
838.681	5071
838.819	5098
838.956	4923
839.094	4927
839.231	5037
839.369	5094
839.506	5421
839.643	5273
839.781	5090
839.918	5064
840.055	5117
840.193	5109
840.33	5151
840.467	5159
840.604	5216
840.742	5444
840.879	5071
841.016	5140
841.153	5159
841.29	5383
841.427	5345
841.564	5299
841.701	5379
841.838	5246
841.975	5269
842.112	5299
842.249	5193
842.385	5159
842.522	5345
842.659	5227
842.796	5143
842.933	5254
843.069	5174
843.206	5174
843.343	5330
843.479	5227
843.616	5284
843.752	5056
843.889	5010
844.025	5296
844.162	5056
844.298	5242
844.435	5121
844.571	5033
844.708	5273
844.844	5368
844.98	5379
845.117	5296
845.253	5151
845.389	5086
845.525	5223
845.661	5197
845.798	5025
845.934	5117
846.07	5083
846.206	5201
846.342	5330
846.478	5181
846.614	5037
846.75	5010
846.886	4953
847.022	5162
847.158	5041
847.294	5083
847.429	5132
847.565	5071
847.701	5292
847.837	4854
847.972	4843
848.108	4984
848.244	4976
848.379	4782
848.515	4797
848.65	4679
848.786	4771
848.921	4820
849.057	4858
849.192	4934
849.328	4881
849.463	4858
849.598	4835
849.734	4752
849.869	4694
850.004	4634
850.14	4717
850.275	4668
850.41	4580
850.545	4592
850.68	4630
850.815	4645
850.95	4630
851.085	4881
851.22	4782
851.355	4679
851.49	4596
851.625	4664
851.76	4687
851.895	4565
852.03	4565
852.165	4649
852.299	4694
852.434	4812
852.569	4790
852.703	4801
852.838	4843
852.973	4976
853.107	4980
853.242	4790
853.376	4626
853.511	4561
853.645	4675
853.78	4820
853.914	4698
854.048	4675
854.183	4637
854.317	4679
854.451	4900
854.585	4668
854.72	4733
854.854	4767
854.988	4656
855.122	4615
855.256	4546
855.39	4660
855.524	4793
855.658	4740
855.792	4683
855.926	4736
856.06	4755
856.194	4873
856.327	4672
856.461	4630
856.595	4596
856.729	4664
856.862	4771
856.996	4748
857.13	4759
857.263	4767
857.397	4790
857.53	4702
857.664	4733
857.797	4763
857.931	4831
858.064	4714
858.197	4824
858.331	4717
858.464	4618
858.597	4546
858.731	4634
858.864	4622
858.997	4630
859.13	4710
859.263	4740
859.396	4759
859.529	4584
859.662	4626
859.795	4573
859.928	4698
860.061	4744
860.194	4809
860.327	4630
860.46	4580
860.592	4714
860.725	4748
860.858	4694
860.99	4607
861.123	4588
861.256	4573
861.388	4664
861.521	5444
861.653	4531
861.786	4466
861.918	4451
862.05	4596
862.183	4577
862.315	4660
862.447	4668
862.58	4569
862.712	4421
862.844	4379
862.976	4519
863.108	4500
863.24	4752
863.372	4352
863.504	4394
863.636	4421
863.768	4466
863.9	4466
864.032	4371
864.164	4440
864.296	4504
864.428	4573
864.559	4584
864.691	4558
864.823	4535
864.954	4512
865.086	4550
865.217	4428
865.349	4481
865.48	4470
865.612	4500
865.743	4668
865.875	4474
866.006	4474
866.137	4497
866.269	4451
866.4	4451
866.531	4455
866.662	4371
866.793	4424
866.924	4436
867.055	4554
867.186	4443
867.317	4455
867.448	4379
867.579	4436
867.71	4375
867.841	4375
867.972	4470
868.103	4489
868.233	4443
868.364	4489
868.495	4542
868.625	4649
868.756	4774
868.886	4584
869.017	4634
869.147	4850
869.278	4820
869.408	4672
869.539	4687
869.669	4725
869.799	4668
869.929	4767
870.06	4744
870.19	4984
870.32	4972
870.45	4972
870.58	5003
870.71	5121
870.84	5113
870.97	4965
871.1	4938
871.23	5140
871.36	5170
871.489	5048
871.619	5052
871.749	5124
871.879	5086
872.008	5197
872.138	5079
872.267	4984
872.397	4881
872.526	4812
872.656	4812
872.785	4858
872.915	4946
873.044	5048
873.173	4911
873.303	4949
873.432	4984
873.561	4949
873.69	4873
873.819	4816
873.948	4957
874.077	4850
874.206	4797
874.335	4790
874.464	4961
874.593	5117
874.722	4965
874.851	5094
874.979	5086
875.108	4984
875.237	4911
875.365	4873
875.494	4934
875.623	4968
875.751	4839
875.88	4896
876.008	4942
876.136	5067
876.265	5258
876.393	5372
876.521	5220
876.65	5299
876.778	5159
876.906	5094
877.034	5033
877.162	5052
877.29	5010
877.418	5102
877.546	5086
877.674	5109
877.802	5090
877.93	5056
878.058	4930
878.185	4885
878.313	4908
878.441	4934
878.568	4805
878.696	4908
878.824	4968
878.951	4987
879.079	5170
879.206	5292
879.333	5109
879.461	5010
879.588	4961
879.715	5102
879.842	5201
879.97	5048
880.097	4793
880.224	4733
880.351	4778
880.478	4809
880.605	4850
880.732	4790
880.859	5071
880.986	4927
881.112	4930
881.239	4812
881.366	4672
881.493	4611
881.619	4634
881.746	4641
881.872	4637
881.999	4634
882.125	4691
882.252	4786
882.378	4885
882.505	4968
882.631	4793
882.757	4660
882.883	4759
883.01	4771
883.136	4645
883.262	4577
883.388	4588
883.514	4831
883.64	4919
883.766	4771
883.892	4687
884.018	4736
884.143	4854
884.269	4999
884.395	4675
884.52	4656
884.646	4649
884.772	4599
884.897	4573
885.023	4668
885.148	4839
885.274	4805
885.399	4812
885.524	4763
885.65	4691
885.775	4740
885.9	4729
886.025	4862
886.15	4786
886.275	4736
886.4	4645
886.525	4729
886.65	4668
886.775	4744
886.9	4885
887.025	5018
887.149	4831
887.274	4641
887.399	4603
887.523	4558
887.648	4596
887.773	4596
887.897	4797
888.021	4771
888.146	4694
888.27	4828
888.395	4900
888.519	4805
888.643	4809
888.767	4820
888.891	4721
889.015	4637
889.139	4672
889.263	4596
889.387	4755
889.511	4858
889.635	4843
889.759	4637
889.883	4675
890.006	4702
890.13	4843
890.254	4603
890.377	4717
890.501	4550
890.624	4489
890.748	4691
890.871	4527
890.995	4466
891.118	4436
891.241	4481
891.364	4573
891.488	4664
891.611	4535
891.734	4538
891.857	4622
891.98	4592
892.103	4664
892.226	4580
892.349	4527
892.471	4390
892.594	4558
892.717	4565
892.839	4584
892.962	4649
893.085	4702
893.207	4588
893.33	4481
893.452	4512
893.575	4668
893.697	4588
893.819	4801
893.941	4809
894.064	4793
894.186	4603
894.308	4596
894.43	4721
894.552	4850
894.674	4736
894.796	4531
894.918	4611
895.04	4565
895.161	4691
895.283	4694
895.405	4580
895.526	4683
895.648	4660
895.769	4664
895.891	4691
896.012	4717
896.134	4710
896.255	4656
896.376	4664
896.498	4649
896.619	4653
896.74	4641
896.861	4615
896.982	4927
897.103	5102
897.224	4824
897.345	4748
897.466	4672
897.587	4767
897.708	4850
897.828	4801
897.949	4691
898.07	4577
898.19	4622
898.311	4786
898.431	4656
898.552	4721
898.672	4812
898.792	4782
898.913	4721
899.033	4641
899.153	4497
899.273	4459
899.393	4470
899.513	4550
899.633	4527
899.753	4504
899.873	4561
899.993	4596
900.113	4565
900.232	4622
900.352	4538
900.472	4500
900.591	4421
900.711	4500
900.83	4455
900.95	4634
901.069	4656
901.189	4504
901.308	4344
901.427	4303
901.546	4386
901.665	4447
901.784	4531
901.904	4386
902.023	4291
902.141	4200
902.26	4177
902.379	4287
902.498	4246
902.617	4215
902.735	4383
902.854	4417
902.973	4398
903.091	4223
903.21	4192
903.328	4325
903.446	4253
903.565	4272
903.683	4329
903.801	4230
903.919	4348
904.038	4390
904.156	4322
904.274	4432
904.392	4386
904.51	4413
904.627	4470
904.745	4592
904.863	4626
904.981	4421
905.098	4280
905.216	4383
905.334	4466
905.451	4413
905.569	4398
905.686	4516
905.803	4573
905.921	4421
906.038	4546
906.155	4527
906.272	4451
906.389	4481
906.506	4318
906.623	4356
906.74	4405
906.857	4310
906.974	4390
907.091	4531
907.208	4717
907.324	4599
907.441	4512
907.557	4333
907.674	4341
907.79	4352
907.907	4417
908.023	4474
908.139	4489
908.256	4474
908.372	4474
908.488	4443
908.604	4421
908.72	4291
908.836	4398
908.952	4337
909.068	4440
909.184	4611
909.3	4489
909.415	4599
909.531	4527
909.647	4379
909.762	4325
909.878	4360
909.993	4443
910.108	4440
910.224	4394
910.339	4516
910.454	4451
910.57	4348
910.685	4337
910.8	4637
910.915	4584
911.03	4508
911.145	4363
911.259	4337
911.374	4405
911.489	4314
911.604	4318
911.718	4185
911.833	4169
911.947	4097
912.062	4010
912.176	4268
912.291	4238
912.405	4223
912.519	4466
912.633	4500
912.748	4348
912.862	4306
912.976	4204
913.09	4105
913.204	4196
913.318	4291
913.431	4360
913.545	4371
913.659	4462
913.772	4371
913.886	4284
914	4253
914.113	4421
914.226	4432
914.34	4375
914.453	4223
914.566	4440
914.68	4337
914.793	4371
914.906	4169
915.019	4124
915.132	4086
915.245	4204
915.358	4211
915.47	4230
915.583	4204
915.696	4352
915.809	4428
915.921	4443
916.034	4238
916.146	4246
916.259	4234
916.371	4352
916.483	4344
916.595	4287
916.708	4325
916.82	4299
916.932	4329
917.044	4333
917.156	4303
917.268	4242
917.38	4265
917.491	4287
917.603	4329
917.715	4348
917.826	4474
917.938	4314
918.049	4249
918.161	4405
918.272	4512
918.384	4531
918.495	4447
918.606	4284
918.717	4219
918.828	4322
918.939	4375
919.05	4295
919.161	4295
919.272	4071
919.383	4246
919.494	4481
919.604	4660
919.715	4402
919.826	4409
919.936	4379
920.047	4512
920.157	4474
920.267	4725
920.378	4546
920.488	4500
920.598	4706
920.708	4847
920.818	4805
920.928	4748
921.038	5003
921.148	4942
921.258	4584
921.368	4558
921.477	4508
921.587	4436
921.697	4428
921.806	4516
921.916	4417
922.025	4257
922.134	4268
922.244	4253
922.353	4310
922.462	4169
922.571	4135
922.68	4002
922.789	3972
922.898	3991
923.007	3983
923.116	4071
923.224	4074
923.333	4101
923.442	3960
923.55	3968
923.659	4013
923.767	4055
923.876	4021
923.984	4124
924.092	3972
924.201	4059
924.309	4078
924.417	4135
924.525	4032
924.633	4097
924.741	5083
924.849	3956
924.956	4120
925.064	3975
925.172	3918
925.279	3975
925.387	4067
925.494	4017
925.602	4227
925.709	4188
925.816	4051
925.924	4105
926.031	4230
926.138	4196
926.245	4177
926.352	4105
926.459	4230
926.566	4299
926.673	4162
926.779	4063
926.886	4093
926.993	3956
927.099	3964
927.206	3903
927.312	3922
927.419	4150
927.525	4010
927.631	4067
927.737	3983
927.843	3911
927.95	3827
928.056	3934
928.162	3972
928.267	4059
928.373	4702
928.479	4116
928.585	3873
928.69	3998
928.796	4078
928.901	3975
929.007	3838
929.112	3994
929.218	3991
929.323	3926
929.428	3926
929.533	4158
929.638	3926
929.743	3949
929.848	4040
929.953	3953
930.058	3907
930.163	3759
930.267	3819
930.372	3983
930.477	3789
930.581	4040
930.685	3968
930.79	3831
930.894	3888
930.998	3846
931.103	4002
931.207	3671
931.311	3709
931.415	3663
931.519	3557
931.623	3561
