Data from test_V78500241_2544.txt Node
Date: Fri Mar 25 17:06:41 CST 2022
User: usil
Spectrometer: V785-0024
Trigger mode: 0
Integration Time (sec): 4.000000E-1
Scans to average: 1
Nonlinearity correction enabled: false
Boxcar width: 0
Storing dark spectrum: false
XAxis mode: Wavelengths
Number of Pixels in Spectrum: 1024
>>>>>Begin Spectral Data<<<<<
801.071	8016
801.214	7928
801.356	7917
801.499	7822
801.641	7750
801.783	7753
801.926	7970
802.068	7932
802.211	7936
802.353	7940
802.496	7837
802.638	7852
802.78	7913
802.923	7932
803.065	7883
803.208	7890
803.35	8020
803.492	8046
803.635	8172
803.777	8077
803.919	8229
804.061	8431
804.204	8180
804.346	8073
804.488	8020
804.63	8126
804.773	7982
804.915	8081
805.057	8309
805.199	8195
805.341	8191
805.483	8168
805.626	8221
805.768	8240
805.91	8221
806.052	8145
806.194	8054
806.336	8275
806.478	8081
806.62	8073
806.762	8123
806.904	8305
807.046	8438
807.188	8377
807.33	8305
807.472	8343
807.614	8119
807.756	8138
807.898	8016
808.04	7868
808.182	7849
808.324	7849
808.465	7917
808.607	8138
808.749	8115
808.891	8259
809.033	8336
809.174	8157
809.316	8100
809.458	8081
809.6	7989
809.741	8096
809.883	8039
810.025	8123
810.166	8111
810.308	8001
810.45	8084
810.591	7811
810.733	7769
810.875	7738
811.016	7491
811.158	7525
811.299	7567
811.441	7712
811.582	7655
811.724	7552
811.865	7567
812.007	7616
812.148	7620
812.29	7658
812.431	7715
812.573	7913
812.714	7978
812.855	8157
812.997	8199
813.138	8279
813.279	8176
813.421	8119
813.562	8027
813.703	7818
813.845	7738
813.986	7438
814.127	7247
814.268	7194
814.41	7141
814.551	7122
814.692	7217
814.833	7122
814.974	7080
815.115	7122
815.256	6981
815.397	6909
815.539	6947
815.68	6768
815.821	6757
815.962	6882
816.103	6833
816.244	6681
816.385	6582
816.526	6677
816.666	6566
816.807	6315
816.948	6475
817.089	6509
817.23	6414
817.371	6422
817.512	6395
817.653	6391
817.793	6353
817.934	6445
818.075	6422
818.216	6414
818.356	6426
818.497	6251
818.638	6079
818.778	6178
818.919	6171
819.06	6117
819.2	6342
819.341	6323
819.481	6384
819.622	6540
819.762	6795
819.903	6658
820.043	6612
820.184	6608
820.324	6555
820.465	6703
820.605	6658
820.746	6662
820.886	6513
821.026	6734
821.167	6738
821.307	6798
821.447	6776
821.588	6642
821.728	6589
821.868	6525
822.008	6289
822.149	6365
822.289	6357
822.429	6121
822.569	6098
822.709	6110
822.849	5942
822.99	5897
823.13	5931
823.27	5939
823.41	5813
823.55	5809
823.69	5760
823.83	5805
823.97	5661
824.11	5532
824.25	5512
824.389	5558
824.529	5562
824.669	5547
824.809	5634
824.949	5611
825.089	5619
825.228	5570
825.368	5391
825.508	5395
825.648	5277
825.787	5360
825.927	5406
826.067	5242
826.206	5280
826.346	5395
826.485	5368
826.625	5417
826.765	5589
826.904	5501
827.044	5258
827.183	5181
827.323	5113
827.462	5227
827.601	5170
827.741	5201
827.88	5246
828.02	5124
828.159	5239
828.298	5261
828.437	5387
828.577	5277
828.716	5497
828.855	5360
828.994	5162
829.134	5124
829.273	5189
829.412	5086
829.551	5094
829.69	5201
829.829	5292
829.968	5337
830.107	5246
830.246	5330
830.385	5178
830.524	5132
830.663	5033
830.802	4942
830.941	4904
831.08	4870
831.219	5029
831.357	4976
831.496	5189
831.635	4919
831.774	4881
831.913	4797
832.051	4710
832.19	4771
832.329	4831
832.467	4725
832.606	4599
832.744	4706
832.883	4668
833.022	4656
833.16	4850
833.299	4866
833.437	4892
833.576	4877
833.714	4889
833.852	4843
833.991	4847
834.129	4991
834.267	4957
834.406	4889
834.544	5041
834.682	5006
834.821	4961
834.959	5178
835.097	5006
835.235	5170
835.373	5109
835.511	5102
835.65	5025
835.788	4999
835.926	4892
836.064	4881
836.202	4949
836.34	5166
836.478	5261
836.615	5098
836.753	5220
836.891	5273
837.029	5265
837.167	5170
837.305	5162
837.443	5174
837.58	5090
837.718	5246
837.856	5181
837.993	5140
838.131	5307
838.269	5220
838.406	5128
838.544	5121
838.681	5060
838.819	5010
838.956	4885
839.094	4908
839.231	5018
839.369	5086
839.506	5421
839.643	5280
839.781	5052
839.918	4961
840.055	5124
840.193	5124
840.33	5086
840.467	5083
840.604	5197
840.742	5410
840.879	5083
841.016	5075
841.153	5105
841.29	5364
841.427	5341
841.564	5341
841.701	5322
841.838	5315
841.975	5235
842.112	5265
842.249	5128
842.385	5094
842.522	5307
842.659	5193
842.796	5181
842.933	5235
843.069	5098
843.206	5189
843.343	5292
843.479	5220
843.616	5280
843.752	5014
843.889	5018
844.025	5197
844.162	5075
844.298	5204
844.435	5067
844.571	5090
844.708	5178
844.844	5307
844.98	5368
845.117	5326
845.253	5174
845.389	5064
845.525	5098
845.661	5109
845.798	4995
845.934	5121
846.07	5029
846.206	5216
846.342	5311
846.478	5185
846.614	5033
846.75	4972
846.886	5006
847.022	5105
847.158	4980
847.294	5033
847.429	5117
847.565	5056
847.701	5364
847.837	4839
847.972	4835
848.108	4999
848.244	4934
848.379	4778
848.515	4698
848.65	4744
848.786	4729
848.921	4782
849.057	4930
849.192	4889
849.328	4793
849.463	4801
849.598	4797
849.734	4771
849.869	4679
850.004	4580
850.14	4687
850.275	4611
850.41	4523
850.545	4580
850.68	4569
850.815	4630
850.95	4675
851.085	4835
851.22	4740
851.355	4656
851.49	4622
851.625	4588
851.76	4637
851.895	4573
852.03	4573
852.165	4687
852.299	4755
852.434	4744
852.569	4725
852.703	4752
852.838	4870
852.973	4927
853.107	4904
853.242	4759
853.376	4675
853.511	4485
853.645	4622
853.78	4824
853.914	4683
854.048	4668
854.183	4588
854.317	4740
854.451	4854
854.585	4634
854.72	4649
854.854	4729
854.988	4577
855.122	4660
855.256	4535
855.39	4668
855.524	4774
855.658	4714
855.792	4710
855.926	4698
856.06	4736
856.194	4797
856.327	4668
856.461	4634
856.595	4615
856.729	4637
856.862	4843
856.996	4740
857.13	4759
857.263	4733
857.397	4809
857.53	4615
857.664	4698
857.797	4797
857.931	4755
858.064	4698
858.197	4717
858.331	4649
858.464	4588
858.597	4500
858.731	4599
858.864	4653
858.997	4592
859.13	4694
859.263	4702
859.396	4618
859.529	4558
859.662	4554
859.795	4561
859.928	4615
860.061	4767
860.194	4790
860.327	4596
860.46	4554
860.592	4710
860.725	4740
860.858	4740
860.99	4558
861.123	4508
861.256	4577
861.388	4656
861.521	5124
861.653	4466
861.786	4440
861.918	4447
862.05	4531
862.183	4561
862.315	4641
862.447	4653
862.58	4569
862.712	4436
862.844	4360
862.976	4424
863.108	4474
863.24	4801
863.372	4303
863.504	4421
863.636	4409
863.768	4440
863.9	4489
864.032	4386
864.164	4417
864.296	4481
864.428	4546
864.559	4550
864.691	4512
864.823	4489
864.954	4493
865.086	4497
865.217	4516
865.349	4421
865.48	4428
865.612	4474
865.743	4607
865.875	4440
866.006	4466
866.137	4474
866.269	4459
866.4	4432
866.531	4481
866.662	4363
866.793	4432
866.924	4413
867.055	4440
867.186	4493
867.317	4440
867.448	4375
867.579	4383
867.71	4447
867.841	4356
867.972	4447
868.103	4447
868.233	4451
868.364	4447
868.495	4512
868.625	4668
868.756	4729
868.886	4519
869.017	4611
869.147	4793
869.278	4740
869.408	4660
869.539	4592
869.669	4714
869.799	4615
869.929	4740
870.06	4714
870.19	4915
870.32	4961
870.45	4949
870.58	4980
870.71	5075
870.84	5121
870.97	4911
871.1	4873
871.23	5121
871.36	5083
871.489	5006
871.619	4991
871.749	5086
871.879	5045
872.008	5231
872.138	5094
872.267	4911
872.397	4873
872.526	4793
872.656	4721
872.785	4816
872.915	4957
873.044	5071
873.173	4927
873.303	4949
873.432	4961
873.561	4991
873.69	4919
873.819	4835
873.948	4896
874.077	4828
874.206	4763
874.335	4752
874.464	4919
874.593	5102
874.722	4953
874.851	5117
874.979	5041
875.108	5056
875.237	4942
875.365	4911
875.494	4850
875.623	4984
875.751	4824
875.88	4847
876.008	4968
876.136	4999
876.265	5223
876.393	5337
876.521	5311
876.65	5242
876.778	5162
876.906	5094
877.034	5102
877.162	5010
877.29	5006
877.418	5056
877.546	5048
877.674	5060
877.802	5045
877.93	5033
878.058	4968
878.185	4892
878.313	4976
878.441	4942
878.568	4824
878.696	4892
878.824	4972
878.951	4965
879.079	5124
879.206	5250
879.333	5067
879.461	5006
879.588	5018
879.715	5075
879.842	5151
879.97	4984
880.097	4778
880.224	4733
880.351	4816
880.478	4835
880.605	4801
880.732	4793
880.859	5086
880.986	4885
881.112	4911
881.239	4793
881.366	4656
881.493	4626
881.619	4607
881.746	4641
881.872	4702
881.999	4664
882.125	4611
882.252	4812
882.378	4835
882.505	4942
882.631	4790
882.757	4691
882.883	4755
883.01	4687
883.136	4672
883.262	4592
883.388	4630
883.514	4809
883.64	4881
883.766	4767
883.892	4698
884.018	4717
884.143	4850
884.269	4987
884.395	4656
884.52	4649
884.646	4645
884.772	4637
884.897	4558
885.023	4664
885.148	4831
885.274	4870
885.399	4831
885.524	4668
885.65	4679
885.775	4767
885.9	4733
886.025	4896
886.15	4816
886.275	4717
886.4	4637
886.525	4725
886.65	4687
886.775	4653
886.9	4923
887.025	5025
887.149	4873
887.274	4656
887.399	4580
887.523	4584
887.648	4550
887.773	4603
887.897	4771
888.021	4809
888.146	4683
888.27	4797
888.395	4904
888.519	4790
888.643	4786
888.767	4900
888.891	4691
889.015	4592
889.139	4653
889.263	4656
889.387	4759
889.511	4854
889.635	4801
889.759	4630
889.883	4611
890.006	4675
890.13	4843
890.254	4630
890.377	4645
890.501	4542
890.624	4512
890.748	4626
890.871	4573
890.995	4451
891.118	4390
891.241	4550
891.364	4538
891.488	4615
891.611	4478
891.734	4493
891.857	4603
891.98	4573
892.103	4603
892.226	4618
892.349	4523
892.471	4394
892.594	4596
892.717	4607
892.839	4611
892.962	4580
893.085	4675
893.207	4573
893.33	4436
893.452	4531
893.575	4611
893.697	4577
893.819	4820
893.941	4870
894.064	4763
894.186	4611
894.308	4565
894.43	4755
894.552	4771
894.674	4748
894.796	4550
894.918	4622
895.04	4592
895.161	4683
895.283	4656
895.405	4565
895.526	4615
895.648	4725
895.769	4702
895.891	4725
896.012	4771
896.134	4733
896.255	4672
896.376	4645
896.498	4637
896.619	4653
896.74	4588
896.861	4637
896.982	4942
897.103	5056
897.224	4824
897.345	4706
897.466	4679
897.587	4668
897.708	4835
897.828	4752
897.949	4687
898.07	4569
898.19	4649
898.311	4809
898.431	4645
898.552	4733
898.672	4812
898.792	4755
898.913	4714
899.033	4573
899.153	4481
899.273	4436
899.393	4493
899.513	4554
899.633	4607
899.753	4577
899.873	4500
899.993	4592
900.113	4523
900.232	4577
900.352	4596
900.472	4489
900.591	4390
900.711	4466
900.83	4440
900.95	4607
901.069	4694
901.189	4577
901.308	4352
901.427	4322
901.546	4348
901.665	4466
901.784	4504
901.904	4394
902.023	4318
902.141	4154
902.26	4177
902.379	4303
902.498	4272
902.617	4223
902.735	4363
902.854	4424
902.973	4322
903.091	4215
903.21	4261
903.328	4272
903.446	4287
903.565	4246
903.683	4333
903.801	4318
903.919	4379
904.038	4417
904.156	4284
904.274	4409
904.392	4413
904.51	4451
904.627	4462
904.745	4550
904.863	4634
904.981	4386
905.098	4325
905.216	4379
905.334	4413
905.451	4436
905.569	4424
905.686	4561
905.803	4569
905.921	4379
906.038	4561
906.155	4462
906.272	4398
906.389	4462
906.506	4341
906.623	4356
906.74	4363
906.857	4333
906.974	4383
907.091	4546
907.208	4637
907.324	4523
907.441	4489
907.557	4306
907.674	4363
907.79	4280
907.907	4428
908.023	4443
908.139	4523
908.256	4402
908.372	4462
908.488	4443
908.604	4363
908.72	4314
908.836	4356
908.952	4402
909.068	4417
909.184	4565
909.3	4512
909.415	4554
909.531	4615
909.647	4386
909.762	4402
909.878	4352
909.993	4481
910.108	4383
910.224	4371
910.339	4466
910.454	4398
910.57	4325
910.685	4306
910.8	4569
910.915	4584
911.03	4497
911.145	4325
911.259	4356
911.374	4390
911.489	4261
911.604	4227
911.718	4192
911.833	4154
911.947	4078
912.062	4036
912.176	4207
912.291	4249
912.405	4242
912.519	4440
912.633	4523
912.748	4405
912.862	4348
912.976	4200
913.09	4120
913.204	4192
913.318	4238
913.431	4386
913.545	4402
913.659	4402
913.772	4409
913.886	4227
914	4219
914.113	4367
914.226	4447
914.34	4409
914.453	4196
914.566	4390
914.68	4303
914.793	4238
914.906	4185
915.019	4074
915.132	4078
915.245	4169
915.358	4223
915.47	4242
915.583	4268
915.696	4249
915.809	4390
915.921	4424
916.034	4291
916.146	4211
916.259	4253
916.371	4386
916.483	4398
916.595	4249
916.708	4306
916.82	4322
916.932	4303
917.044	4352
917.156	4341
917.268	4227
917.38	4272
917.491	4257
917.603	4314
917.715	4413
917.826	4390
917.938	4325
918.049	4242
918.161	4375
918.272	4535
918.384	4523
918.495	4421
918.606	4257
918.717	4227
918.828	4325
918.939	4360
919.05	4230
919.161	4325
919.272	4150
919.383	4204
919.494	4440
919.604	4687
919.715	4424
919.826	4367
919.936	4402
920.047	4569
920.157	4493
920.267	4683
920.378	4550
920.488	4497
920.598	4698
920.708	4835
920.818	4725
920.928	4763
921.038	4942
921.148	4919
921.258	4622
921.368	4531
921.477	4481
921.587	4497
921.697	4394
921.806	4542
921.916	4428
922.025	4272
922.134	4261
922.244	4242
922.353	4337
922.462	4162
922.571	4128
922.68	4006
922.789	3956
922.898	4010
923.007	3983
923.116	4090
923.224	4105
923.333	4086
923.442	3941
923.55	3979
923.659	4055
923.767	4147
923.876	4055
923.984	4109
924.092	3979
924.201	4071
924.309	4055
924.417	4150
924.525	4071
924.633	4116
924.741	5060
924.849	3899
924.956	4147
925.064	3960
925.172	3899
925.279	3937
925.387	4051
925.494	4013
925.602	4234
925.709	4196
925.816	4025
925.924	4116
926.031	4230
926.138	4162
926.245	4204
926.352	4067
926.459	4265
926.566	4325
926.673	4177
926.779	4078
926.886	4105
926.993	3991
927.099	3964
927.206	3979
927.312	3907
927.419	4036
927.525	3998
927.631	4143
927.737	4010
927.843	3915
927.95	3808
928.056	3941
928.162	3975
928.267	4067
928.373	4637
928.479	4131
928.585	3873
928.69	4055
928.796	4078
928.901	3983
929.007	3857
929.112	4002
929.218	3956
929.323	3945
929.428	3926
929.533	4105
929.638	3953
929.743	3968
929.848	4002
929.953	4017
930.058	3930
930.163	3827
930.267	3804
930.372	3968
930.477	3804
930.581	4120
930.685	3918
930.79	3819
930.894	3869
930.998	3842
931.103	4002
931.207	3732
931.311	3671
931.415	3652
931.519	3534
931.623	3576
