Data from test_V78500241_1195.txt Node
Date: Fri Mar 25 16:57:18 CST 2022
User: usil
Spectrometer: V785-0024
Trigger mode: 0
Integration Time (sec): 4.000000E-1
Scans to average: 1
Nonlinearity correction enabled: false
Boxcar width: 0
Storing dark spectrum: false
XAxis mode: Wavelengths
Number of Pixels in Spectrum: 1024
>>>>>Begin Spectral Data<<<<<
801.071	8092
801.214	8069
801.356	7845
801.499	7753
801.641	7761
801.783	7830
801.926	7906
802.068	7951
802.211	7970
802.353	7940
802.496	7833
802.638	7868
802.78	7887
802.923	7906
803.065	7906
803.208	7875
803.35	7989
803.492	8020
803.635	8195
803.777	8016
803.919	8130
804.061	8442
804.204	8126
804.346	8012
804.488	7967
804.63	8092
804.773	7970
804.915	8149
805.057	8237
805.199	8161
805.341	8202
805.483	8263
805.626	8134
805.768	8092
805.91	8225
806.052	8161
806.194	8073
806.336	8271
806.478	8054
806.62	8054
806.762	8096
806.904	8229
807.046	8450
807.188	8320
807.33	8267
807.472	8320
807.614	8164
807.756	8069
807.898	8073
808.04	7909
808.182	7890
808.324	7890
808.465	7925
808.607	8084
808.749	8134
808.891	8161
809.033	8210
809.174	8168
809.316	8016
809.458	8039
809.6	7963
809.741	8035
809.883	8012
810.025	8054
810.166	8039
810.308	8020
810.45	8008
810.591	7837
810.733	7761
810.875	7567
811.016	7487
811.158	7533
811.299	7571
811.441	7727
811.582	7670
811.724	7609
811.865	7499
812.007	7605
812.148	7578
812.29	7544
812.431	7693
812.573	7864
812.714	7951
812.855	8069
812.997	8145
813.138	8263
813.279	8130
813.421	8073
813.562	8012
813.703	7818
813.845	7696
813.986	7464
814.127	7217
814.268	7255
814.41	7171
814.551	7175
814.692	7126
814.833	7061
814.974	7114
815.115	7091
815.256	6951
815.397	6951
815.539	6905
815.68	6871
815.821	6795
815.962	6844
816.103	6787
816.244	6700
816.385	6597
816.526	6601
816.666	6445
816.807	6311
816.948	6448
817.089	6471
817.23	6399
817.371	6365
817.512	6357
817.653	6319
817.793	6331
817.934	6384
818.075	6422
818.216	6357
818.356	6323
818.497	6281
818.638	6114
818.778	6171
818.919	6163
819.06	6159
819.2	6304
819.341	6357
819.481	6376
819.622	6506
819.762	6677
819.903	6684
820.043	6551
820.184	6620
820.324	6559
820.465	6681
820.605	6623
820.746	6578
820.886	6498
821.026	6578
821.167	6623
821.307	6772
821.447	6707
821.588	6639
821.728	6486
821.868	6521
822.008	6281
822.149	6331
822.289	6338
822.429	6117
822.569	6041
822.709	6041
822.849	5874
822.99	5908
823.13	5844
823.27	5901
823.41	5741
823.55	5745
823.69	5745
823.83	5756
823.97	5676
824.11	5535
824.25	5490
824.389	5547
824.529	5615
824.669	5554
824.809	5577
824.949	5665
825.089	5566
825.228	5570
825.368	5368
825.508	5326
825.648	5345
825.787	5337
825.927	5353
826.067	5280
826.206	5258
826.346	5379
826.485	5410
826.625	5379
826.765	5551
826.904	5471
827.044	5216
827.183	5239
827.323	5075
827.462	5261
827.601	5170
827.741	5235
827.88	5223
828.02	5159
828.159	5258
828.298	5326
828.437	5357
828.577	5280
828.716	5452
828.855	5334
828.994	5136
829.134	5143
829.273	5178
829.412	5181
829.551	5170
829.69	5147
829.829	5292
829.968	5417
830.107	5318
830.246	5277
830.385	5254
830.524	5185
830.663	5109
830.802	4972
830.941	4919
831.08	4927
831.219	4984
831.357	4999
831.496	5193
831.635	4991
831.774	4858
831.913	4885
832.051	4748
832.19	4759
832.329	4873
832.467	4702
832.606	4683
832.744	4736
832.883	4717
833.022	4736
833.16	4797
833.299	4877
833.437	4858
833.576	4873
833.714	4889
833.852	4904
833.991	4873
834.129	4995
834.267	5029
834.406	5006
834.544	5006
834.682	4980
834.821	4930
834.959	5193
835.097	5025
835.235	5140
835.373	5132
835.511	5155
835.65	5029
835.788	5048
835.926	4881
836.064	4900
836.202	4927
836.34	5189
836.478	5212
836.615	5117
836.753	5296
836.891	5326
837.029	5330
837.167	5204
837.305	5155
837.443	5208
837.58	5079
837.718	5288
837.856	5250
837.993	5166
838.131	5239
838.269	5208
838.406	5307
838.544	5220
838.681	5090
838.819	5075
838.956	4965
839.094	4911
839.231	4995
839.369	5094
839.506	5383
839.643	5277
839.781	5121
839.918	5033
840.055	5143
840.193	5159
840.33	5155
840.467	5162
840.604	5204
840.742	5448
840.879	5090
841.016	5056
841.153	5174
841.29	5421
841.427	5395
841.564	5288
841.701	5353
841.838	5296
841.975	5280
842.112	5318
842.249	5109
842.385	5128
842.522	5429
842.659	5201
842.796	5132
842.933	5220
843.069	5151
843.206	5178
843.343	5303
843.479	5318
843.616	5273
843.752	5071
843.889	5029
844.025	5216
844.162	4976
844.298	5250
844.435	5102
844.571	5083
844.708	5223
844.844	5269
844.98	5337
845.117	5258
845.253	5178
845.389	5102
845.525	5117
845.661	5113
845.798	5079
845.934	5239
846.07	5048
846.206	5181
846.342	5231
846.478	5185
846.614	5060
846.75	5041
846.886	4942
847.022	5193
847.158	5025
847.294	5086
847.429	5083
847.565	5037
847.701	5337
847.837	4877
847.972	4850
848.108	5014
848.244	4923
848.379	4805
848.515	4729
848.65	4793
848.786	4733
848.921	4824
849.057	4911
849.192	4942
849.328	4828
849.463	4946
849.598	4797
849.734	4752
849.869	4710
850.004	4656
850.14	4679
850.275	4664
850.41	4580
850.545	4577
850.68	4626
850.815	4649
850.95	4675
851.085	4850
851.22	4759
851.355	4706
851.49	4637
851.625	4687
851.76	4645
851.895	4592
852.03	4554
852.165	4637
852.299	4714
852.434	4793
852.569	4767
852.703	4809
852.838	4870
852.973	4927
853.107	4949
853.242	4782
853.376	4641
853.511	4573
853.645	4622
853.78	4774
853.914	4763
854.048	4660
854.183	4656
854.317	4687
854.451	4908
854.585	4759
854.72	4683
854.854	4763
854.988	4607
855.122	4694
855.256	4531
855.39	4672
855.524	4771
855.658	4736
855.792	4740
855.926	4736
856.06	4790
856.194	4782
856.327	4710
856.461	4694
856.595	4641
856.729	4641
856.862	4748
856.996	4729
857.13	4740
857.263	4786
857.397	4843
857.53	4675
857.664	4748
857.797	4778
857.931	4763
858.064	4656
858.197	4790
858.331	4649
858.464	4607
858.597	4538
858.731	4588
858.864	4675
858.997	4626
859.13	4668
859.263	4702
859.396	4706
859.529	4649
859.662	4607
859.795	4542
859.928	4649
860.061	4801
860.194	4820
860.327	4630
860.46	4656
860.592	4714
860.725	4717
860.858	4744
860.99	4611
861.123	4573
861.256	4508
861.388	4634
861.521	5311
861.653	4516
861.786	4462
861.918	4440
862.05	4569
862.183	4588
862.315	4577
862.447	4710
862.58	4569
862.712	4394
862.844	4375
862.976	4462
863.108	4447
863.24	4892
863.372	4379
863.504	4428
863.636	4432
863.768	4497
863.9	4443
864.032	4363
864.164	4386
864.296	4508
864.428	4565
864.559	4527
864.691	4569
864.823	4546
864.954	4493
865.086	4558
865.217	4493
865.349	4428
865.48	4443
865.612	4493
865.743	4710
865.875	4504
866.006	4432
866.137	4455
866.269	4462
866.4	4451
866.531	4493
866.662	4386
866.793	4386
866.924	4417
867.055	4508
867.186	4504
867.317	4421
867.448	4413
867.579	4405
867.71	4455
867.841	4424
867.972	4474
868.103	4447
868.233	4493
868.364	4462
868.495	4497
868.625	4679
868.756	4782
868.886	4577
869.017	4660
869.147	4793
869.278	4729
869.408	4660
869.539	4641
869.669	4721
869.799	4679
869.929	4755
870.06	4702
870.19	5014
870.32	4908
870.45	4942
870.58	4980
870.71	5124
870.84	5094
870.97	4953
871.1	4885
871.23	5166
871.36	5124
871.489	5060
871.619	5086
871.749	5117
871.879	5132
872.008	5155
872.138	5056
872.267	5022
872.397	4908
872.526	4812
872.656	4782
872.785	4843
872.915	4961
873.044	5045
873.173	4927
873.303	4965
873.432	4957
873.561	4953
873.69	4919
873.819	4877
873.948	4930
874.077	4828
874.206	4755
874.335	4850
874.464	4911
874.593	5064
874.722	4927
874.851	5124
874.979	5079
875.108	5071
875.237	4889
875.365	4900
875.494	4839
875.623	4987
875.751	4809
875.88	4889
876.008	4965
876.136	5056
876.265	5193
876.393	5379
876.521	5280
876.65	5269
876.778	5166
876.906	5128
877.034	5048
877.162	5098
877.29	4984
877.418	5022
877.546	5102
877.674	5075
877.802	5014
877.93	5018
878.058	4892
878.185	4881
878.313	4957
878.441	4942
878.568	4831
878.696	4904
878.824	4957
878.951	5025
879.079	5102
879.206	5292
879.333	5075
879.461	5033
879.588	4987
879.715	5147
879.842	5254
879.97	5029
880.097	4824
880.224	4736
880.351	4854
880.478	4805
880.605	4805
880.732	4767
880.859	5121
880.986	4930
881.112	4946
881.239	4778
881.366	4679
881.493	4618
881.619	4599
881.746	4714
881.872	4611
881.999	4668
882.125	4683
882.252	4790
882.378	4805
882.505	4953
882.631	4862
882.757	4679
882.883	4721
883.01	4736
883.136	4660
883.262	4626
883.388	4615
883.514	4790
883.64	4873
883.766	4767
883.892	4694
884.018	4672
884.143	4915
884.269	5010
884.395	4675
884.52	4618
884.646	4645
884.772	4542
884.897	4542
885.023	4683
885.148	4793
885.274	4911
885.399	4809
885.524	4721
885.65	4725
885.775	4793
885.9	4683
886.025	4824
886.15	4790
886.275	4706
886.4	4691
886.525	4778
886.65	4721
886.775	4729
886.9	4934
887.025	4968
887.149	4843
887.274	4675
887.399	4592
887.523	4577
887.648	4599
887.773	4596
887.897	4816
888.021	4778
888.146	4710
888.27	4835
888.395	4965
888.519	4820
888.643	4812
888.767	4805
888.891	4656
889.015	4626
889.139	4694
889.263	4603
889.387	4733
889.511	4850
889.635	4828
889.759	4649
889.883	4641
890.006	4763
890.13	4858
890.254	4653
890.377	4664
890.501	4561
890.624	4565
890.748	4649
890.871	4531
890.995	4421
891.118	4428
891.241	4561
891.364	4554
891.488	4664
891.611	4500
891.734	4577
891.857	4630
891.98	4580
892.103	4668
892.226	4558
892.349	4527
892.471	4455
892.594	4577
892.717	4645
892.839	4592
892.962	4611
893.085	4660
893.207	4622
893.33	4443
893.452	4527
893.575	4675
893.697	4599
893.819	4828
893.941	4820
894.064	4809
894.186	4577
894.308	4592
894.43	4763
894.552	4790
894.674	4744
894.796	4565
894.918	4596
895.04	4531
895.161	4672
895.283	4664
895.405	4592
895.526	4584
895.648	4683
895.769	4672
895.891	4683
896.012	4729
896.134	4721
896.255	4706
896.376	4653
896.498	4588
896.619	4641
896.74	4596
896.861	4668
896.982	4911
897.103	5071
897.224	4839
897.345	4706
897.466	4656
897.587	4752
897.708	4866
897.828	4854
897.949	4615
898.07	4577
898.19	4641
898.311	4820
898.431	4649
898.552	4767
898.672	4752
898.792	4790
898.913	4748
899.033	4611
899.153	4497
899.273	4432
899.393	4523
899.513	4554
899.633	4558
899.753	4512
899.873	4546
899.993	4596
900.113	4504
900.232	4588
900.352	4558
900.472	4512
900.591	4398
900.711	4474
900.83	4432
900.95	4622
901.069	4717
901.189	4542
901.308	4356
901.427	4341
901.546	4363
901.665	4512
901.784	4527
901.904	4398
902.023	4356
902.141	4173
902.26	4223
902.379	4333
902.498	4272
902.617	4265
902.735	4360
902.854	4417
902.973	4348
903.091	4200
903.21	4261
903.328	4375
903.446	4287
903.565	4306
903.683	4405
903.801	4333
903.919	4432
904.038	4459
904.156	4375
904.274	4481
904.392	4409
904.51	4451
904.627	4512
904.745	4622
904.863	4664
904.981	4428
905.098	4356
905.216	4417
905.334	4459
905.451	4497
905.569	4474
905.686	4607
905.803	4603
905.921	4447
906.038	4592
906.155	4493
906.272	4436
906.389	4489
906.506	4386
906.623	4470
906.74	4462
906.857	4318
906.974	4497
907.091	4573
907.208	4744
907.324	4645
907.441	4527
907.557	4402
907.674	4405
907.79	4383
907.907	4421
908.023	4531
908.139	4516
908.256	4497
908.372	4504
908.488	4516
908.604	4417
908.72	4386
908.836	4440
908.952	4386
909.068	4462
909.184	4611
909.3	4504
909.415	4603
909.531	4565
909.647	4405
909.762	4375
909.878	4367
909.993	4500
910.108	4440
910.224	4440
910.339	4451
910.454	4466
910.57	4375
910.685	4333
910.8	4637
910.915	4645
911.03	4504
911.145	4325
911.259	4341
911.374	4428
911.489	4337
911.604	4337
911.718	4223
911.833	4249
911.947	4112
912.062	4063
912.176	4204
912.291	4325
912.405	4276
912.519	4459
912.633	4538
912.748	4402
912.862	4356
912.976	4219
913.09	4131
913.204	4192
913.318	4284
913.431	4402
913.545	4367
913.659	4474
913.772	4417
913.886	4257
914	4322
914.113	4409
914.226	4443
914.34	4440
914.453	4246
914.566	4421
914.68	4344
914.793	4314
914.906	4230
915.019	4147
915.132	4093
915.245	4211
915.358	4257
915.47	4234
915.583	4310
915.696	4333
915.809	4432
915.921	4443
916.034	4291
916.146	4291
916.259	4284
916.371	4409
916.483	4356
916.595	4280
916.708	4386
916.82	4314
916.932	4348
917.044	4375
917.156	4352
917.268	4261
917.38	4325
917.491	4299
917.603	4390
917.715	4462
917.826	4485
917.938	4405
918.049	4287
918.161	4447
918.272	4584
918.384	4592
918.495	4474
918.606	4371
918.717	4261
918.828	4363
918.939	4417
919.05	4261
919.161	4367
919.272	4177
919.383	4261
919.494	4470
919.604	4675
919.715	4481
919.826	4367
919.936	4383
920.047	4561
920.157	4500
920.267	4721
920.378	4580
920.488	4523
920.598	4721
920.708	4885
920.818	4778
920.928	4790
921.038	4976
921.148	4968
921.258	4653
921.368	4615
921.477	4531
921.587	4432
921.697	4394
921.806	4592
921.916	4485
922.025	4299
922.134	4310
922.244	4265
922.353	4299
922.462	4200
922.571	4158
922.68	4017
922.789	4025
922.898	4025
923.007	4025
923.116	4120
923.224	4131
923.333	4116
923.442	4029
923.55	3991
923.659	4055
923.767	4154
923.876	4032
923.984	4150
924.092	4002
924.201	4131
924.309	4074
924.417	4154
924.525	4067
924.633	4120
924.741	5045
924.849	3930
924.956	4147
925.064	3968
925.172	3956
925.279	3979
925.387	4105
925.494	4078
925.602	4207
925.709	4188
925.816	4071
925.924	4143
926.031	4284
926.138	4188
926.245	4242
926.352	4162
926.459	4265
926.566	4356
926.673	4200
926.779	4071
926.886	4071
926.993	4025
927.099	3987
927.206	3945
927.312	3972
927.419	4093
927.525	4055
927.631	4101
927.737	4021
927.843	3930
927.95	3880
928.056	3991
928.162	3979
928.267	4116
928.373	4733
928.479	4128
928.585	3880
928.69	4063
928.796	4090
928.901	4029
929.007	3880
929.112	4013
929.218	4032
929.323	4006
929.428	3960
929.533	4109
929.638	3960
929.743	4006
929.848	4078
929.953	4002
930.058	3941
930.163	3816
930.267	3831
930.372	4010
930.477	3827
930.581	4120
930.685	3979
930.79	3888
930.894	3896
930.998	3861
931.103	4063
931.207	3766
931.311	3743
931.415	3698
931.519	3549
931.623	3584
