Data from test_V78500241_2704.txt Node
Date: Fri Mar 25 17:07:48 CST 2022
User: usil
Spectrometer: V785-0024
Trigger mode: 0
Integration Time (sec): 4.000000E-1
Scans to average: 1
Nonlinearity correction enabled: false
Boxcar width: 0
Storing dark spectrum: false
XAxis mode: Wavelengths
Number of Pixels in Spectrum: 1024
>>>>>Begin Spectral Data<<<<<
801.071	8069
801.214	8008
801.356	7879
801.499	7879
801.641	7772
801.783	7826
801.926	7955
802.068	7906
802.211	8065
802.353	8081
802.496	7887
802.638	7860
802.78	7875
802.923	7925
803.065	7932
803.208	7879
803.35	8046
803.492	8142
803.635	8214
803.777	8020
803.919	8187
804.061	8476
804.204	8172
804.346	8092
804.488	7989
804.63	8134
804.773	8024
804.915	8073
805.057	8298
805.199	8142
805.341	8183
805.483	8294
805.626	8229
805.768	8202
805.91	8221
806.052	8240
806.194	8107
806.336	8282
806.478	8092
806.62	8050
806.762	8077
806.904	8244
807.046	8450
807.188	8423
807.33	8355
807.472	8332
807.614	8191
807.756	8130
807.898	7986
808.04	7951
808.182	7860
808.324	7856
808.465	8035
808.607	8130
808.749	8111
808.891	8267
809.033	8298
809.174	8237
809.316	8050
809.458	8092
809.6	8039
809.741	8005
809.883	8001
810.025	8103
810.166	8077
810.308	7970
810.45	8046
810.591	7860
810.733	7753
810.875	7693
811.016	7518
811.158	7521
811.299	7559
811.441	7727
811.582	7696
811.724	7590
811.865	7594
812.007	7586
812.148	7613
812.29	7628
812.431	7734
812.573	7909
812.714	8111
812.855	8149
812.997	8199
813.138	8313
813.279	8161
813.421	8123
813.562	8039
813.703	7871
813.845	7761
813.986	7453
814.127	7266
814.268	7187
814.41	7187
814.551	7156
814.692	7263
814.833	7004
814.974	7076
815.115	7091
815.256	6996
815.397	6954
815.539	6886
815.68	6848
815.821	6776
815.962	6894
816.103	6871
816.244	6684
816.385	6696
816.526	6627
816.666	6540
816.807	6254
816.948	6452
817.089	6479
817.23	6422
817.371	6391
817.512	6422
817.653	6403
817.793	6384
817.934	6460
818.075	6494
818.216	6445
818.356	6441
818.497	6304
818.638	6155
818.778	6152
818.919	6140
819.06	6201
819.2	6300
819.341	6281
819.481	6395
819.622	6502
819.762	6673
819.903	6741
820.043	6658
820.184	6540
820.324	6566
820.465	6696
820.605	6677
820.746	6681
820.886	6536
821.026	6681
821.167	6726
821.307	6848
821.447	6791
821.588	6700
821.728	6540
821.868	6429
822.008	6323
822.149	6308
822.289	6319
822.429	6095
822.569	6045
822.709	6098
822.849	5901
822.99	5828
823.13	5942
823.27	5885
823.41	5805
823.55	5844
823.69	5729
823.83	5775
823.97	5646
824.11	5581
824.25	5547
824.389	5562
824.529	5630
824.669	5566
824.809	5630
824.949	5653
825.089	5657
825.228	5547
825.368	5372
825.508	5299
825.648	5349
825.787	5429
825.927	5364
826.067	5307
826.206	5284
826.346	5406
826.485	5433
826.625	5357
826.765	5558
826.904	5509
827.044	5284
827.183	5208
827.323	5193
827.462	5223
827.601	5185
827.741	5208
827.88	5235
828.02	5102
828.159	5193
828.298	5322
828.437	5273
828.577	5265
828.716	5471
828.855	5334
828.994	5143
829.134	5140
829.273	5178
829.412	5147
829.551	5143
829.69	5140
829.829	5261
829.968	5349
830.107	5284
830.246	5296
830.385	5181
830.524	5117
830.663	5075
830.802	5029
830.941	4854
831.08	4850
831.219	4984
831.357	4980
831.496	5124
831.635	4896
831.774	4820
831.913	4801
832.051	4698
832.19	4786
832.329	4870
832.467	4653
832.606	4622
832.744	4710
832.883	4759
833.022	4752
833.16	4778
833.299	4778
833.437	4858
833.576	4786
833.714	4850
833.852	4831
833.991	4885
834.129	4980
834.267	4953
834.406	4911
834.544	4972
834.682	4984
834.821	4934
834.959	5140
835.097	4987
835.235	5143
835.373	5109
835.511	5098
835.65	5045
835.788	5010
835.926	4854
836.064	4881
836.202	4911
836.34	5208
836.478	5220
836.615	5098
836.753	5261
836.891	5288
837.029	5227
837.167	5181
837.305	5143
837.443	5162
837.58	5075
837.718	5242
837.856	5201
837.993	5159
838.131	5273
838.269	5178
838.406	5181
838.544	5166
838.681	5003
838.819	4980
838.956	4881
839.094	4885
839.231	4999
839.369	5079
839.506	5387
839.643	5292
839.781	5067
839.918	5006
840.055	5117
840.193	5102
840.33	5090
840.467	5124
840.604	5162
840.742	5417
840.879	5052
841.016	5071
841.153	5143
841.29	5345
841.427	5345
841.564	5345
841.701	5318
841.838	5220
841.975	5235
842.112	5254
842.249	5109
842.385	5064
842.522	5318
842.659	5197
842.796	5136
842.933	5235
843.069	5159
843.206	5140
843.343	5303
843.479	5246
843.616	5265
843.752	5033
843.889	4991
844.025	5223
844.162	5041
844.298	5208
844.435	5025
844.571	5075
844.708	5170
844.844	5280
844.98	5353
845.117	5311
845.253	5124
845.389	5048
845.525	5132
845.661	5079
845.798	4984
845.934	5128
846.07	5079
846.206	5212
846.342	5318
846.478	5189
846.614	4999
846.75	4942
846.886	4938
847.022	5166
847.158	5022
847.294	5079
847.429	5071
847.565	5071
847.701	5273
847.837	4839
847.972	4809
848.108	4957
848.244	4934
848.379	4793
848.515	4729
848.65	4698
848.786	4721
848.921	4767
849.057	4824
849.192	4858
849.328	4786
849.463	4828
849.598	4847
849.734	4733
849.869	4675
850.004	4664
850.14	4626
850.275	4599
850.41	4523
850.545	4569
850.68	4626
850.815	4603
850.95	4641
851.085	4831
851.22	4790
851.355	4664
851.49	4573
851.625	4603
851.76	4660
851.895	4535
852.03	4516
852.165	4660
852.299	4717
852.434	4790
852.569	4744
852.703	4744
852.838	4816
852.973	4877
853.107	4957
853.242	4717
853.376	4660
853.511	4535
853.645	4603
853.78	4755
853.914	4618
854.048	4660
854.183	4656
854.317	4717
854.451	4870
854.585	4683
854.72	4592
854.854	4755
854.988	4558
855.122	4679
855.256	4516
855.39	4634
855.524	4812
855.658	4660
855.792	4668
855.926	4710
856.06	4786
856.194	4759
856.327	4691
856.461	4554
856.595	4603
856.729	4622
856.862	4744
856.996	4694
857.13	4725
857.263	4736
857.397	4767
857.53	4653
857.664	4774
857.797	4717
857.931	4759
858.064	4729
858.197	4740
858.331	4679
858.464	4611
858.597	4478
858.731	4615
858.864	4653
858.997	4565
859.13	4645
859.263	4691
859.396	4660
859.529	4599
859.662	4516
859.795	4512
859.928	4649
860.061	4790
860.194	4733
860.327	4577
860.46	4535
860.592	4736
860.725	4767
860.858	4740
860.99	4546
861.123	4561
861.256	4542
861.388	4637
861.521	5330
861.653	4554
861.786	4428
861.918	4466
862.05	4546
862.183	4561
862.315	4664
862.447	4622
862.58	4531
862.712	4348
862.844	4356
862.976	4497
863.108	4493
863.24	4778
863.372	4344
863.504	4409
863.636	4421
863.768	4436
863.9	4440
864.032	4367
864.164	4409
864.296	4481
864.428	4535
864.559	4538
864.691	4527
864.823	4504
864.954	4497
865.086	4481
865.217	4440
865.349	4451
865.48	4485
865.612	4447
865.743	4622
865.875	4417
866.006	4455
866.137	4508
866.269	4462
866.4	4428
866.531	4421
866.662	4402
866.793	4409
866.924	4436
867.055	4519
867.186	4459
867.317	4466
867.448	4318
867.579	4352
867.71	4360
867.841	4405
867.972	4466
868.103	4443
868.233	4478
868.364	4462
868.495	4462
868.625	4653
868.756	4816
868.886	4634
869.017	4611
869.147	4748
869.278	4774
869.408	4656
869.539	4637
869.669	4736
869.799	4626
869.929	4778
870.06	4729
870.19	4911
870.32	4915
870.45	4934
870.58	5029
870.71	5064
870.84	5124
870.97	4915
871.1	4911
871.23	5132
871.36	5132
871.489	5006
871.619	5090
871.749	5128
871.879	5102
872.008	5231
872.138	5045
872.267	4949
872.397	4858
872.526	4778
872.656	4729
872.785	4790
872.915	4965
873.044	5045
873.173	4923
873.303	4972
873.432	4957
873.561	4976
873.69	4889
873.819	4862
873.948	4930
874.077	4801
874.206	4797
874.335	4831
874.464	4908
874.593	5060
874.722	4946
874.851	5086
874.979	5052
875.108	5025
875.237	4892
875.365	4854
875.494	4892
875.623	5014
875.751	4820
875.88	4930
876.008	4991
876.136	5045
876.265	5181
876.393	5341
876.521	5246
876.65	5216
876.778	5117
876.906	5029
877.034	5018
877.162	5018
877.29	5018
877.418	5033
877.546	5022
877.674	5033
877.802	5037
877.93	5037
878.058	4965
878.185	4904
878.313	4980
878.441	4957
878.568	4824
878.696	4900
878.824	5006
878.951	4961
879.079	5136
879.206	5269
879.333	5121
879.461	5006
879.588	4999
879.715	5090
879.842	5246
879.97	4995
880.097	4763
880.224	4736
880.351	4797
880.478	4824
880.605	4774
880.732	4763
880.859	5083
880.986	4900
881.112	4919
881.239	4767
881.366	4687
881.493	4618
881.619	4584
881.746	4672
881.872	4615
881.999	4637
882.125	4675
882.252	4812
882.378	4896
882.505	4991
882.631	4786
882.757	4641
882.883	4706
883.01	4755
883.136	4653
883.262	4565
883.388	4618
883.514	4828
883.64	4843
883.766	4812
883.892	4691
884.018	4763
884.143	4854
884.269	4961
884.395	4687
884.52	4645
884.646	4645
884.772	4569
884.897	4558
885.023	4603
885.148	4801
885.274	4877
885.399	4790
885.524	4694
885.65	4714
885.775	4763
885.9	4717
886.025	4866
886.15	4782
886.275	4721
886.4	4679
886.525	4702
886.65	4683
886.775	4714
886.9	4900
887.025	5037
887.149	4828
887.274	4634
887.399	4573
887.523	4596
887.648	4599
887.773	4573
887.897	4752
888.021	4809
888.146	4645
888.27	4824
888.395	4911
888.519	4793
888.643	4831
888.767	4786
888.891	4687
889.015	4641
889.139	4656
889.263	4565
889.387	4752
889.511	4847
889.635	4767
889.759	4664
889.883	4634
890.006	4687
890.13	4778
890.254	4630
890.377	4664
890.501	4565
890.624	4538
890.748	4607
890.871	4512
890.995	4432
891.118	4367
891.241	4531
891.364	4519
891.488	4637
891.611	4523
891.734	4550
891.857	4637
891.98	4538
892.103	4710
892.226	4599
892.349	4493
892.471	4413
892.594	4508
892.717	4615
892.839	4550
892.962	4584
893.085	4672
893.207	4573
893.33	4428
893.452	4535
893.575	4710
893.697	4558
893.819	4740
893.941	4835
894.064	4748
894.186	4611
894.308	4573
894.43	4698
894.552	4801
894.674	4694
894.796	4573
894.918	4622
895.04	4542
895.161	4714
895.283	4653
895.405	4554
895.526	4603
895.648	4653
895.769	4641
895.891	4740
896.012	4759
896.134	4729
896.255	4626
896.376	4622
896.498	4645
896.619	4675
896.74	4618
896.861	4645
896.982	4923
897.103	5056
897.224	4854
897.345	4740
897.466	4634
897.587	4729
897.708	4858
897.828	4740
897.949	4660
898.07	4542
898.19	4668
898.311	4824
898.431	4653
898.552	4694
898.672	4809
898.792	4733
898.913	4736
899.033	4637
899.153	4485
899.273	4436
899.393	4474
899.513	4538
899.633	4512
899.753	4546
899.873	4470
899.993	4554
900.113	4531
900.232	4577
900.352	4504
900.472	4481
900.591	4436
900.711	4462
900.83	4421
900.95	4607
901.069	4672
901.189	4561
901.308	4333
901.427	4303
901.546	4409
901.665	4470
901.784	4546
901.904	4390
902.023	4314
902.141	4185
902.26	4188
902.379	4344
902.498	4310
902.617	4246
902.735	4390
902.854	4390
902.973	4417
903.091	4143
903.21	4211
903.328	4322
903.446	4291
903.565	4238
903.683	4363
903.801	4238
903.919	4409
904.038	4466
904.156	4322
904.274	4413
904.392	4394
904.51	4447
904.627	4504
904.745	4554
904.863	4618
904.981	4409
905.098	4337
905.216	4333
905.334	4451
905.451	4428
905.569	4428
905.686	4550
905.803	4565
905.921	4394
906.038	4531
906.155	4512
906.272	4405
906.389	4489
906.506	4360
906.623	4363
906.74	4371
906.857	4314
906.974	4390
907.091	4603
907.208	4691
907.324	4558
907.441	4508
907.557	4344
907.674	4360
907.79	4310
907.907	4322
908.023	4489
908.139	4466
908.256	4424
908.372	4447
908.488	4443
908.604	4352
908.72	4272
908.836	4367
908.952	4360
909.068	4443
909.184	4622
909.3	4493
909.415	4584
909.531	4550
909.647	4386
909.762	4379
909.878	4390
909.993	4394
910.108	4405
910.224	4436
910.339	4478
910.454	4409
910.57	4363
910.685	4337
910.8	4626
910.915	4626
911.03	4531
911.145	4291
911.259	4318
911.374	4394
911.489	4344
911.604	4272
911.718	4154
911.833	4227
911.947	4082
912.062	4074
912.176	4188
912.291	4211
912.405	4227
912.519	4478
912.633	4512
912.748	4356
912.862	4295
912.976	4204
913.09	4067
913.204	4204
913.318	4280
913.431	4325
913.545	4375
913.659	4443
913.772	4314
913.886	4207
914	4230
914.113	4375
914.226	4409
914.34	4386
914.453	4249
914.566	4379
914.68	4314
914.793	4325
914.906	4173
915.019	4116
915.132	4082
915.245	4147
915.358	4211
915.47	4219
915.583	4265
915.696	4284
915.809	4367
915.921	4402
916.034	4261
916.146	4280
916.259	4200
916.371	4386
916.483	4348
916.595	4261
916.708	4310
916.82	4287
916.932	4333
917.044	4310
917.156	4314
917.268	4219
917.38	4234
917.491	4253
917.603	4337
917.715	4375
917.826	4447
917.938	4390
918.049	4257
918.161	4379
918.272	4546
918.384	4546
918.495	4447
918.606	4265
918.717	4188
918.828	4318
918.939	4337
919.05	4265
919.161	4284
919.272	4116
919.383	4227
919.494	4398
919.604	4611
919.715	4390
919.826	4295
919.936	4390
920.047	4493
920.157	4462
920.267	4675
920.378	4519
920.488	4497
920.598	4740
920.708	4847
920.818	4740
920.928	4767
921.038	4881
921.148	4946
921.258	4573
921.368	4550
921.477	4512
921.587	4451
921.697	4394
921.806	4519
921.916	4417
922.025	4234
922.134	4257
922.244	4242
922.353	4329
922.462	4181
922.571	4101
922.68	3953
922.789	4025
922.898	4017
923.007	4002
923.116	4105
923.224	4082
923.333	4074
923.442	3968
923.55	3949
923.659	4002
923.767	4090
923.876	4010
923.984	4109
924.092	3994
924.201	4109
924.309	4074
924.417	4112
924.525	4059
924.633	4101
924.741	5048
924.849	3926
924.956	4177
925.064	3949
925.172	3873
925.279	3956
925.387	4090
925.494	4074
925.602	4234
925.709	4135
925.816	4063
925.924	4147
926.031	4242
926.138	4169
926.245	4192
926.352	4093
926.459	4287
926.566	4344
926.673	4097
926.779	4143
926.886	4082
926.993	3953
927.099	3987
927.206	3979
927.312	3998
927.419	4078
927.525	4109
927.631	4139
927.737	3983
927.843	3964
927.95	3838
928.056	3972
928.162	4029
928.267	4128
928.373	4634
928.479	4150
928.585	3861
928.69	4067
928.796	4143
928.901	4013
929.007	3876
929.112	4029
929.218	3983
929.323	4059
929.428	3972
929.533	4109
929.638	3960
929.743	3994
929.848	4093
929.953	4044
930.058	3975
930.163	3846
930.267	3865
930.372	4029
930.477	3869
930.581	4078
930.685	3987
930.79	3861
930.894	3945
930.998	3930
931.103	4090
931.207	3789
931.311	3785
931.415	3732
931.519	3584
931.623	3584
