Data from test_V78500241_171.txt Node
Date: Fri Mar 25 16:50:11 CST 2022
User: usil
Spectrometer: V785-0024
Trigger mode: 0
Integration Time (sec): 4.000000E-1
Scans to average: 1
Nonlinearity correction enabled: false
Boxcar width: 0
Storing dark spectrum: false
XAxis mode: Wavelengths
Number of Pixels in Spectrum: 1024
>>>>>Begin Spectral Data<<<<<
801.071	7947
801.214	7928
801.356	7856
801.499	7902
801.641	7830
801.783	7822
801.926	8016
802.068	7959
802.211	8008
802.353	7986
802.496	7795
802.638	7894
802.78	7909
802.923	7936
803.065	7822
803.208	7917
803.35	7883
803.492	8130
803.635	8084
803.777	8081
803.919	8050
804.061	8336
804.204	8092
804.346	8039
804.488	7909
804.63	8058
804.773	7921
804.915	8035
805.057	8210
805.199	8142
805.341	8191
805.483	8248
805.626	8187
805.768	8107
805.91	8145
806.052	8290
806.194	8100
806.336	8259
806.478	8073
806.62	8039
806.762	8168
806.904	8248
807.046	8450
807.188	8324
807.33	8259
807.472	8256
807.614	8161
807.756	8115
807.898	7955
808.04	7928
808.182	8005
808.324	7917
808.465	7871
808.607	8077
808.749	8092
808.891	8157
809.033	8355
809.174	8172
809.316	8058
809.458	8096
809.6	7986
809.741	7947
809.883	8065
810.025	8035
810.166	8088
810.308	8046
810.45	8024
810.591	7906
810.733	7776
810.875	7636
811.016	7544
811.158	7529
811.299	7590
811.441	7715
811.582	7696
811.724	7590
811.865	7582
812.007	7616
812.148	7674
812.29	7666
812.431	7792
812.573	7917
812.714	7967
812.855	8229
812.997	8298
813.138	8324
813.279	8233
813.421	8084
813.562	8001
813.703	7849
813.845	7803
813.986	7449
814.127	7305
814.268	7255
814.41	7251
814.551	7133
814.692	7213
814.833	7152
814.974	7118
815.115	7175
815.256	7000
815.397	6878
815.539	6954
815.68	6840
815.821	6863
815.962	6894
816.103	6829
816.244	6726
816.385	6642
816.526	6684
816.666	6536
816.807	6365
816.948	6521
817.089	6437
817.23	6536
817.371	6429
817.512	6395
817.653	6422
817.793	6281
817.934	6357
818.075	6456
818.216	6403
818.356	6403
818.497	6254
818.638	6117
818.778	6155
818.919	6140
819.06	6144
819.2	6350
819.341	6308
819.481	6361
819.622	6506
819.762	6772
819.903	6711
820.043	6612
820.184	6589
820.324	6597
820.465	6654
820.605	6684
820.746	6642
820.886	6494
821.026	6677
821.167	6707
821.307	6791
821.447	6722
821.588	6673
821.728	6631
821.868	6517
822.008	6361
822.149	6361
822.289	6407
822.429	6121
822.569	6091
822.709	6110
822.849	5916
822.99	5920
823.13	5931
823.27	5923
823.41	5760
823.55	5760
823.69	5802
823.83	5710
823.97	5684
824.11	5562
824.25	5528
824.389	5554
824.529	5600
824.669	5532
824.809	5653
824.949	5714
825.089	5668
825.228	5558
825.368	5421
825.508	5395
825.648	5322
825.787	5337
825.927	5387
826.067	5322
826.206	5296
826.346	5360
826.485	5364
826.625	5448
826.765	5547
826.904	5444
827.044	5258
827.183	5193
827.323	5132
827.462	5246
827.601	5174
827.741	5204
827.88	5189
828.02	5159
828.159	5258
828.298	5315
828.437	5383
828.577	5246
828.716	5467
828.855	5330
828.994	5181
829.134	5201
829.273	5155
829.412	5128
829.551	5136
829.69	5174
829.829	5223
829.968	5349
830.107	5273
830.246	5284
830.385	5174
830.524	5105
830.663	5041
830.802	4972
830.941	4850
831.08	4870
831.219	4968
831.357	4995
831.496	5128
831.635	4885
831.774	4835
831.913	4877
832.051	4744
832.19	4733
832.329	4843
832.467	4740
832.606	4634
832.744	4717
832.883	4710
833.022	4694
833.16	4790
833.299	4778
833.437	4831
833.576	4824
833.714	4866
833.852	4881
833.991	4881
834.129	4904
834.267	4980
834.406	4870
834.544	4968
834.682	5022
834.821	4976
834.959	5162
835.097	5003
835.235	5128
835.373	5071
835.511	5090
835.65	5064
835.788	5025
835.926	4881
836.064	4866
836.202	4942
836.34	5193
836.478	5227
836.615	5109
836.753	5170
836.891	5288
837.029	5223
837.167	5223
837.305	5227
837.443	5136
837.58	5029
837.718	5239
837.856	5170
837.993	5201
838.131	5227
838.269	5178
838.406	5174
838.544	5151
838.681	5052
838.819	5029
838.956	4949
839.094	4908
839.231	5010
839.369	5109
839.506	5436
839.643	5273
839.781	5121
839.918	4995
840.055	5105
840.193	5136
840.33	5094
840.467	5170
840.604	5181
840.742	5433
840.879	5037
841.016	5098
841.153	5136
841.29	5337
841.427	5383
841.564	5360
841.701	5387
841.838	5277
841.975	5220
842.112	5242
842.249	5124
842.385	5117
842.522	5372
842.659	5181
842.796	5151
842.933	5201
843.069	5132
843.206	5140
843.343	5288
843.479	5235
843.616	5261
843.752	5010
843.889	4980
844.025	5185
844.162	5022
844.298	5212
844.435	5121
844.571	5075
844.708	5261
844.844	5311
844.98	5353
845.117	5284
845.253	5143
845.389	5064
845.525	5159
845.661	5128
845.798	5018
845.934	5159
846.07	5022
846.206	5166
846.342	5235
846.478	5181
846.614	5041
846.75	5003
846.886	4980
847.022	5140
847.158	5037
847.294	5029
847.429	5113
847.565	5052
847.701	5303
847.837	4854
847.972	4782
848.108	4919
848.244	4961
848.379	4797
848.515	4710
848.65	4691
848.786	4778
848.921	4778
849.057	4915
849.192	4831
849.328	4824
849.463	4854
849.598	4824
849.734	4771
849.869	4706
850.004	4634
850.14	4664
850.275	4630
850.41	4538
850.545	4580
850.68	4634
850.815	4626
850.95	4653
851.085	4877
851.22	4721
851.355	4691
851.49	4653
851.625	4645
851.76	4645
851.895	4580
852.03	4535
852.165	4679
852.299	4714
852.434	4782
852.569	4767
852.703	4729
852.838	4824
852.973	4919
853.107	4957
853.242	4763
853.376	4675
853.511	4569
853.645	4618
853.78	4790
853.914	4714
854.048	4683
854.183	4622
854.317	4683
854.451	4850
854.585	4721
854.72	4637
854.854	4790
854.988	4660
855.122	4588
855.256	4546
855.39	4668
855.524	4752
855.658	4767
855.792	4702
855.926	4679
856.06	4721
856.194	4778
856.327	4714
856.461	4607
856.595	4611
856.729	4653
856.862	4755
856.996	4679
857.13	4733
857.263	4706
857.397	4782
857.53	4649
857.664	4694
857.797	4778
857.931	4793
858.064	4645
858.197	4691
858.331	4603
858.464	4596
858.597	4500
858.731	4592
858.864	4637
858.997	4626
859.13	4683
859.263	4664
859.396	4664
859.529	4626
859.662	4596
859.795	4542
859.928	4603
860.061	4748
860.194	4767
860.327	4641
860.46	4577
860.592	4706
860.725	4725
860.858	4736
860.99	4573
861.123	4569
861.256	4535
861.388	4615
861.521	5376
861.653	4459
861.786	4409
861.918	4531
862.05	4523
862.183	4607
862.315	4664
862.447	4653
862.58	4527
862.712	4417
862.844	4379
862.976	4519
863.108	4466
863.24	4904
863.372	4356
863.504	4455
863.636	4409
863.768	4573
863.9	4485
864.032	4409
864.164	4462
864.296	4493
864.428	4577
864.559	4577
864.691	4611
864.823	4577
864.954	4546
865.086	4523
865.217	4500
865.349	4519
865.48	4519
865.612	4573
865.743	4679
865.875	4519
866.006	4493
866.137	4512
866.269	4466
866.4	4538
866.531	4436
866.662	4474
866.793	4470
866.924	4497
867.055	4554
867.186	4508
867.317	4493
867.448	4424
867.579	4440
867.71	4455
867.841	4409
867.972	4512
868.103	4546
868.233	4470
868.364	4516
868.495	4573
868.625	4767
868.756	4790
868.886	4580
869.017	4672
869.147	4774
869.278	4816
869.408	4714
869.539	4736
869.669	4755
869.799	4694
869.929	4847
870.06	4816
870.19	5041
870.32	5022
870.45	5003
870.58	5098
870.71	5166
870.84	5124
870.97	5041
871.1	4923
871.23	5185
871.36	5216
871.489	5083
871.619	5136
871.749	5094
871.879	5239
872.008	5189
872.138	5086
872.267	5052
872.397	4923
872.526	4812
872.656	4805
872.785	4885
872.915	5006
873.044	5113
873.173	5006
873.303	4991
873.432	4995
873.561	5041
873.69	4911
873.819	4911
873.948	4934
874.077	4858
874.206	4786
874.335	4847
874.464	4946
874.593	5105
874.722	5052
874.851	5166
874.979	5124
875.108	5067
875.237	4938
875.365	4892
875.494	4923
875.623	5018
875.751	4850
875.88	4892
876.008	5010
876.136	5136
876.265	5258
876.393	5406
876.521	5307
876.65	5296
876.778	5201
876.906	5083
877.034	5113
877.162	5064
877.29	5037
877.418	5090
877.546	5109
877.674	5064
877.802	5064
877.93	5033
878.058	4980
878.185	4923
878.313	4987
878.441	4991
878.568	4809
878.696	4919
878.824	4965
878.951	5014
879.079	5147
879.206	5322
879.333	5109
879.461	5014
879.588	5022
879.715	5098
879.842	5258
879.97	5083
880.097	4854
880.224	4793
880.351	4850
880.478	4877
880.605	4877
880.732	4824
880.859	5121
880.986	4919
881.112	4961
881.239	4858
881.366	4714
881.493	4664
881.619	4637
881.746	4679
881.872	4679
881.999	4721
882.125	4721
882.252	4793
882.378	4854
882.505	5090
882.631	4847
882.757	4706
882.883	4812
883.01	4824
883.136	4729
883.262	4611
883.388	4706
883.514	4858
883.64	4854
883.766	4835
883.892	4698
884.018	4710
884.143	4930
884.269	5033
884.395	4706
884.52	4694
884.646	4660
884.772	4641
884.897	4573
885.023	4714
885.148	4816
885.274	4900
885.399	4835
885.524	4809
885.65	4767
885.775	4812
885.9	4752
886.025	4957
886.15	4824
886.275	4748
886.4	4691
886.525	4733
886.65	4763
886.775	4759
886.9	4957
887.025	5102
887.149	4824
887.274	4748
887.399	4580
887.523	4637
887.648	4634
887.773	4660
887.897	4801
888.021	4816
888.146	4710
888.27	4870
888.395	4927
888.519	4831
888.643	4820
888.767	4877
888.891	4763
889.015	4641
889.139	4683
889.263	4675
889.387	4835
889.511	4911
889.635	4873
889.759	4729
889.883	4649
890.006	4763
890.13	4862
890.254	4615
890.377	4694
890.501	4599
890.624	4546
890.748	4660
890.871	4485
890.995	4459
891.118	4455
891.241	4565
891.364	4615
891.488	4694
891.611	4538
891.734	4565
891.857	4649
891.98	4615
892.103	4736
892.226	4580
892.349	4550
892.471	4451
892.594	4558
892.717	4618
892.839	4675
892.962	4691
893.085	4717
893.207	4622
893.33	4535
893.452	4554
893.575	4714
893.697	4592
893.819	4850
893.941	4919
894.064	4847
894.186	4626
894.308	4599
894.43	4755
894.552	4866
894.674	4801
894.796	4611
894.918	4599
895.04	4577
895.161	4774
895.283	4717
895.405	4615
895.526	4630
895.648	4683
895.769	4694
895.891	4759
896.012	4805
896.134	4805
896.255	4744
896.376	4668
896.498	4611
896.619	4714
896.74	4653
896.861	4691
896.982	4934
897.103	5083
897.224	4885
897.345	4809
897.466	4733
897.587	4763
897.708	4873
897.828	4767
897.949	4630
898.07	4607
898.19	4691
898.311	4809
898.431	4702
898.552	4790
898.672	4885
898.792	4824
898.913	4805
899.033	4668
899.153	4527
899.273	4462
899.393	4577
899.513	4565
899.633	4554
899.753	4535
899.873	4497
899.993	4611
900.113	4561
900.232	4618
900.352	4565
900.472	4512
900.591	4436
900.711	4512
900.83	4512
900.95	4611
901.069	4698
901.189	4584
901.308	4417
901.427	4337
901.546	4428
901.665	4489
901.784	4588
901.904	4440
902.023	4375
902.141	4230
902.26	4207
902.379	4333
902.498	4310
902.617	4272
902.735	4443
902.854	4421
902.973	4409
903.091	4230
903.21	4230
903.328	4303
903.446	4295
903.565	4322
903.683	4405
903.801	4303
903.919	4409
904.038	4485
904.156	4367
904.274	4440
904.392	4432
904.51	4500
904.627	4523
904.745	4637
904.863	4672
904.981	4451
905.098	4371
905.216	4402
905.334	4500
905.451	4470
905.569	4470
905.686	4603
905.803	4618
905.921	4447
906.038	4588
906.155	4538
906.272	4443
906.389	4508
906.506	4386
906.623	4451
906.74	4375
906.857	4386
906.974	4421
907.091	4577
907.208	4714
907.324	4603
907.441	4538
907.557	4356
907.674	4398
907.79	4348
907.907	4443
908.023	4516
908.139	4485
908.256	4500
908.372	4474
908.488	4519
908.604	4383
908.72	4356
908.836	4383
908.952	4409
909.068	4470
909.184	4592
909.3	4500
909.415	4615
909.531	4603
909.647	4360
909.762	4371
909.878	4360
909.993	4409
910.108	4474
910.224	4436
910.339	4497
910.454	4417
910.57	4398
910.685	4333
910.8	4694
910.915	4599
911.03	4550
911.145	4375
911.259	4337
911.374	4379
911.489	4322
911.604	4299
911.718	4192
911.833	4227
911.947	4147
912.062	4059
912.176	4219
912.291	4272
912.405	4268
912.519	4542
912.633	4542
912.748	4405
912.862	4360
912.976	4246
913.09	4112
913.204	4169
913.318	4276
913.431	4447
913.545	4413
913.659	4455
913.772	4402
913.886	4325
914	4223
914.113	4432
914.226	4485
914.34	4421
914.453	4268
914.566	4451
914.68	4341
914.793	4375
914.906	4147
915.019	4173
915.132	4128
915.245	4181
915.358	4246
915.47	4284
915.583	4306
915.696	4306
915.809	4462
915.921	4409
916.034	4329
916.146	4246
916.259	4314
916.371	4344
916.483	4363
916.595	4284
916.708	4348
916.82	4306
916.932	4375
917.044	4352
917.156	4367
917.268	4287
917.38	4303
917.491	4314
917.603	4405
917.715	4478
917.826	4462
917.938	4386
918.049	4234
918.161	4390
918.272	4603
918.384	4588
918.495	4466
918.606	4341
918.717	4291
918.828	4329
918.939	4356
919.05	4310
919.161	4375
919.272	4188
919.383	4242
919.494	4493
919.604	4626
919.715	4478
919.826	4337
919.936	4466
920.047	4584
920.157	4550
920.267	4691
920.378	4554
920.488	4538
920.598	4774
920.708	4930
920.818	4748
920.928	4782
921.038	4987
921.148	4942
921.258	4683
921.368	4622
921.477	4538
921.587	4512
921.697	4447
921.806	4565
921.916	4383
922.025	4295
922.134	4344
922.244	4284
922.353	4363
922.462	4188
922.571	4139
922.68	4074
922.789	4013
922.898	4036
923.007	4006
923.116	4063
923.224	4143
923.333	4154
923.442	4048
923.55	4029
923.659	4063
923.767	4112
923.876	3998
923.984	4139
924.092	3975
924.201	4169
924.309	4112
924.417	4131
924.525	4040
924.633	4082
924.741	4915
924.849	3934
924.956	4135
925.064	3979
925.172	3899
925.279	4029
925.387	4082
925.494	4097
925.602	4227
925.709	4200
925.816	4036
925.924	4128
926.031	4280
926.138	4169
926.245	4173
926.352	4109
926.459	4272
926.566	4344
926.673	4211
926.779	4109
926.886	4120
926.993	3972
927.099	3934
927.206	3934
927.312	3998
927.419	4128
927.525	4048
927.631	4109
927.737	3979
927.843	3956
927.95	3823
928.056	3956
928.162	4025
928.267	4074
928.373	4672
928.479	4166
928.585	3926
928.69	4002
928.796	4112
928.901	4021
929.007	3869
929.112	4010
929.218	4063
929.323	3994
929.428	3945
929.533	4128
929.638	3930
929.743	4006
929.848	4086
929.953	4025
930.058	3972
930.163	3846
930.267	3892
930.372	4036
930.477	3835
930.581	4162
930.685	3972
930.79	3861
930.894	3930
930.998	3922
931.103	4097
931.207	3785
931.311	3751
931.415	3682
931.519	3572
931.623	3610
