Data from test_V78500241_2280.txt Node
Date: Fri Mar 25 17:04:51 CST 2022
User: usil
Spectrometer: V785-0024
Trigger mode: 0
Integration Time (sec): 4.000000E-1
Scans to average: 1
Nonlinearity correction enabled: false
Boxcar width: 0
Storing dark spectrum: false
XAxis mode: Wavelengths
Number of Pixels in Spectrum: 1024
>>>>>Begin Spectral Data<<<<<
801.071	8016
801.214	8008
801.356	7818
801.499	7841
801.641	7826
801.783	7807
801.926	7989
802.068	8001
802.211	8016
802.353	7970
802.496	7864
802.638	7792
802.78	7856
802.923	7917
803.065	7879
803.208	7833
803.35	7955
803.492	8062
803.635	8100
803.777	7989
803.919	8202
804.061	8442
804.204	8096
804.346	8012
804.488	7887
804.63	7978
804.773	8024
804.915	8065
805.057	8294
805.199	8134
805.341	8248
805.483	8286
805.626	8256
805.768	8149
805.91	8206
806.052	8199
806.194	8043
806.336	8233
806.478	8096
806.62	8054
806.762	8161
806.904	8214
807.046	8446
807.188	8301
807.33	8301
807.472	8317
807.614	8123
807.756	8233
807.898	8005
808.04	7826
808.182	7917
808.324	7879
808.465	7906
808.607	8126
808.749	8111
808.891	8256
809.033	8309
809.174	8164
809.316	8054
809.458	8008
809.6	7932
809.741	8046
809.883	7970
810.025	8062
810.166	8096
810.308	7982
810.45	8031
810.591	7833
810.733	7662
810.875	7609
811.016	7460
811.158	7483
811.299	7457
811.441	7731
811.582	7715
811.724	7548
811.865	7438
812.007	7594
812.148	7578
812.29	7636
812.431	7746
812.573	7883
812.714	8024
812.855	8062
812.997	8218
813.138	8332
813.279	8164
813.421	8058
813.562	7989
813.703	7792
813.845	7723
813.986	7373
814.127	7179
814.268	7156
814.41	7198
814.551	7168
814.692	7194
814.833	7069
814.974	7072
815.115	7133
815.256	6924
815.397	6947
815.539	6943
815.68	6798
815.821	6764
815.962	6894
816.103	6886
816.244	6688
816.385	6570
816.526	6654
816.666	6483
816.807	6247
816.948	6445
817.089	6464
817.23	6399
817.371	6391
817.512	6395
817.653	6376
817.793	6331
817.934	6361
818.075	6467
818.216	6391
818.356	6414
818.497	6254
818.638	6140
818.778	6095
818.919	6167
819.06	6098
819.2	6323
819.341	6304
819.481	6372
819.622	6547
819.762	6665
819.903	6681
820.043	6532
820.184	6585
820.324	6540
820.465	6719
820.605	6597
820.746	6616
820.886	6509
821.026	6673
821.167	6715
821.307	6745
821.447	6757
821.588	6642
821.728	6601
821.868	6452
822.008	6281
822.149	6346
822.289	6319
822.429	6098
822.569	6110
822.709	6114
822.849	5878
822.99	5889
823.13	5882
823.27	5863
823.41	5741
823.55	5794
823.69	5726
823.83	5783
823.97	5680
824.11	5528
824.25	5463
824.389	5490
824.529	5558
824.669	5512
824.809	5619
824.949	5649
825.089	5600
825.228	5573
825.368	5315
825.508	5284
825.648	5296
825.787	5334
825.927	5360
826.067	5265
826.206	5231
826.346	5383
826.485	5414
826.625	5417
826.765	5535
826.904	5467
827.044	5231
827.183	5193
827.323	5128
827.462	5258
827.601	5185
827.741	5166
827.88	5185
828.02	5124
828.159	5246
828.298	5349
828.437	5337
828.577	5269
828.716	5509
828.855	5376
828.994	5166
829.134	5178
829.273	5216
829.412	5189
829.551	5090
829.69	5216
829.829	5265
829.968	5379
830.107	5315
830.246	5315
830.385	5223
830.524	5140
830.663	5094
830.802	4991
830.941	4889
831.08	4923
831.219	5033
831.357	5006
831.496	5239
831.635	4957
831.774	4908
831.913	4816
832.051	4748
832.19	4786
832.329	4843
832.467	4748
832.606	4626
832.744	4797
832.883	4790
833.022	4774
833.16	4866
833.299	4866
833.437	4877
833.576	4866
833.714	4919
833.852	4850
833.991	4957
834.129	4991
834.267	4976
834.406	4919
834.544	5014
834.682	5018
834.821	4984
834.959	5212
835.097	5029
835.235	5178
835.373	5083
835.511	5136
835.65	5037
835.788	5071
835.926	4923
836.064	4896
836.202	4984
836.34	5261
836.478	5208
836.615	5155
836.753	5307
836.891	5311
837.029	5265
837.167	5223
837.305	5197
837.443	5204
837.58	5102
837.718	5326
837.856	5212
837.993	5189
838.131	5261
838.269	5265
838.406	5223
838.544	5208
838.681	5075
838.819	5014
838.956	4934
839.094	4919
839.231	5018
839.369	5136
839.506	5425
839.643	5292
839.781	5113
839.918	5060
840.055	5121
840.193	5121
840.33	5143
840.467	5178
840.604	5178
840.742	5478
840.879	5109
841.016	5128
841.153	5166
841.29	5410
841.427	5345
841.564	5391
841.701	5406
841.838	5261
841.975	5231
842.112	5269
842.249	5178
842.385	5147
842.522	5330
842.659	5208
842.796	5212
842.933	5250
843.069	5181
843.206	5181
843.343	5379
843.479	5254
843.616	5326
843.752	5060
843.889	5064
844.025	5246
844.162	5022
844.298	5216
844.435	5121
844.571	5067
844.708	5216
844.844	5353
844.98	5345
845.117	5299
845.253	5132
845.389	5117
845.525	5212
845.661	5174
845.798	5052
845.934	5143
846.07	5060
846.206	5269
846.342	5318
846.478	5223
846.614	5060
846.75	4953
846.886	4991
847.022	5162
847.158	5010
847.294	5098
847.429	5132
847.565	5075
847.701	5376
847.837	4900
847.972	4786
848.108	4995
848.244	4957
848.379	4797
848.515	4763
848.65	4752
848.786	4816
848.921	4805
849.057	4881
849.192	4908
849.328	4790
849.463	4866
849.598	4850
849.734	4790
849.869	4691
850.004	4675
850.14	4691
850.275	4672
850.41	4569
850.545	4565
850.68	4630
850.815	4702
850.95	4706
851.085	4839
851.22	4809
851.355	4729
851.49	4664
851.625	4656
851.76	4626
851.895	4626
852.03	4542
852.165	4683
852.299	4744
852.434	4790
852.569	4786
852.703	4790
852.838	4877
852.973	4946
853.107	4953
853.242	4733
853.376	4717
853.511	4554
853.645	4653
853.78	4873
853.914	4706
854.048	4691
854.183	4641
854.317	4683
854.451	4889
854.585	4733
854.72	4672
854.854	4774
854.988	4615
855.122	4668
855.256	4561
855.39	4714
855.524	4793
855.658	4755
855.792	4729
855.926	4725
856.06	4744
856.194	4824
856.327	4710
856.461	4611
856.595	4649
856.729	4656
856.862	4820
856.996	4721
857.13	4759
857.263	4797
857.397	4835
857.53	4653
857.664	4771
857.797	4763
857.931	4801
858.064	4702
858.197	4740
858.331	4679
858.464	4675
858.597	4508
858.731	4668
858.864	4710
858.997	4649
859.13	4717
859.263	4698
859.396	4694
859.529	4592
859.662	4569
859.795	4569
859.928	4660
860.061	4824
860.194	4797
860.327	4588
860.46	4592
860.592	4714
860.725	4706
860.858	4759
860.99	4615
861.123	4489
861.256	4573
861.388	4656
861.521	5322
861.653	4512
861.786	4455
861.918	4516
862.05	4565
862.183	4565
862.315	4622
862.447	4675
862.58	4618
862.712	4402
862.844	4386
862.976	4481
863.108	4489
863.24	4904
863.372	4383
863.504	4470
863.636	4478
863.768	4493
863.9	4474
864.032	4356
864.164	4398
864.296	4504
864.428	4622
864.559	4596
864.691	4592
864.823	4497
864.954	4493
865.086	4519
865.217	4546
865.349	4512
865.48	4451
865.612	4550
865.743	4664
865.875	4481
866.006	4466
866.137	4538
866.269	4459
866.4	4455
866.531	4428
866.662	4424
866.793	4428
866.924	4432
867.055	4546
867.186	4455
867.317	4443
867.448	4447
867.579	4432
867.71	4481
867.841	4383
867.972	4462
868.103	4466
868.233	4481
868.364	4462
868.495	4500
868.625	4694
868.756	4801
868.886	4584
869.017	4611
869.147	4835
869.278	4774
869.408	4714
869.539	4660
869.669	4752
869.799	4672
869.929	4809
870.06	4729
870.19	4965
870.32	4904
870.45	4957
870.58	5071
870.71	5117
870.84	5128
870.97	4900
871.1	4908
871.23	5143
871.36	5147
871.489	5010
871.619	5094
871.749	5147
871.879	5151
872.008	5201
872.138	5083
872.267	4984
872.397	4873
872.526	4847
872.656	4793
872.785	4847
872.915	5006
873.044	5025
873.173	4946
873.303	4984
873.432	4991
873.561	4999
873.69	4858
873.819	4873
873.948	4949
874.077	4816
874.206	4774
874.335	4843
874.464	4961
874.593	5048
874.722	4976
874.851	5136
874.979	5079
875.108	5079
875.237	4915
875.365	4900
875.494	4953
875.623	4991
875.751	4892
875.88	4911
876.008	4987
876.136	5041
876.265	5220
876.393	5341
876.521	5265
876.65	5242
876.778	5201
876.906	5094
877.034	5060
877.162	5105
877.29	5006
877.418	5064
877.546	5018
877.674	5113
877.802	5064
877.93	5056
878.058	4934
878.185	4877
878.313	4999
878.441	4976
878.568	4828
878.696	4919
878.824	4938
878.951	5022
879.079	5094
879.206	5337
879.333	5136
879.461	4972
879.588	5014
879.715	5075
879.842	5231
879.97	5018
880.097	4820
880.224	4733
880.351	4755
880.478	4900
880.605	4797
880.732	4797
880.859	5102
880.986	4911
881.112	4961
881.239	4862
881.366	4706
881.493	4645
881.619	4611
881.746	4649
881.872	4656
881.999	4706
882.125	4729
882.252	4809
882.378	4858
882.505	4938
882.631	4812
882.757	4683
882.883	4778
883.01	4740
883.136	4710
883.262	4580
883.388	4596
883.514	4862
883.64	4885
883.766	4816
883.892	4714
884.018	4710
884.143	4915
884.269	5022
884.395	4694
884.52	4634
884.646	4645
884.772	4630
884.897	4588
885.023	4664
885.148	4801
885.274	4911
885.399	4828
885.524	4771
885.65	4679
885.775	4694
885.9	4702
886.025	4892
886.15	4843
886.275	4710
886.4	4706
886.525	4771
886.65	4710
886.775	4786
886.9	4930
887.025	5033
887.149	4793
887.274	4672
887.399	4596
887.523	4637
887.648	4565
887.773	4580
887.897	4752
888.021	4793
888.146	4721
888.27	4820
888.395	4881
888.519	4786
888.643	4835
888.767	4828
888.891	4744
889.015	4649
889.139	4611
889.263	4668
889.387	4755
889.511	4885
889.635	4820
889.759	4675
889.883	4649
890.006	4744
890.13	4847
890.254	4656
890.377	4687
890.501	4558
890.624	4565
890.748	4668
890.871	4580
890.995	4421
891.118	4405
891.241	4519
891.364	4542
891.488	4637
891.611	4478
891.734	4558
891.857	4603
891.98	4603
892.103	4672
892.226	4626
892.349	4573
892.471	4409
892.594	4546
892.717	4592
892.839	4664
892.962	4637
893.085	4721
893.207	4645
893.33	4474
893.452	4577
893.575	4694
893.697	4577
893.819	4786
893.941	4843
894.064	4835
894.186	4615
894.308	4611
894.43	4740
894.552	4809
894.674	4733
894.796	4592
894.918	4577
895.04	4596
895.161	4717
895.283	4634
895.405	4611
895.526	4584
895.648	4675
895.769	4706
895.891	4740
896.012	4729
896.134	4736
896.255	4702
896.376	4668
896.498	4634
896.619	4687
896.74	4634
896.861	4630
896.982	4938
897.103	5025
897.224	4896
897.345	4748
897.466	4660
897.587	4736
897.708	4873
897.828	4759
897.949	4641
898.07	4550
898.19	4634
898.311	4839
898.431	4675
898.552	4721
898.672	4797
898.792	4790
898.913	4744
899.033	4634
899.153	4497
899.273	4421
899.393	4527
899.513	4531
899.633	4554
899.753	4603
899.873	4504
899.993	4596
900.113	4558
900.232	4584
900.352	4531
900.472	4481
900.591	4428
900.711	4462
900.83	4413
900.95	4664
901.069	4683
901.189	4554
901.308	4386
901.427	4310
901.546	4405
901.665	4508
901.784	4481
901.904	4409
902.023	4363
902.141	4211
902.26	4158
902.379	4306
902.498	4253
902.617	4265
902.735	4413
902.854	4398
902.973	4386
903.091	4230
903.21	4253
903.328	4284
903.446	4306
903.565	4303
903.683	4394
903.801	4303
903.919	4413
904.038	4409
904.156	4306
904.274	4516
904.392	4424
904.51	4500
904.627	4527
904.745	4675
904.863	4649
904.981	4417
905.098	4375
905.216	4405
905.334	4462
905.451	4478
905.569	4447
905.686	4630
905.803	4599
905.921	4443
906.038	4622
906.155	4561
906.272	4436
906.389	4489
906.506	4344
906.623	4417
906.74	4462
906.857	4314
906.974	4386
907.091	4611
907.208	4694
907.324	4626
907.441	4546
907.557	4383
907.674	4379
907.79	4390
907.907	4394
908.023	4497
908.139	4516
908.256	4481
908.372	4497
908.488	4459
908.604	4386
908.72	4363
908.836	4421
908.952	4440
909.068	4489
909.184	4577
909.3	4558
909.415	4634
909.531	4611
909.647	4405
909.762	4413
909.878	4428
909.993	4474
910.108	4417
910.224	4474
910.339	4504
910.454	4447
910.57	4383
910.685	4333
910.8	4698
910.915	4656
911.03	4584
911.145	4367
911.259	4333
911.374	4371
911.489	4348
911.604	4310
911.718	4207
911.833	4227
911.947	4101
912.062	4051
912.176	4223
912.291	4272
912.405	4322
912.519	4481
912.633	4573
912.748	4379
912.862	4383
912.976	4246
913.09	4211
913.204	4185
913.318	4333
913.431	4405
913.545	4386
913.659	4466
913.772	4421
913.886	4291
914	4230
914.113	4424
914.226	4432
914.34	4432
914.453	4257
914.566	4451
914.68	4375
914.793	4322
914.906	4158
915.019	4207
915.132	4169
915.245	4234
915.358	4284
915.47	4291
915.583	4318
915.696	4318
915.809	4489
915.921	4485
916.034	4276
916.146	4261
916.259	4268
916.371	4379
916.483	4367
916.595	4276
916.708	4348
916.82	4360
916.932	4360
917.044	4371
917.156	4379
917.268	4246
917.38	4291
917.491	4318
917.603	4367
917.715	4489
917.826	4478
917.938	4394
918.049	4295
918.161	4428
918.272	4626
918.384	4546
918.495	4481
918.606	4344
918.717	4238
918.828	4318
918.939	4440
919.05	4318
919.161	4352
919.272	4173
919.383	4295
919.494	4489
919.604	4694
919.715	4428
919.826	4367
919.936	4470
920.047	4550
920.157	4538
920.267	4759
920.378	4565
920.488	4523
920.598	4729
920.708	4915
920.818	4820
920.928	4782
921.038	4957
921.148	4930
921.258	4668
921.368	4603
921.477	4481
921.587	4504
921.697	4417
921.806	4569
921.916	4455
922.025	4325
922.134	4341
922.244	4246
922.353	4367
922.462	4181
922.571	4207
922.68	4055
922.789	4025
922.898	4067
923.007	4017
923.116	4112
923.224	4082
923.333	4097
923.442	4036
923.55	4040
923.659	4044
923.767	4139
923.876	4025
923.984	4185
924.092	4032
924.201	4124
924.309	4116
924.417	4143
924.525	4109
924.633	4139
924.741	5105
924.849	3979
924.956	4120
925.064	3994
925.172	3918
925.279	4017
925.387	4071
925.494	4074
925.602	4238
925.709	4234
925.816	4044
925.924	4147
926.031	4242
926.138	4177
926.245	4185
926.352	4112
926.459	4295
926.566	4379
926.673	4185
926.779	4131
926.886	4116
926.993	4048
927.099	3956
927.206	3930
927.312	3987
927.419	4082
927.525	4071
927.631	4124
927.737	4013
927.843	3949
927.95	3880
928.056	3960
928.162	3991
928.267	4124
928.373	4752
928.479	4120
928.585	3953
928.69	4059
928.796	4093
928.901	3998
929.007	3865
929.112	4029
929.218	4013
929.323	4025
929.428	3991
929.533	4150
929.638	3915
929.743	3987
929.848	4071
929.953	4044
930.058	3968
930.163	3819
930.267	3850
930.372	4025
930.477	3835
930.581	4112
930.685	3964
930.79	3800
930.894	3907
930.998	3838
931.103	4067
931.207	3774
931.311	3728
931.415	3747
931.519	3515
931.623	3538
