Data from test_V78500241_2036.txt Node
Date: Fri Mar 25 17:03:09 CST 2022
User: usil
Spectrometer: V785-0024
Trigger mode: 0
Integration Time (sec): 4.000000E-1
Scans to average: 1
Nonlinearity correction enabled: false
Boxcar width: 0
Storing dark spectrum: false
XAxis mode: Wavelengths
Number of Pixels in Spectrum: 1024
>>>>>Begin Spectral Data<<<<<
801.071	7970
801.214	7951
801.356	7871
801.499	7925
801.641	7830
801.783	7803
801.926	7967
802.068	7909
802.211	8035
802.353	7993
802.496	7864
802.638	7875
802.78	7906
802.923	7932
803.065	7917
803.208	7925
803.35	7997
803.492	8096
803.635	8180
803.777	8073
803.919	8157
804.061	8495
804.204	8199
804.346	8100
804.488	7993
804.63	8111
804.773	8024
804.915	8183
805.057	8298
805.199	8168
805.341	8138
805.483	8286
805.626	8309
805.768	8195
805.91	8248
806.052	8358
806.194	8180
806.336	8404
806.478	8115
806.62	8081
806.762	8164
806.904	8324
807.046	8492
807.188	8370
807.33	8366
807.472	8339
807.614	8233
807.756	8142
807.898	8031
808.04	7856
808.182	7909
808.324	7921
808.465	7955
808.607	8107
808.749	8119
808.891	8195
809.033	8301
809.174	8259
809.316	8100
809.458	8130
809.6	8081
809.741	8115
809.883	8035
810.025	8046
810.166	8100
810.308	8084
810.45	8103
810.591	7917
810.733	7830
810.875	7734
811.016	7548
811.158	7480
811.299	7575
811.441	7803
811.582	7746
811.724	7597
811.865	7632
812.007	7613
812.148	7643
812.29	7658
812.431	7746
812.573	7909
812.714	7963
812.855	8180
812.997	8279
813.138	8267
813.279	8210
813.421	8073
813.562	7940
813.703	7837
813.845	7822
813.986	7468
814.127	7266
814.268	7236
814.41	7228
814.551	7240
814.692	7274
814.833	7118
814.974	7118
815.115	7076
815.256	7046
815.397	6951
815.539	6954
815.68	6878
815.821	6783
815.962	6909
816.103	6791
816.244	6696
816.385	6623
816.526	6639
816.666	6559
816.807	6350
816.948	6471
817.089	6513
817.23	6445
817.371	6418
817.512	6391
817.653	6407
817.793	6433
817.934	6422
818.075	6494
818.216	6506
818.356	6452
818.497	6232
818.638	6178
818.778	6228
818.919	6148
819.06	6213
819.2	6418
819.341	6361
819.481	6361
819.622	6563
819.762	6688
819.903	6681
820.043	6597
820.184	6658
820.324	6646
820.465	6673
820.605	6696
820.746	6635
820.886	6544
821.026	6662
821.167	6760
821.307	6787
821.447	6768
821.588	6707
821.728	6623
821.868	6502
822.008	6372
822.149	6350
822.289	6384
822.429	6194
822.569	6083
822.709	6125
822.849	5923
822.99	5866
823.13	5969
823.27	5969
823.41	5847
823.55	5821
823.69	5783
823.83	5798
823.97	5691
824.11	5589
824.25	5554
824.389	5539
824.529	5627
824.669	5558
824.809	5649
824.949	5691
825.089	5646
825.228	5570
825.368	5459
825.508	5341
825.648	5318
825.787	5410
825.927	5425
826.067	5360
826.206	5360
826.346	5406
826.485	5402
826.625	5372
826.765	5520
826.904	5505
827.044	5288
827.183	5147
827.323	5178
827.462	5246
827.601	5208
827.741	5193
827.88	5269
828.02	5132
828.159	5185
828.298	5315
828.437	5353
828.577	5334
828.716	5474
828.855	5330
828.994	5174
829.134	5227
829.273	5231
829.412	5197
829.551	5166
829.69	5170
829.829	5220
829.968	5349
830.107	5288
830.246	5357
830.385	5227
830.524	5174
830.663	5102
830.802	5022
830.941	4908
831.08	4896
831.219	5029
831.357	4930
831.496	5181
831.635	4980
831.774	4816
831.913	4858
832.051	4790
832.19	4755
832.329	4930
832.467	4721
832.606	4679
832.744	4694
832.883	4721
833.022	4763
833.16	4828
833.299	4782
833.437	4824
833.576	4820
833.714	4885
833.852	4858
833.991	4908
834.129	5029
834.267	4953
834.406	4957
834.544	4991
834.682	4999
834.821	4949
834.959	5197
835.097	4999
835.235	5140
835.373	5094
835.511	5124
835.65	5022
835.788	5060
835.926	4987
836.064	4904
836.202	4961
836.34	5143
836.478	5216
836.615	5121
836.753	5212
836.891	5334
837.029	5261
837.167	5227
837.305	5185
837.443	5216
837.58	5109
837.718	5307
837.856	5174
837.993	5113
838.131	5189
838.269	5235
838.406	5258
838.544	5216
838.681	5025
838.819	5056
838.956	4927
839.094	4915
839.231	5033
839.369	5048
839.506	5433
839.643	5296
839.781	5071
839.918	4999
840.055	5124
840.193	5136
840.33	5124
840.467	5143
840.604	5170
840.742	5474
840.879	5094
841.016	5094
841.153	5185
841.29	5368
841.427	5353
841.564	5379
841.701	5368
841.838	5269
841.975	5220
842.112	5288
842.249	5204
842.385	5098
842.522	5376
842.659	5132
842.796	5147
842.933	5155
843.069	5193
843.206	5216
843.343	5322
843.479	5299
843.616	5303
843.752	5041
843.889	5018
844.025	5261
844.162	5064
844.298	5242
844.435	5105
844.571	5056
844.708	5235
844.844	5345
844.98	5360
845.117	5341
845.253	5178
845.389	5113
845.525	5170
845.661	5113
845.798	5022
845.934	5155
846.07	5060
846.206	5223
846.342	5326
846.478	5162
846.614	5029
846.75	5006
846.886	4923
847.022	5113
847.158	5018
847.294	5079
847.429	5159
847.565	5025
847.701	5318
847.837	4809
847.972	4816
848.108	4999
848.244	4946
848.379	4782
848.515	4748
848.65	4721
848.786	4786
848.921	4809
849.057	4927
849.192	4881
849.328	4843
849.463	4919
849.598	4843
849.734	4725
849.869	4721
850.004	4637
850.14	4679
850.275	4607
850.41	4535
850.545	4531
850.68	4607
850.815	4615
850.95	4649
851.085	4850
851.22	4786
851.355	4683
851.49	4599
851.625	4622
851.76	4668
851.895	4615
852.03	4535
852.165	4634
852.299	4740
852.434	4782
852.569	4733
852.703	4763
852.838	4873
852.973	4900
853.107	4942
853.242	4740
853.376	4702
853.511	4569
853.645	4615
853.78	4774
853.914	4710
854.048	4687
854.183	4664
854.317	4740
854.451	4854
854.585	4679
854.72	4641
854.854	4797
854.988	4596
855.122	4653
855.256	4546
855.39	4717
855.524	4870
855.658	4744
855.792	4717
855.926	4725
856.06	4778
856.194	4870
856.327	4691
856.461	4584
856.595	4607
856.729	4664
856.862	4752
856.996	4710
857.13	4763
857.263	4790
857.397	4835
857.53	4615
857.664	4736
857.797	4793
857.931	4748
858.064	4721
858.197	4793
858.331	4618
858.464	4596
858.597	4538
858.731	4615
858.864	4656
858.997	4634
859.13	4668
859.263	4683
859.396	4733
859.529	4615
859.662	4592
859.795	4542
859.928	4641
860.061	4782
860.194	4763
860.327	4569
860.46	4588
860.592	4710
860.725	4714
860.858	4759
860.99	4542
861.123	4508
861.256	4550
861.388	4588
861.521	5330
861.653	4538
861.786	4459
861.918	4466
862.05	4474
862.183	4565
862.315	4577
862.447	4637
862.58	4584
862.712	4436
862.844	4348
862.976	4478
863.108	4485
863.24	4778
863.372	4337
863.504	4466
863.636	4413
863.768	4504
863.9	4459
864.032	4417
864.164	4436
864.296	4489
864.428	4558
864.559	4618
864.691	4535
864.823	4546
864.954	4481
865.086	4500
865.217	4504
865.349	4394
865.48	4474
865.612	4470
865.743	4656
865.875	4497
866.006	4424
866.137	4478
866.269	4493
866.4	4421
866.531	4493
866.662	4440
866.793	4383
866.924	4451
867.055	4481
867.186	4459
867.317	4413
867.448	4421
867.579	4398
867.71	4436
867.841	4360
867.972	4489
868.103	4500
868.233	4447
868.364	4497
868.495	4508
868.625	4675
868.756	4733
868.886	4538
869.017	4679
869.147	4797
869.278	4801
869.408	4675
869.539	4675
869.669	4729
869.799	4660
869.929	4748
870.06	4752
870.19	4991
870.32	4953
870.45	4961
870.58	5006
870.71	5079
870.84	5098
870.97	4927
871.1	4915
871.23	5178
871.36	5185
871.489	5060
871.619	5098
871.749	5147
871.879	5113
872.008	5136
872.138	5048
872.267	4999
872.397	4831
872.526	4820
872.656	4710
872.785	4816
872.915	4984
873.044	5060
873.173	4946
873.303	4968
873.432	4987
873.561	4957
873.69	4919
873.819	4892
873.948	4919
874.077	4828
874.206	4782
874.335	4805
874.464	4911
874.593	5041
874.722	4976
874.851	5075
874.979	5037
875.108	5083
875.237	4953
875.365	4889
875.494	4831
875.623	5003
875.751	4881
875.88	4885
876.008	4949
876.136	4961
876.265	5197
876.393	5292
876.521	5239
876.65	5246
876.778	5185
876.906	5041
877.034	5022
877.162	5064
877.29	4999
877.418	5041
877.546	5086
877.674	5064
877.802	5060
877.93	5014
878.058	4915
878.185	4862
878.313	4965
878.441	4980
878.568	4831
878.696	4904
878.824	4957
878.951	5014
879.079	5124
879.206	5311
879.333	5037
879.461	4968
879.588	4980
879.715	5151
879.842	5235
879.97	4957
880.097	4771
880.224	4752
880.351	4797
880.478	4801
880.605	4820
880.732	4809
880.859	5113
880.986	4885
881.112	4965
881.239	4809
881.366	4675
881.493	4618
881.619	4592
881.746	4626
881.872	4634
881.999	4660
882.125	4740
882.252	4786
882.378	4824
882.505	4972
882.631	4843
882.757	4634
882.883	4763
883.01	4683
883.136	4683
883.262	4596
883.388	4637
883.514	4801
883.64	4858
883.766	4828
883.892	4668
884.018	4698
884.143	4896
884.269	5029
884.395	4687
884.52	4596
884.646	4653
884.772	4550
884.897	4550
885.023	4679
885.148	4755
885.274	4877
885.399	4793
885.524	4687
885.65	4706
885.775	4740
885.9	4698
886.025	4831
886.15	4778
886.275	4740
886.4	4721
886.525	4698
886.65	4672
886.775	4710
886.9	4885
887.025	4984
887.149	4839
887.274	4668
887.399	4592
887.523	4561
887.648	4599
887.773	4641
887.897	4774
888.021	4809
888.146	4687
888.27	4793
888.395	4908
888.519	4809
888.643	4771
888.767	4816
888.891	4717
889.015	4611
889.139	4641
889.263	4637
889.387	4767
889.511	4900
889.635	4778
889.759	4569
889.883	4630
890.006	4710
890.13	4824
890.254	4634
890.377	4664
890.501	4573
890.624	4535
890.748	4691
890.871	4512
890.995	4474
891.118	4394
891.241	4504
891.364	4542
891.488	4618
891.611	4481
891.734	4519
891.857	4603
891.98	4561
892.103	4702
892.226	4603
892.349	4527
892.471	4424
892.594	4577
892.717	4622
892.839	4577
892.962	4577
893.085	4637
893.207	4615
893.33	4417
893.452	4527
893.575	4683
893.697	4573
893.819	4793
893.941	4881
894.064	4793
894.186	4599
894.308	4550
894.43	4748
894.552	4774
894.674	4706
894.796	4550
894.918	4592
895.04	4538
895.161	4752
895.283	4706
895.405	4577
895.526	4630
895.648	4698
895.769	4679
895.891	4733
896.012	4729
896.134	4725
896.255	4675
896.376	4683
896.498	4558
896.619	4660
896.74	4561
896.861	4630
896.982	4873
897.103	5086
897.224	4854
897.345	4733
897.466	4660
897.587	4744
897.708	4809
897.828	4820
897.949	4637
898.07	4550
898.19	4698
898.311	4854
898.431	4698
898.552	4729
898.672	4850
898.792	4805
898.913	4702
899.033	4675
899.153	4489
899.273	4390
899.393	4508
899.513	4508
899.633	4546
899.753	4580
899.873	4504
899.993	4615
900.113	4573
900.232	4615
900.352	4519
900.472	4451
900.591	4405
900.711	4459
900.83	4424
900.95	4611
901.069	4683
901.189	4538
901.308	4405
901.427	4310
901.546	4390
901.665	4466
901.784	4538
901.904	4356
902.023	4344
902.141	4223
902.26	4181
902.379	4344
902.498	4227
902.617	4200
902.735	4379
902.854	4367
902.973	4341
903.091	4238
903.21	4181
903.328	4272
903.446	4246
903.565	4238
903.683	4352
903.801	4261
903.919	4398
904.038	4421
904.156	4337
904.274	4402
904.392	4409
904.51	4394
904.627	4455
904.745	4531
904.863	4637
904.981	4417
905.098	4287
905.216	4333
905.334	4421
905.451	4440
905.569	4440
905.686	4592
905.803	4573
905.921	4466
906.038	4565
906.155	4485
906.272	4383
906.389	4417
906.506	4356
906.623	4348
906.74	4417
906.857	4291
906.974	4341
907.091	4558
907.208	4668
907.324	4641
907.441	4599
907.557	4306
907.674	4322
907.79	4314
907.907	4333
908.023	4478
908.139	4489
908.256	4432
908.372	4462
908.488	4451
908.604	4341
908.72	4337
908.836	4360
908.952	4375
909.068	4421
909.184	4577
909.3	4478
909.415	4615
909.531	4580
909.647	4329
909.762	4405
909.878	4344
909.993	4462
910.108	4424
910.224	4432
910.339	4466
910.454	4356
910.57	4337
910.685	4341
910.8	4615
910.915	4584
911.03	4500
911.145	4337
911.259	4325
911.374	4322
911.489	4318
911.604	4295
911.718	4211
911.833	4227
911.947	4074
912.062	4017
912.176	4181
912.291	4192
912.405	4230
912.519	4497
912.633	4485
912.748	4356
912.862	4322
912.976	4192
913.09	4074
913.204	4188
913.318	4272
913.431	4398
913.545	4371
913.659	4424
913.772	4329
913.886	4257
914	4207
914.113	4341
914.226	4447
914.34	4356
914.453	4227
914.566	4413
914.68	4280
914.793	4363
914.906	4162
915.019	4109
915.132	4082
915.245	4200
915.358	4215
915.47	4200
915.583	4261
915.696	4238
915.809	4398
915.921	4428
916.034	4230
916.146	4253
916.259	4219
916.371	4360
916.483	4314
916.595	4234
916.708	4337
916.82	4329
916.932	4325
917.044	4394
917.156	4299
917.268	4223
917.38	4261
917.491	4268
917.603	4356
917.715	4379
917.826	4413
917.938	4348
918.049	4211
918.161	4360
918.272	4519
918.384	4535
918.495	4424
918.606	4291
918.717	4253
918.828	4329
918.939	4344
919.05	4272
919.161	4287
919.272	4109
919.383	4234
919.494	4462
919.604	4607
919.715	4394
919.826	4398
919.936	4398
920.047	4523
920.157	4443
920.267	4694
920.378	4565
920.488	4516
920.598	4664
920.708	4892
920.818	4744
920.928	4759
921.038	4961
921.148	4949
921.258	4580
921.368	4546
921.477	4542
921.587	4440
921.697	4379
921.806	4527
921.916	4451
922.025	4253
922.134	4211
922.244	4223
922.353	4303
922.462	4158
922.571	4112
922.68	3979
922.789	3983
922.898	4017
923.007	3953
923.116	4093
923.224	4044
923.333	4112
923.442	3987
923.55	3975
923.659	4051
923.767	4124
923.876	3968
923.984	4082
924.092	3972
924.201	4051
924.309	4067
924.417	4105
924.525	4040
924.633	4124
924.741	5025
924.849	3945
924.956	4067
925.064	3918
925.172	3907
925.279	3975
925.387	4055
925.494	4040
925.602	4177
925.709	4166
925.816	4040
925.924	4128
926.031	4227
926.138	4215
926.245	4162
926.352	4093
926.459	4265
926.566	4295
926.673	4173
926.779	4128
926.886	4074
926.993	3991
927.099	3949
927.206	3911
927.312	3941
927.419	4067
927.525	3994
927.631	4071
927.737	3964
927.843	3960
927.95	3865
928.056	3892
928.162	3960
928.267	4074
928.373	4546
928.479	4101
928.585	3869
928.69	3972
928.796	4090
928.901	3972
929.007	3823
929.112	4032
929.218	3960
929.323	3930
929.428	3937
929.533	4082
929.638	3892
929.743	3972
929.848	4017
929.953	3979
930.058	3926
930.163	3816
930.267	3816
930.372	3975
930.477	3774
930.581	4055
930.685	3975
930.79	3835
930.894	3896
930.998	3861
931.103	3972
931.207	3709
931.311	3701
931.415	3698
931.519	3523
931.623	3557
