Data from test_V78500241_446.txt Node
Date: Fri Mar 25 16:52:06 CST 2022
User: usil
Spectrometer: V785-0024
Trigger mode: 0
Integration Time (sec): 4.000000E-1
Scans to average: 1
Nonlinearity correction enabled: false
Boxcar width: 0
Storing dark spectrum: false
XAxis mode: Wavelengths
Number of Pixels in Spectrum: 1024
>>>>>Begin Spectral Data<<<<<
801.071	8062
801.214	8069
801.356	7959
801.499	7917
801.641	7894
801.783	7833
801.926	8046
802.068	8027
802.211	8027
802.353	8058
802.496	7887
802.638	7944
802.78	7989
802.923	7925
803.065	7879
803.208	7906
803.35	7959
803.492	8092
803.635	8103
803.777	8035
803.919	8164
804.061	8400
804.204	8145
804.346	8050
804.488	7967
804.63	8039
804.773	7982
804.915	8062
805.057	8271
805.199	8119
805.341	8275
805.483	8290
805.626	8164
805.768	8031
805.91	8180
806.052	8176
806.194	8145
806.336	8309
806.478	8142
806.62	8134
806.762	8191
806.904	8240
807.046	8461
807.188	8389
807.33	8240
807.472	8294
807.614	8221
807.756	8157
807.898	8024
808.04	7982
808.182	7982
808.324	7955
808.465	7944
808.607	8107
808.749	8111
808.891	8187
809.033	8290
809.174	8077
809.316	8046
809.458	8111
809.6	8020
809.741	8065
809.883	8035
810.025	8096
810.166	8157
810.308	8020
810.45	8062
810.591	7852
810.733	7704
810.875	7719
811.016	7518
811.158	7540
811.299	7700
811.441	7803
811.582	7700
811.724	7628
811.865	7586
812.007	7567
812.148	7594
812.29	7704
812.431	7738
812.573	7883
812.714	7986
812.855	8123
812.997	8218
813.138	8355
813.279	8259
813.421	8164
813.562	8050
813.703	7944
813.845	7833
813.986	7586
814.127	7358
814.268	7297
814.41	7259
814.551	7129
814.692	7202
814.833	7088
814.974	7137
815.115	7145
815.256	6981
815.397	6947
815.539	6954
815.68	6844
815.821	6768
815.962	6981
816.103	6825
816.244	6829
816.385	6673
816.526	6696
816.666	6517
816.807	6369
816.948	6506
817.089	6471
817.23	6490
817.371	6384
817.512	6422
817.653	6437
817.793	6426
817.934	6395
818.075	6498
818.216	6471
818.356	6475
818.497	6289
818.638	6167
818.778	6205
818.919	6220
819.06	6148
819.2	6292
819.341	6338
819.481	6403
819.622	6494
819.762	6741
819.903	6715
820.043	6650
820.184	6612
820.324	6578
820.465	6753
820.605	6677
820.746	6646
820.886	6521
821.026	6681
821.167	6703
821.307	6825
821.447	6738
821.588	6696
821.728	6551
821.868	6509
822.008	6376
822.149	6384
822.289	6372
822.429	6136
822.569	6087
822.709	6159
822.849	5977
822.99	5901
823.13	5999
823.27	5889
823.41	5821
823.55	5786
823.69	5764
823.83	5870
823.97	5695
824.11	5535
824.25	5554
824.389	5608
824.529	5627
824.669	5554
824.809	5649
824.949	5661
825.089	5710
825.228	5585
825.368	5417
825.508	5349
825.648	5349
825.787	5364
825.927	5383
826.067	5364
826.206	5322
826.346	5349
826.485	5410
826.625	5402
826.765	5535
826.904	5459
827.044	5242
827.183	5216
827.323	5181
827.462	5265
827.601	5189
827.741	5212
827.88	5239
828.02	5136
828.159	5261
828.298	5379
828.437	5406
828.577	5269
828.716	5512
828.855	5303
828.994	5185
829.134	5201
829.273	5246
829.412	5117
829.551	5121
829.69	5147
829.829	5254
829.968	5368
830.107	5280
830.246	5227
830.385	5204
830.524	5181
830.663	5083
830.802	4984
830.941	4938
831.08	4908
831.219	4972
831.357	5010
831.496	5193
831.635	4965
831.774	4858
831.913	4889
832.051	4782
832.19	4744
832.329	4866
832.467	4797
832.606	4668
832.744	4736
832.883	4691
833.022	4774
833.16	4816
833.299	4843
833.437	4911
833.576	4873
833.714	4889
833.852	4877
833.991	4915
834.129	4961
834.267	4934
834.406	4908
834.544	4999
834.682	4976
834.821	5010
834.959	5181
835.097	4991
835.235	5181
835.373	5109
835.511	5083
835.65	5029
835.788	5033
835.926	4953
836.064	4949
836.202	4919
836.34	5216
836.478	5246
836.615	5124
836.753	5227
836.891	5292
837.029	5288
837.167	5181
837.305	5174
837.443	5086
837.58	5090
837.718	5269
837.856	5151
837.993	5162
838.131	5208
838.269	5189
838.406	5235
838.544	5258
838.681	5056
838.819	4999
838.956	4892
839.094	4949
839.231	5014
839.369	5052
839.506	5482
839.643	5280
839.781	5060
839.918	5025
840.055	5086
840.193	5075
840.33	5090
840.467	5189
840.604	5197
840.742	5436
840.879	5083
841.016	5143
841.153	5151
841.29	5379
841.427	5364
841.564	5326
841.701	5341
841.838	5254
841.975	5223
842.112	5334
842.249	5216
842.385	5143
842.522	5353
842.659	5212
842.796	5124
842.933	5212
843.069	5121
843.206	5162
843.343	5334
843.479	5254
843.616	5239
843.752	5010
843.889	4972
844.025	5201
844.162	5048
844.298	5208
844.435	5048
844.571	5003
844.708	5239
844.844	5345
844.98	5341
845.117	5284
845.253	5166
845.389	5113
845.525	5124
845.661	5136
845.798	5041
845.934	5147
846.07	5048
846.206	5185
846.342	5273
846.478	5151
846.614	5067
846.75	4991
846.886	4927
847.022	5121
847.158	5041
847.294	5010
847.429	5105
847.565	5067
847.701	5395
847.837	4854
847.972	4805
848.108	4995
848.244	4953
848.379	4816
848.515	4748
848.65	4767
848.786	4771
848.921	4812
849.057	4835
849.192	4927
849.328	4767
849.463	4866
849.598	4824
849.734	4748
849.869	4679
850.004	4653
850.14	4653
850.275	4603
850.41	4588
850.545	4561
850.68	4637
850.815	4672
850.95	4660
851.085	4881
851.22	4771
851.355	4698
851.49	4611
851.625	4641
851.76	4672
851.895	4546
852.03	4535
852.165	4649
852.299	4740
852.434	4797
852.569	4763
852.703	4790
852.838	4862
852.973	4961
853.107	4976
853.242	4752
853.376	4710
853.511	4542
853.645	4607
853.78	4790
853.914	4702
854.048	4618
854.183	4679
854.317	4664
854.451	4915
854.585	4721
854.72	4592
854.854	4771
854.988	4573
855.122	4649
855.256	4550
855.39	4717
855.524	4774
855.658	4736
855.792	4733
855.926	4755
856.06	4752
856.194	4801
856.327	4687
856.461	4599
856.595	4637
856.729	4660
856.862	4778
856.996	4706
857.13	4786
857.263	4733
857.397	4824
857.53	4668
857.664	4755
857.797	4782
857.931	4744
858.064	4694
858.197	4755
858.331	4687
858.464	4675
858.597	4569
858.731	4615
858.864	4626
858.997	4580
859.13	4672
859.263	4691
859.396	4729
859.529	4577
859.662	4546
859.795	4535
859.928	4672
860.061	4771
860.194	4805
860.327	4668
860.46	4596
860.592	4752
860.725	4736
860.858	4710
860.99	4592
861.123	4504
861.256	4599
861.388	4607
861.521	5463
861.653	4504
861.786	4481
861.918	4424
862.05	4527
862.183	4546
862.315	4607
862.447	4683
862.58	4535
862.712	4402
862.844	4371
862.976	4466
863.108	4493
863.24	4755
863.372	4379
863.504	4466
863.636	4436
863.768	4504
863.9	4466
864.032	4356
864.164	4440
864.296	4485
864.428	4497
864.559	4603
864.691	4573
864.823	4500
864.954	4527
865.086	4523
865.217	4443
865.349	4394
865.48	4489
865.612	4459
865.743	4634
865.875	4485
866.006	4424
866.137	4474
866.269	4470
866.4	4447
866.531	4440
866.662	4356
866.793	4424
866.924	4432
867.055	4462
867.186	4462
867.317	4394
867.448	4390
867.579	4398
867.71	4398
867.841	4379
867.972	4508
868.103	4481
868.233	4474
868.364	4455
868.495	4485
868.625	4656
868.756	4752
868.886	4500
869.017	4641
869.147	4797
869.278	4774
869.408	4683
869.539	4611
869.669	4736
869.799	4672
869.929	4778
870.06	4744
870.19	4999
870.32	4896
870.45	4900
870.58	5014
870.71	5136
870.84	5124
870.97	4980
871.1	4968
871.23	5136
871.36	5121
871.489	5025
871.619	5060
871.749	5132
871.879	5155
872.008	5193
872.138	5029
872.267	4999
872.397	4850
872.526	4820
872.656	4729
872.785	4793
872.915	4961
873.044	5052
873.173	4972
873.303	5010
873.432	4980
873.561	4995
873.69	4881
873.819	4854
873.948	4957
874.077	4809
874.206	4778
874.335	4805
874.464	4923
874.593	5102
874.722	4980
874.851	5075
874.979	5033
875.108	5048
875.237	4934
875.365	4915
875.494	4904
875.623	5003
875.751	4858
875.88	4904
876.008	4942
876.136	4984
876.265	5204
876.393	5337
876.521	5299
876.65	5250
876.778	5181
876.906	5083
877.034	5029
877.162	5079
877.29	5045
877.418	5022
877.546	5025
877.674	5064
877.802	5060
877.93	4995
878.058	4919
878.185	4877
878.313	5006
878.441	4961
878.568	4805
878.696	4870
878.824	4961
878.951	4987
879.079	5098
879.206	5269
879.333	5132
879.461	4972
879.588	4980
879.715	5189
879.842	5235
879.97	4953
880.097	4801
880.224	4774
880.351	4812
880.478	4797
880.605	4831
880.732	4702
880.859	5117
880.986	4923
881.112	4877
881.239	4774
881.366	4733
881.493	4607
881.619	4611
881.746	4630
881.872	4660
881.999	4630
882.125	4721
882.252	4774
882.378	4793
882.505	5003
882.631	4824
882.757	4687
882.883	4740
883.01	4706
883.136	4672
883.262	4580
883.388	4637
883.514	4839
883.64	4854
883.766	4778
883.892	4687
884.018	4736
884.143	4980
884.269	5006
884.395	4714
884.52	4607
884.646	4653
884.772	4615
884.897	4523
885.023	4634
885.148	4820
885.274	4885
885.399	4771
885.524	4698
885.65	4721
885.775	4717
885.9	4733
886.025	4809
886.15	4763
886.275	4706
886.4	4653
886.525	4710
886.65	4714
886.775	4698
886.9	4904
887.025	5041
887.149	4812
887.274	4630
887.399	4546
887.523	4577
887.648	4615
887.773	4554
887.897	4740
888.021	4805
888.146	4721
888.27	4843
888.395	4877
888.519	4790
888.643	4786
888.767	4831
888.891	4675
889.015	4607
889.139	4611
889.263	4603
889.387	4771
889.511	4835
889.635	4805
889.759	4626
889.883	4615
890.006	4755
890.13	4839
890.254	4634
890.377	4660
890.501	4550
890.624	4512
890.748	4645
890.871	4550
890.995	4428
891.118	4383
891.241	4481
891.364	4546
891.488	4615
891.611	4500
891.734	4500
891.857	4622
891.98	4531
892.103	4645
892.226	4558
892.349	4527
892.471	4462
892.594	4538
892.717	4626
892.839	4584
892.962	4592
893.085	4664
893.207	4558
893.33	4421
893.452	4535
893.575	4656
893.697	4565
893.819	4820
893.941	4805
894.064	4790
894.186	4592
894.308	4550
894.43	4729
894.552	4870
894.674	4748
894.796	4565
894.918	4607
895.04	4596
895.161	4683
895.283	4706
895.405	4592
895.526	4630
895.648	4672
895.769	4679
895.891	4698
896.012	4740
896.134	4744
896.255	4687
896.376	4626
896.498	4622
896.619	4675
896.74	4622
896.861	4664
896.982	4900
897.103	5121
897.224	4797
897.345	4725
897.466	4649
897.587	4706
897.708	4843
897.828	4767
897.949	4687
898.07	4577
898.19	4622
898.311	4805
898.431	4717
898.552	4786
898.672	4809
898.792	4820
898.913	4763
899.033	4630
899.153	4504
899.273	4417
899.393	4493
899.513	4554
899.633	4531
899.753	4516
899.873	4500
899.993	4554
900.113	4542
900.232	4542
900.352	4577
900.472	4481
900.591	4424
900.711	4504
900.83	4440
900.95	4592
901.069	4706
901.189	4577
901.308	4390
901.427	4306
901.546	4405
901.665	4500
901.784	4538
901.904	4379
902.023	4299
902.141	4196
902.26	4196
902.379	4265
902.498	4284
902.617	4188
902.735	4360
902.854	4428
902.973	4375
903.091	4196
903.21	4242
903.328	4303
903.446	4234
903.565	4230
903.683	4386
903.801	4325
903.919	4386
904.038	4424
904.156	4337
904.274	4462
904.392	4409
904.51	4459
904.627	4421
904.745	4596
904.863	4664
904.981	4451
905.098	4333
905.216	4363
905.334	4428
905.451	4417
905.569	4432
905.686	4546
905.803	4531
905.921	4383
906.038	4527
906.155	4497
906.272	4367
906.389	4485
906.506	4337
906.623	4394
906.74	4405
906.857	4303
906.974	4379
907.091	4580
907.208	4675
907.324	4607
907.441	4508
907.557	4367
907.674	4371
907.79	4325
907.907	4379
908.023	4462
908.139	4485
908.256	4451
908.372	4497
908.488	4478
908.604	4394
908.72	4314
908.836	4386
908.952	4405
909.068	4417
909.184	4618
909.3	4485
909.415	4580
909.531	4569
909.647	4363
909.762	4371
909.878	4367
909.993	4443
910.108	4440
910.224	4440
910.339	4497
910.454	4379
910.57	4409
910.685	4310
910.8	4622
910.915	4588
911.03	4455
911.145	4310
911.259	4329
911.374	4348
911.489	4287
911.604	4314
911.718	4200
911.833	4242
911.947	4074
912.062	4051
912.176	4177
912.291	4265
912.405	4227
912.519	4478
912.633	4478
912.748	4390
912.862	4276
912.976	4200
913.09	4128
913.204	4185
913.318	4242
913.431	4371
913.545	4409
913.659	4466
913.772	4356
913.886	4215
914	4318
914.113	4337
914.226	4462
914.34	4402
914.453	4257
914.566	4504
914.68	4329
914.793	4344
914.906	4177
915.019	4166
915.132	4074
915.245	4192
915.358	4227
915.47	4230
915.583	4284
915.696	4322
915.809	4394
915.921	4386
916.034	4219
916.146	4272
916.259	4249
916.371	4383
916.483	4375
916.595	4253
916.708	4295
916.82	4284
916.932	4329
917.044	4310
917.156	4318
917.268	4265
917.38	4230
917.491	4234
917.603	4344
917.715	4451
917.826	4440
917.938	4360
918.049	4219
918.161	4417
918.272	4512
918.384	4531
918.495	4386
918.606	4352
918.717	4249
918.828	4310
918.939	4371
919.05	4253
919.161	4318
919.272	4139
919.383	4249
919.494	4455
919.604	4577
919.715	4428
919.826	4383
919.936	4390
920.047	4500
920.157	4489
920.267	4698
920.378	4546
920.488	4493
920.598	4714
920.708	4850
920.818	4725
920.928	4733
921.038	4919
921.148	4892
921.258	4626
921.368	4592
921.477	4481
921.587	4447
921.697	4386
921.806	4489
921.916	4451
922.025	4261
922.134	4272
922.244	4242
922.353	4325
922.462	4169
922.571	4135
922.68	4021
922.789	3956
922.898	3987
923.007	4025
923.116	4090
923.224	4082
923.333	4044
923.442	3979
923.55	3987
923.659	4101
923.767	4071
923.876	4040
923.984	4101
924.092	3987
924.201	4078
924.309	4101
924.417	4147
924.525	4086
924.633	4116
924.741	5086
924.849	3930
924.956	4131
925.064	3991
925.172	3915
925.279	3960
925.387	4036
925.494	4093
925.602	4238
925.709	4173
925.816	4044
925.924	4109
926.031	4242
926.138	4162
926.245	4234
926.352	4063
926.459	4230
926.566	4310
926.673	4177
926.779	4101
926.886	4078
926.993	3960
927.099	3941
927.206	3960
927.312	3899
927.419	4109
927.525	4017
927.631	4131
927.737	3987
927.843	3960
927.95	3857
928.056	3945
928.162	3972
928.267	4029
928.373	4721
928.479	4131
928.585	3854
928.69	4025
928.796	4101
928.901	3972
929.007	3869
929.112	4029
929.218	4002
929.323	3960
929.428	3937
929.533	4124
929.638	3960
929.743	3956
929.848	4017
929.953	4059
930.058	3930
930.163	3797
930.267	3823
930.372	3979
930.477	3854
930.581	4116
930.685	3979
930.79	3819
930.894	3892
930.998	3869
931.103	4002
931.207	3720
931.311	3709
931.415	3671
931.519	3534
931.623	3572
