Data from test_V78500241_833.txt Node
Date: Fri Mar 25 16:54:47 CST 2022
User: usil
Spectrometer: V785-0024
Trigger mode: 0
Integration Time (sec): 4.000000E-1
Scans to average: 1
Nonlinearity correction enabled: false
Boxcar width: 0
Storing dark spectrum: false
XAxis mode: Wavelengths
Number of Pixels in Spectrum: 1024
>>>>>Begin Spectral Data<<<<<
801.071	8005
801.214	8031
801.356	7871
801.499	7788
801.641	7731
801.783	7852
801.926	7959
802.068	7875
802.211	7894
802.353	7989
802.496	7864
802.638	7887
802.78	7928
802.923	7947
803.065	7852
803.208	7898
803.35	8035
803.492	8111
803.635	8130
803.777	8054
803.919	8111
804.061	8396
804.204	8119
804.346	8020
804.488	7947
804.63	8130
804.773	7963
804.915	8126
805.057	8320
805.199	8100
805.341	8225
805.483	8225
805.626	8263
805.768	8115
805.91	8176
806.052	8256
806.194	8115
806.336	8317
806.478	8058
806.62	8016
806.762	8145
806.904	8290
807.046	8473
807.188	8374
807.33	8294
807.472	8320
807.614	8153
807.756	8176
807.898	7951
808.04	7928
808.182	7856
808.324	7871
808.465	7917
808.607	8084
808.749	8069
808.891	8206
809.033	8298
809.174	8237
809.316	8058
809.458	8073
809.6	8035
809.741	7993
809.883	8016
810.025	8126
810.166	8081
810.308	8027
810.45	7997
810.591	7856
810.733	7727
810.875	7674
811.016	7537
811.158	7468
811.299	7597
811.441	7761
811.582	7719
811.724	7578
811.865	7495
812.007	7563
812.148	7601
812.29	7616
812.431	7681
812.573	7837
812.714	7925
812.855	8123
812.997	8233
813.138	8309
813.279	8229
813.421	8054
813.562	8024
813.703	7856
813.845	7807
813.986	7502
814.127	7263
814.268	7240
814.41	7183
814.551	7137
814.692	7152
814.833	7065
814.974	7095
815.115	7084
815.256	6947
815.397	6970
815.539	6981
815.68	6814
815.821	6730
815.962	6859
816.103	6818
816.244	6711
816.385	6707
816.526	6631
816.666	6464
816.807	6266
816.948	6460
817.089	6448
817.23	6517
817.371	6418
817.512	6350
817.653	6331
817.793	6410
817.934	6441
818.075	6502
818.216	6441
818.356	6456
818.497	6254
818.638	6155
818.778	6117
818.919	6140
819.06	6136
819.2	6292
819.341	6361
819.481	6369
819.622	6578
819.762	6760
819.903	6715
820.043	6642
820.184	6608
820.324	6566
820.465	6703
820.605	6658
820.746	6612
820.886	6521
821.026	6665
821.167	6715
821.307	6806
821.447	6814
821.588	6612
821.728	6566
821.868	6460
822.008	6311
822.149	6369
822.289	6369
822.429	6125
822.569	6060
822.709	6106
822.849	5927
822.99	5946
823.13	5912
823.27	5996
823.41	5798
823.55	5748
823.69	5771
823.83	5760
823.97	5668
824.11	5520
824.25	5573
824.389	5589
824.529	5581
824.669	5493
824.809	5672
824.949	5627
825.089	5627
825.228	5547
825.368	5402
825.508	5349
825.648	5296
825.787	5429
825.927	5372
826.067	5277
826.206	5334
826.346	5349
826.485	5368
826.625	5455
826.765	5547
826.904	5570
827.044	5273
827.183	5231
827.323	5098
827.462	5235
827.601	5197
827.741	5170
827.88	5212
828.02	5094
828.159	5208
828.298	5284
828.437	5337
828.577	5326
828.716	5471
828.855	5345
828.994	5140
829.134	5143
829.273	5231
829.412	5155
829.551	5121
829.69	5162
829.829	5220
829.968	5326
830.107	5246
830.246	5254
830.385	5166
830.524	5136
830.663	5075
830.802	5010
830.941	4923
831.08	4850
831.219	4953
831.357	4923
831.496	5162
831.635	4965
831.774	4900
831.913	4854
832.051	4733
832.19	4706
832.329	4843
832.467	4683
832.606	4656
832.744	4683
832.883	4786
833.022	4729
833.16	4812
833.299	4812
833.437	4870
833.576	4843
833.714	4862
833.852	4835
833.991	4911
834.129	4953
834.267	4930
834.406	4889
834.544	4965
834.682	4995
834.821	4934
834.959	5124
835.097	5010
835.235	5162
835.373	5105
835.511	5143
835.65	5052
835.788	5025
835.926	4873
836.064	4854
836.202	4889
836.34	5181
836.478	5242
836.615	5056
836.753	5208
836.891	5315
837.029	5242
837.167	5174
837.305	5151
837.443	5147
837.58	5105
837.718	5250
837.856	5193
837.993	5128
838.131	5258
838.269	5193
838.406	5178
838.544	5208
838.681	5014
838.819	5025
838.956	4923
839.094	4900
839.231	4976
839.369	5079
839.506	5368
839.643	5223
839.781	5117
839.918	5060
840.055	5079
840.193	5109
840.33	5079
840.467	5121
840.604	5204
840.742	5444
840.879	5056
841.016	5022
841.153	5136
841.29	5398
841.427	5322
841.564	5368
841.701	5330
841.838	5258
841.975	5212
842.112	5261
842.249	5155
842.385	5105
842.522	5318
842.659	5155
842.796	5102
842.933	5181
843.069	5170
843.206	5162
843.343	5326
843.479	5235
843.616	5246
843.752	4934
843.889	5006
844.025	5220
844.162	4999
844.298	5208
844.435	5067
844.571	5033
844.708	5231
844.844	5296
844.98	5357
845.117	5292
845.253	5124
845.389	5056
845.525	5147
845.661	5121
845.798	5052
845.934	5105
846.07	5083
846.206	5208
846.342	5258
846.478	5212
846.614	5029
846.75	4946
846.886	4938
847.022	5143
847.158	5045
847.294	5075
847.429	5079
847.565	5048
847.701	5307
847.837	4839
847.972	4771
848.108	4995
848.244	4942
848.379	4809
848.515	4710
848.65	4679
848.786	4706
848.921	4801
849.057	4873
849.192	4858
849.328	4816
849.463	4866
849.598	4812
849.734	4778
849.869	4679
850.004	4592
850.14	4653
850.275	4599
850.41	4523
850.545	4516
850.68	4626
850.815	4653
850.95	4596
851.085	4850
851.22	4748
851.355	4668
851.49	4607
851.625	4592
851.76	4615
851.895	4584
852.03	4538
852.165	4672
852.299	4725
852.434	4778
852.569	4748
852.703	4763
852.838	4866
852.973	4854
853.107	4919
853.242	4702
853.376	4645
853.511	4592
853.645	4641
853.78	4824
853.914	4626
854.048	4675
854.183	4653
854.317	4717
854.451	4824
854.585	4645
854.72	4717
854.854	4759
854.988	4584
855.122	4649
855.256	4512
855.39	4679
855.524	4771
855.658	4752
855.792	4672
855.926	4698
856.06	4744
856.194	4805
856.327	4675
856.461	4588
856.595	4634
856.729	4630
856.862	4710
856.996	4698
857.13	4664
857.263	4786
857.397	4816
857.53	4668
857.664	4721
857.797	4721
857.931	4774
858.064	4660
858.197	4771
858.331	4649
858.464	4599
858.597	4523
858.731	4622
858.864	4634
858.997	4580
859.13	4634
859.263	4622
859.396	4679
859.529	4542
859.662	4565
859.795	4447
859.928	4580
860.061	4790
860.194	4740
860.327	4596
860.46	4607
860.592	4725
860.725	4683
860.858	4672
860.99	4561
861.123	4546
861.256	4508
861.388	4618
861.521	5337
861.653	4485
861.786	4440
861.918	4451
862.05	4538
862.183	4527
862.315	4580
862.447	4679
862.58	4573
862.712	4405
862.844	4287
862.976	4462
863.108	4462
863.24	4736
863.372	4314
863.504	4386
863.636	4405
863.768	4421
863.9	4470
864.032	4348
864.164	4329
864.296	4428
864.428	4493
864.559	4550
864.691	4527
864.823	4538
864.954	4478
865.086	4459
865.217	4462
865.349	4398
865.48	4462
865.612	4489
865.743	4622
865.875	4512
866.006	4394
866.137	4481
866.269	4428
866.4	4424
866.531	4424
866.662	4360
866.793	4440
866.924	4421
867.055	4424
867.186	4436
867.317	4443
867.448	4371
867.579	4360
867.71	4379
867.841	4390
867.972	4443
868.103	4489
868.233	4390
868.364	4413
868.495	4443
868.625	4664
868.756	4752
868.886	4607
869.017	4630
869.147	4790
869.278	4740
869.408	4664
869.539	4615
869.669	4698
869.799	4710
869.929	4755
870.06	4721
870.19	4908
870.32	4919
870.45	4942
870.58	4991
870.71	5071
870.84	5113
870.97	4957
871.1	4877
871.23	5071
871.36	5102
871.489	5014
871.619	5060
871.749	5052
871.879	5083
872.008	5147
872.138	5052
872.267	5014
872.397	4843
872.526	4816
872.656	4687
872.785	4793
872.915	4953
873.044	4991
873.173	4908
873.303	4946
873.432	4904
873.561	4904
873.69	4881
873.819	4831
873.948	4915
874.077	4866
874.206	4729
874.335	4812
874.464	4938
874.593	5060
874.722	4942
874.851	5090
874.979	5067
875.108	5022
875.237	4968
875.365	4919
875.494	4877
875.623	5025
875.751	4797
875.88	4854
876.008	4980
876.136	5045
876.265	5124
876.393	5395
876.521	5189
876.65	5223
876.778	5162
876.906	5006
877.034	4949
877.162	5048
877.29	4938
877.418	5083
877.546	5018
877.674	5025
877.802	4999
877.93	5014
878.058	4908
878.185	4843
878.313	4946
878.441	4949
878.568	4786
878.696	4831
878.824	4980
878.951	4987
879.079	5136
879.206	5326
879.333	5048
879.461	4957
879.588	4984
879.715	5151
879.842	5250
879.97	5003
880.097	4786
880.224	4744
880.351	4831
880.478	4805
880.605	4805
880.732	4797
880.859	5022
880.986	4847
881.112	4919
881.239	4755
881.366	4622
881.493	4607
881.619	4599
881.746	4630
881.872	4596
881.999	4668
882.125	4683
882.252	4782
882.378	4831
882.505	4946
882.631	4782
882.757	4656
882.883	4744
883.01	4710
883.136	4615
883.262	4603
883.388	4660
883.514	4831
883.64	4828
883.766	4866
883.892	4653
884.018	4687
884.143	4866
884.269	5037
884.395	4714
884.52	4645
884.646	4660
884.772	4592
884.897	4569
885.023	4675
885.148	4797
885.274	4896
885.399	4843
885.524	4679
885.65	4653
885.775	4706
885.9	4687
886.025	4805
886.15	4748
886.275	4748
886.4	4660
886.525	4683
886.65	4649
886.775	4679
886.9	4866
887.025	5060
887.149	4809
887.274	4645
887.399	4584
887.523	4653
887.648	4596
887.773	4599
887.897	4763
888.021	4790
888.146	4664
888.27	4797
888.395	4885
888.519	4812
888.643	4828
888.767	4847
888.891	4702
889.015	4611
889.139	4618
889.263	4577
889.387	4721
889.511	4812
889.635	4786
889.759	4630
889.883	4588
890.006	4679
890.13	4801
890.254	4622
890.377	4687
890.501	4565
890.624	4497
890.748	4622
890.871	4516
890.995	4432
891.118	4394
891.241	4558
891.364	4489
891.488	4641
891.611	4508
891.734	4535
891.857	4573
891.98	4550
892.103	4630
892.226	4577
892.349	4516
892.471	4443
892.594	4527
892.717	4546
892.839	4577
892.962	4565
893.085	4645
893.207	4588
893.33	4466
893.452	4493
893.575	4675
893.697	4546
893.819	4782
893.941	4816
894.064	4805
894.186	4573
894.308	4577
894.43	4733
894.552	4831
894.674	4748
894.796	4577
894.918	4607
895.04	4588
895.161	4702
895.283	4679
895.405	4592
895.526	4634
895.648	4622
895.769	4691
895.891	4729
896.012	4668
896.134	4694
896.255	4664
896.376	4611
896.498	4660
896.619	4683
896.74	4588
896.861	4622
896.982	4923
897.103	5094
897.224	4820
897.345	4702
897.466	4683
897.587	4702
897.708	4797
897.828	4744
897.949	4683
898.07	4573
898.19	4618
898.311	4744
898.431	4694
898.552	4694
898.672	4805
898.792	4828
898.913	4782
899.033	4573
899.153	4481
899.273	4398
899.393	4432
899.513	4565
899.633	4493
899.753	4538
899.873	4493
899.993	4569
900.113	4542
900.232	4588
900.352	4516
900.472	4478
900.591	4394
900.711	4478
900.83	4478
900.95	4611
901.069	4668
901.189	4554
901.308	4356
901.427	4337
901.546	4394
901.665	4519
901.784	4500
901.904	4325
902.023	4367
902.141	4185
902.26	4143
902.379	4280
902.498	4223
902.617	4211
902.735	4394
902.854	4360
902.973	4348
903.091	4246
903.21	4230
903.328	4314
903.446	4223
903.565	4284
903.683	4383
903.801	4219
903.919	4432
904.038	4443
904.156	4303
904.274	4424
904.392	4383
904.51	4421
904.627	4542
904.745	4550
904.863	4634
904.981	4325
905.098	4291
905.216	4375
905.334	4462
905.451	4470
905.569	4421
905.686	4577
905.803	4565
905.921	4413
906.038	4542
906.155	4455
906.272	4375
906.389	4508
906.506	4337
906.623	4360
906.74	4409
906.857	4303
906.974	4352
907.091	4542
907.208	4691
907.324	4554
907.441	4523
907.557	4333
907.674	4386
907.79	4253
907.907	4379
908.023	4493
908.139	4485
908.256	4409
908.372	4497
908.488	4424
908.604	4322
908.72	4314
908.836	4386
908.952	4356
909.068	4443
909.184	4580
909.3	4447
909.415	4550
909.531	4519
909.647	4352
909.762	4363
909.878	4379
909.993	4440
910.108	4470
910.224	4390
910.339	4440
910.454	4421
910.57	4413
910.685	4287
910.8	4649
910.915	4565
911.03	4485
911.145	4367
911.259	4344
911.374	4413
911.489	4306
911.604	4306
911.718	4166
911.833	4192
911.947	4086
912.062	3998
912.176	4185
912.291	4227
912.405	4246
912.519	4493
912.633	4478
912.748	4360
912.862	4314
912.976	4192
913.09	4093
913.204	4200
913.318	4276
913.431	4344
913.545	4352
913.659	4413
913.772	4322
913.886	4249
914	4265
914.113	4356
914.226	4459
914.34	4413
914.453	4295
914.566	4405
914.68	4306
914.793	4337
914.906	4097
915.019	4128
915.132	4067
915.245	4196
915.358	4223
915.47	4272
915.583	4295
915.696	4318
915.809	4379
915.921	4402
916.034	4238
916.146	4242
916.259	4219
916.371	4390
916.483	4337
916.595	4299
916.708	4306
916.82	4306
916.932	4337
917.044	4322
917.156	4272
917.268	4238
917.38	4268
917.491	4276
917.603	4306
917.715	4405
917.826	4451
917.938	4333
918.049	4192
918.161	4344
918.272	4538
918.384	4523
918.495	4474
918.606	4371
918.717	4204
918.828	4383
918.939	4367
919.05	4276
919.161	4314
919.272	4143
919.383	4265
919.494	4481
919.604	4626
919.715	4367
919.826	4291
919.936	4386
920.047	4470
920.157	4538
920.267	4710
920.378	4561
920.488	4527
920.598	4744
920.708	4896
920.818	4752
920.928	4759
921.038	4965
921.148	4908
921.258	4645
921.368	4538
921.477	4497
921.587	4481
921.697	4360
921.806	4516
921.916	4386
922.025	4261
922.134	4238
922.244	4207
922.353	4325
922.462	4166
922.571	4067
922.68	4021
922.789	3896
922.898	4032
923.007	4006
923.116	4109
923.224	4040
923.333	4078
923.442	3998
923.55	3953
923.659	4044
923.767	4101
923.876	4013
923.984	4109
924.092	3968
924.201	4067
924.309	4082
924.417	4192
924.525	4063
924.633	4093
924.741	4881
924.849	3896
924.956	4124
925.064	3937
925.172	3918
925.279	3991
925.387	4029
925.494	4036
925.602	4211
925.709	4173
925.816	4006
925.924	4128
926.031	4219
926.138	4120
926.245	4166
926.352	4067
926.459	4253
926.566	4318
926.673	4158
926.779	4082
926.886	4067
926.993	3987
927.099	3964
927.206	3964
927.312	3960
927.419	4055
927.525	4021
927.631	4120
927.737	3972
927.843	3941
927.95	3819
928.056	3941
928.162	3956
928.267	4067
928.373	4694
928.479	4063
928.585	3850
928.69	4025
928.796	4063
928.901	3968
929.007	3854
929.112	3956
929.218	3968
929.323	3899
929.428	3926
929.533	4109
929.638	3865
929.743	3960
929.848	4067
929.953	4006
930.058	3888
930.163	3770
930.267	3854
930.372	3964
930.477	3785
930.581	4063
930.685	3930
930.79	3831
930.894	3892
930.998	3865
931.103	4021
931.207	3686
931.311	3667
931.415	3694
931.519	3519
931.623	3534
