Data from test_V78500241_1543.txt Node
Date: Fri Mar 25 16:59:43 CST 2022
User: usil
Spectrometer: V785-0024
Trigger mode: 0
Integration Time (sec): 4.000000E-1
Scans to average: 1
Nonlinearity correction enabled: false
Boxcar width: 0
Storing dark spectrum: false
XAxis mode: Wavelengths
Number of Pixels in Spectrum: 1024
>>>>>Begin Spectral Data<<<<<
801.071	7970
801.214	7970
801.356	7871
801.499	7875
801.641	7761
801.783	7837
801.926	7928
802.068	7947
802.211	7955
802.353	7997
802.496	7845
802.638	7818
802.78	7860
802.923	7856
803.065	7849
803.208	7921
803.35	7944
803.492	8149
803.635	8161
803.777	8027
803.919	8149
804.061	8343
804.204	8134
804.346	8073
804.488	7947
804.63	8039
804.773	8016
804.915	8107
805.057	8279
805.199	8130
805.341	8210
805.483	8214
805.626	8157
805.768	8062
805.91	8202
806.052	8191
806.194	8111
806.336	8214
806.478	8077
806.62	8027
806.762	8077
806.904	8267
807.046	8457
807.188	8351
807.33	8282
807.472	8271
807.614	8130
807.756	8054
807.898	8005
808.04	7792
808.182	7925
808.324	7837
808.465	7871
808.607	8058
808.749	8024
808.891	8176
809.033	8275
809.174	8206
809.316	8035
809.458	8001
809.6	7928
809.741	7993
809.883	7967
810.025	8138
810.166	8054
810.308	7955
810.45	7955
810.591	7875
810.733	7693
810.875	7662
811.016	7506
811.158	7400
811.299	7639
811.441	7655
811.582	7636
811.724	7594
811.865	7502
812.007	7571
812.148	7605
812.29	7575
812.431	7700
812.573	7883
812.714	7974
812.855	8161
812.997	8164
813.138	8210
813.279	8244
813.421	8123
813.562	7913
813.703	7841
813.845	7723
813.986	7419
814.127	7213
814.268	7244
814.41	7202
814.551	7160
814.692	7255
814.833	7149
814.974	7069
815.115	7080
815.256	7015
815.397	6894
815.539	6947
815.68	6802
815.821	6821
815.962	6886
816.103	6833
816.244	6684
816.385	6578
816.526	6582
816.666	6483
816.807	6289
816.948	6475
817.089	6426
817.23	6426
817.371	6331
817.512	6395
817.653	6376
817.793	6334
817.934	6422
818.075	6460
818.216	6429
818.356	6376
818.497	6239
818.638	6121
818.778	6163
818.919	6144
819.06	6163
819.2	6327
819.341	6289
819.481	6384
819.622	6540
819.762	6715
819.903	6700
820.043	6540
820.184	6502
820.324	6570
820.465	6665
820.605	6707
820.746	6646
820.886	6513
821.026	6650
821.167	6639
821.307	6776
821.447	6734
821.588	6662
821.728	6601
821.868	6460
822.008	6353
822.149	6319
822.289	6273
822.429	6125
822.569	6087
822.709	6076
822.849	5908
822.99	5912
823.13	5920
823.27	5893
823.41	5805
823.55	5775
823.69	5726
823.83	5756
823.97	5634
824.11	5543
824.25	5467
824.389	5604
824.529	5608
824.669	5528
824.809	5627
824.949	5630
825.089	5600
825.228	5592
825.368	5368
825.508	5322
825.648	5315
825.787	5357
825.927	5330
826.067	5292
826.206	5299
826.346	5337
826.485	5360
826.625	5436
826.765	5528
826.904	5406
827.044	5250
827.183	5174
827.323	5102
827.462	5269
827.601	5170
827.741	5147
827.88	5204
828.02	5083
828.159	5246
828.298	5296
828.437	5387
828.577	5250
828.716	5509
828.855	5269
828.994	5143
829.134	5102
829.273	5178
829.412	5102
829.551	5151
829.69	5155
829.829	5216
829.968	5410
830.107	5284
830.246	5258
830.385	5147
830.524	5041
830.663	5041
830.802	4965
830.941	4908
831.08	4824
831.219	4965
831.357	4968
831.496	5162
831.635	4919
831.774	4866
831.913	4824
832.051	4698
832.19	4725
832.329	4889
832.467	4675
832.606	4675
832.744	4706
832.883	4725
833.022	4660
833.16	4793
833.299	4850
833.437	4816
833.576	4805
833.714	4870
833.852	4835
833.991	4870
834.129	4946
834.267	4957
834.406	4968
834.544	4976
834.682	4957
834.821	4957
834.959	5155
835.097	4934
835.235	5113
835.373	5041
835.511	5155
835.65	5052
835.788	5025
835.926	4889
836.064	4850
836.202	4889
836.34	5166
836.478	5166
836.615	5090
836.753	5212
836.891	5235
837.029	5227
837.167	5166
837.305	5121
837.443	5121
837.58	5075
837.718	5235
837.856	5117
837.993	5117
838.131	5246
838.269	5216
838.406	5231
838.544	5143
838.681	4984
838.819	4961
838.956	4858
839.094	4850
839.231	4953
839.369	5060
839.506	5402
839.643	5235
839.781	4991
839.918	5025
840.055	5075
840.193	5094
840.33	5083
840.467	5140
840.604	5223
840.742	5425
840.879	5071
841.016	5109
841.153	5124
841.29	5345
841.427	5337
841.564	5296
841.701	5379
841.838	5337
841.975	5269
842.112	5254
842.249	5143
842.385	5094
842.522	5330
842.659	5174
842.796	5140
842.933	5216
843.069	5178
843.206	5170
843.343	5261
843.479	5246
843.616	5307
843.752	5037
843.889	4968
844.025	5212
844.162	5048
844.298	5208
844.435	5147
844.571	5010
844.708	5170
844.844	5277
844.98	5345
845.117	5227
845.253	5094
845.389	5071
845.525	5151
845.661	5147
845.798	5022
845.934	5121
846.07	5064
846.206	5181
846.342	5330
846.478	5231
846.614	5003
846.75	4991
846.886	4919
847.022	5174
847.158	5041
847.294	5041
847.429	5071
847.565	5041
847.701	5322
847.837	4839
847.972	4767
848.108	4919
848.244	4961
848.379	4786
848.515	4679
848.65	4660
848.786	4748
848.921	4793
849.057	4877
849.192	4919
849.328	4778
849.463	4843
849.598	4778
849.734	4725
849.869	4656
850.004	4615
850.14	4672
850.275	4554
850.41	4497
850.545	4565
850.68	4637
850.815	4603
850.95	4653
851.085	4835
851.22	4736
851.355	4679
851.49	4618
851.625	4607
851.76	4615
851.895	4523
852.03	4485
852.165	4649
852.299	4710
852.434	4820
852.569	4706
852.703	4782
852.838	4824
852.973	4877
853.107	4904
853.242	4759
853.376	4637
853.511	4523
853.645	4611
853.78	4835
853.914	4672
854.048	4656
854.183	4622
854.317	4645
854.451	4763
854.585	4675
854.72	4554
854.854	4729
854.988	4577
855.122	4634
855.256	4485
855.39	4664
855.524	4748
855.658	4687
855.792	4721
855.926	4744
856.06	4771
856.194	4763
856.327	4664
856.461	4577
856.595	4615
856.729	4584
856.862	4702
856.996	4698
857.13	4660
857.263	4687
857.397	4786
857.53	4668
857.664	4698
857.797	4714
857.931	4744
858.064	4710
858.197	4763
858.331	4596
858.464	4599
858.597	4535
858.731	4622
858.864	4592
858.997	4565
859.13	4653
859.263	4675
859.396	4683
859.529	4592
859.662	4558
859.795	4535
859.928	4626
860.061	4729
860.194	4767
860.327	4649
860.46	4588
860.592	4714
860.725	4706
860.858	4748
860.99	4592
861.123	4527
861.256	4493
861.388	4615
861.521	5269
861.653	4451
861.786	4432
861.918	4432
862.05	4497
862.183	4561
862.315	4615
862.447	4645
862.58	4550
862.712	4375
862.844	4306
862.976	4462
863.108	4447
863.24	4793
863.372	4363
863.504	4390
863.636	4386
863.768	4519
863.9	4413
864.032	4329
864.164	4383
864.296	4493
864.428	4538
864.559	4535
864.691	4527
864.823	4561
864.954	4519
865.086	4497
865.217	4466
865.349	4421
865.48	4462
865.612	4500
865.743	4637
865.875	4440
866.006	4402
866.137	4451
866.269	4432
866.4	4421
866.531	4424
866.662	4367
866.793	4402
866.924	4409
867.055	4451
867.186	4417
867.317	4417
867.448	4394
867.579	4390
867.71	4417
867.841	4363
867.972	4462
868.103	4474
868.233	4459
868.364	4440
868.495	4508
868.625	4664
868.756	4755
868.886	4618
869.017	4618
869.147	4752
869.278	4763
869.408	4656
869.539	4603
869.669	4630
869.799	4630
869.929	4725
870.06	4714
870.19	4904
870.32	4904
870.45	4961
870.58	4980
870.71	5060
870.84	5071
870.97	4923
871.1	4908
871.23	5155
871.36	5151
871.489	4995
871.619	5083
871.749	5086
871.879	5056
872.008	5220
872.138	5056
872.267	4999
872.397	4835
872.526	4809
872.656	4717
872.785	4767
872.915	4877
873.044	4972
873.173	4938
873.303	4972
873.432	4980
873.561	4949
873.69	4877
873.819	4866
873.948	4923
874.077	4820
874.206	4755
874.335	4752
874.464	4946
874.593	5067
874.722	4927
874.851	5052
874.979	5037
875.108	4999
875.237	4923
875.365	4881
875.494	4873
875.623	4930
875.751	4805
875.88	4866
876.008	5010
876.136	4965
876.265	5147
876.393	5322
876.521	5265
876.65	5204
876.778	5162
876.906	5075
877.034	4980
877.162	5006
877.29	4927
877.418	5075
877.546	5006
877.674	5003
877.802	4995
877.93	4991
878.058	4976
878.185	4850
878.313	4923
878.441	4942
878.568	4767
878.696	4870
878.824	4965
878.951	4995
879.079	5109
879.206	5258
879.333	5094
879.461	4961
879.588	4991
879.715	5113
879.842	5250
879.97	5010
880.097	4790
880.224	4767
880.351	4816
880.478	4805
880.605	4774
880.732	4862
880.859	5086
880.986	4896
881.112	4843
881.239	4778
881.366	4607
881.493	4622
881.619	4596
881.746	4660
881.872	4656
881.999	4630
882.125	4683
882.252	4771
882.378	4835
882.505	4938
882.631	4774
882.757	4630
882.883	4793
883.01	4679
883.136	4668
883.262	4584
883.388	4573
883.514	4790
883.64	4862
883.766	4752
883.892	4645
884.018	4694
884.143	4854
884.269	4957
884.395	4679
884.52	4637
884.646	4656
884.772	4569
884.897	4584
885.023	4649
885.148	4767
885.274	4847
885.399	4816
885.524	4714
885.65	4653
885.775	4752
885.9	4656
886.025	4858
886.15	4786
886.275	4717
886.4	4675
886.525	4691
886.65	4702
886.775	4656
886.9	4919
887.025	5048
887.149	4774
887.274	4645
887.399	4573
887.523	4618
887.648	4558
887.773	4592
887.897	4710
888.021	4809
888.146	4630
888.27	4793
888.395	4881
888.519	4740
888.643	4771
888.767	4839
888.891	4733
889.015	4634
889.139	4660
889.263	4603
889.387	4759
889.511	4790
889.635	4782
889.759	4561
889.883	4660
890.006	4744
890.13	4801
890.254	4584
890.377	4687
890.501	4459
890.624	4538
890.748	4649
890.871	4531
890.995	4489
891.118	4398
891.241	4504
891.364	4508
891.488	4607
891.611	4497
891.734	4527
891.857	4580
891.98	4493
892.103	4603
892.226	4577
892.349	4546
892.471	4455
892.594	4542
892.717	4615
892.839	4580
892.962	4573
893.085	4645
893.207	4573
893.33	4478
893.452	4504
893.575	4641
893.697	4580
893.819	4801
893.941	4801
894.064	4771
894.186	4527
894.308	4592
894.43	4763
894.552	4736
894.674	4767
894.796	4542
894.918	4596
895.04	4630
895.161	4656
895.283	4675
895.405	4599
895.526	4592
895.648	4660
895.769	4622
895.891	4691
896.012	4774
896.134	4702
896.255	4653
896.376	4622
896.498	4618
896.619	4645
896.74	4611
896.861	4660
896.982	4896
897.103	5094
897.224	4809
897.345	4771
897.466	4645
897.587	4721
897.708	4843
897.828	4790
897.949	4664
898.07	4546
898.19	4626
898.311	4858
898.431	4626
898.552	4729
898.672	4786
898.792	4805
898.913	4767
899.033	4618
899.153	4493
899.273	4424
899.393	4447
899.513	4504
899.633	4489
899.753	4542
899.873	4504
899.993	4565
900.113	4573
900.232	4527
900.352	4531
900.472	4512
900.591	4405
900.711	4504
900.83	4424
900.95	4596
901.069	4653
901.189	4538
901.308	4348
901.427	4348
901.546	4363
901.665	4462
901.784	4542
901.904	4375
902.023	4310
902.141	4181
902.26	4162
902.379	4284
902.498	4257
902.617	4238
902.735	4341
902.854	4402
902.973	4310
903.091	4200
903.21	4219
903.328	4306
903.446	4272
903.565	4276
903.683	4348
903.801	4253
903.919	4402
904.038	4371
904.156	4310
904.274	4398
904.392	4390
904.51	4440
904.627	4497
904.745	4618
904.863	4618
904.981	4432
905.098	4284
905.216	4337
905.334	4417
905.451	4413
905.569	4440
905.686	4516
905.803	4512
905.921	4417
906.038	4550
906.155	4466
906.272	4409
906.389	4466
906.506	4360
906.623	4383
906.74	4363
906.857	4314
906.974	4329
907.091	4558
907.208	4656
907.324	4561
907.441	4512
907.557	4348
907.674	4360
907.79	4299
907.907	4402
908.023	4470
908.139	4470
908.256	4459
908.372	4466
908.488	4455
908.604	4352
908.72	4325
908.836	4344
908.952	4363
909.068	4436
909.184	4550
909.3	4485
909.415	4565
909.531	4527
909.647	4322
909.762	4329
909.878	4322
909.993	4367
910.108	4413
910.224	4402
910.339	4390
910.454	4417
910.57	4356
910.685	4352
910.8	4656
910.915	4603
911.03	4451
911.145	4314
911.259	4352
911.374	4367
911.489	4272
911.604	4299
911.718	4188
911.833	4139
911.947	4097
912.062	3994
912.176	4188
912.291	4246
912.405	4207
912.519	4459
912.633	4500
912.748	4337
912.862	4310
912.976	4200
913.09	4105
913.204	4120
913.318	4276
913.431	4310
913.545	4356
913.659	4405
913.772	4348
913.886	4253
914	4207
914.113	4360
914.226	4424
914.34	4375
914.453	4192
914.566	4451
914.68	4291
914.793	4322
914.906	4188
915.019	4124
915.132	4082
915.245	4196
915.358	4192
915.47	4223
915.583	4295
915.696	4337
915.809	4398
915.921	4367
916.034	4268
916.146	4249
916.259	4177
916.371	4405
916.483	4363
916.595	4253
916.708	4280
916.82	4348
916.932	4265
917.044	4310
917.156	4379
917.268	4223
917.38	4306
917.491	4291
917.603	4352
917.715	4405
917.826	4394
917.938	4284
918.049	4215
918.161	4417
918.272	4580
918.384	4554
918.495	4470
918.606	4261
918.717	4246
918.828	4318
918.939	4352
919.05	4272
919.161	4223
919.272	4105
919.383	4234
919.494	4424
919.604	4592
919.715	4478
919.826	4322
919.936	4394
920.047	4500
920.157	4538
920.267	4626
920.378	4542
920.488	4493
920.598	4717
920.708	4889
920.818	4721
920.928	4744
921.038	4927
921.148	4908
921.258	4634
921.368	4584
921.477	4485
921.587	4409
921.697	4402
921.806	4535
921.916	4493
922.025	4306
922.134	4261
922.244	4242
922.353	4356
922.462	4169
922.571	4109
922.68	4010
922.789	4025
922.898	4006
923.007	3987
923.116	4109
923.224	4067
923.333	4071
923.442	3979
923.55	4006
923.659	3991
923.767	4074
923.876	4040
923.984	4124
924.092	3979
924.201	4090
924.309	4101
924.417	4109
924.525	4044
924.633	4128
924.741	4896
924.849	3918
924.956	4120
925.064	3937
925.172	3930
925.279	3945
925.387	4078
925.494	3998
925.602	4215
925.709	4169
925.816	4051
925.924	4135
926.031	4188
926.138	4128
926.245	4215
926.352	4029
926.459	4227
926.566	4276
926.673	4105
926.779	4063
926.886	4112
926.993	3994
927.099	3907
927.206	3956
927.312	3956
927.419	4059
927.525	4032
927.631	4063
927.737	3922
927.843	3915
927.95	3816
928.056	3953
928.162	3953
928.267	4044
928.373	4588
928.479	4139
928.585	3876
928.69	4002
928.796	4090
928.901	3915
929.007	3835
929.112	3994
929.218	3979
929.323	3949
929.428	3926
929.533	4078
929.638	3915
929.743	3979
929.848	4051
929.953	3987
930.058	3926
930.163	3774
930.267	3816
930.372	4006
930.477	3808
930.581	4090
930.685	3949
930.79	3785
930.894	3880
930.998	3831
931.103	4010
931.207	3675
931.311	3705
931.415	3663
931.519	3500
931.623	3568
