Data from test_V78500241_2422.txt Node
Date: Fri Mar 25 17:05:50 CST 2022
User: usil
Spectrometer: V785-0024
Trigger mode: 0
Integration Time (sec): 4.000000E-1
Scans to average: 1
Nonlinearity correction enabled: false
Boxcar width: 0
Storing dark spectrum: false
XAxis mode: Wavelengths
Number of Pixels in Spectrum: 1024
>>>>>Begin Spectral Data<<<<<
801.071	8039
801.214	8050
801.356	7879
801.499	7906
801.641	7792
801.783	7898
801.926	7982
802.068	7951
802.211	7963
802.353	7982
802.496	7906
802.638	7883
802.78	7925
802.923	7852
803.065	7947
803.208	7864
803.35	8043
803.492	8145
803.635	8221
803.777	8111
803.919	8176
804.061	8488
804.204	8225
804.346	8092
804.488	7997
804.63	8153
804.773	8046
804.915	8157
805.057	8362
805.199	8214
805.341	8275
805.483	8301
805.626	8263
805.768	8225
805.91	8187
806.052	8267
806.194	8084
806.336	8275
806.478	8126
806.62	8031
806.762	8176
806.904	8252
807.046	8503
807.188	8412
807.33	8366
807.472	8408
807.614	8164
807.756	8214
807.898	8016
808.04	7894
808.182	7879
808.324	7925
808.465	7936
808.607	8123
808.749	8164
808.891	8267
809.033	8298
809.174	8263
809.316	8092
809.458	8092
809.6	7989
809.741	8024
809.883	8016
810.025	8092
810.166	8123
810.308	8054
810.45	7986
810.591	7898
810.733	7731
810.875	7715
811.016	7533
811.158	7521
811.299	7666
811.441	7723
811.582	7712
811.724	7609
811.865	7537
812.007	7632
812.148	7601
812.29	7582
812.431	7799
812.573	7894
812.714	7955
812.855	8153
812.997	8233
813.138	8355
813.279	8221
813.421	8096
813.562	8039
813.703	7833
813.845	7742
813.986	7499
814.127	7343
814.268	7221
814.41	7194
814.551	7190
814.692	7255
814.833	7072
814.974	7133
815.115	7107
815.256	6970
815.397	7004
815.539	6977
815.68	6844
815.821	6825
815.962	6878
816.103	6871
816.244	6696
816.385	6654
816.526	6677
816.666	6570
816.807	6319
816.948	6490
817.089	6513
817.23	6490
817.371	6433
817.512	6414
817.653	6483
817.793	6426
817.934	6471
818.075	6494
818.216	6475
818.356	6407
818.497	6285
818.638	6178
818.778	6228
818.919	6144
819.06	6216
819.2	6338
819.341	6350
819.481	6410
819.622	6528
819.762	6734
819.903	6745
820.043	6646
820.184	6585
820.324	6620
820.465	6722
820.605	6639
820.746	6658
820.886	6544
821.026	6749
821.167	6684
821.307	6818
821.447	6772
821.588	6722
821.728	6578
821.868	6547
822.008	6342
822.149	6372
822.289	6380
822.429	6209
822.569	6106
822.709	6197
822.849	5950
822.99	5904
823.13	5942
823.27	5942
823.41	5764
823.55	5840
823.69	5840
823.83	5771
823.97	5726
824.11	5570
824.25	5562
824.389	5554
824.529	5596
824.669	5551
824.809	5710
824.949	5688
825.089	5661
825.228	5577
825.368	5455
825.508	5395
825.648	5357
825.787	5414
825.927	5395
826.067	5372
826.206	5315
826.346	5368
826.485	5391
826.625	5398
826.765	5551
826.904	5512
827.044	5292
827.183	5231
827.323	5159
827.462	5250
827.601	5178
827.741	5170
827.88	5227
828.02	5193
828.159	5246
828.298	5372
828.437	5364
828.577	5261
828.716	5539
828.855	5334
828.994	5185
829.134	5113
829.273	5212
829.412	5185
829.551	5155
829.69	5162
829.829	5273
829.968	5402
830.107	5372
830.246	5273
830.385	5193
830.524	5143
830.663	5090
830.802	5052
830.941	4923
831.08	4904
831.219	4976
831.357	5010
831.496	5193
831.635	4930
831.774	4831
831.913	4938
832.051	4774
832.19	4767
832.329	4835
832.467	4706
832.606	4714
832.744	4778
832.883	4729
833.022	4740
833.16	4831
833.299	4835
833.437	4839
833.576	4873
833.714	4870
833.852	4889
833.991	4934
834.129	5006
834.267	5014
834.406	4934
834.544	4976
834.682	4961
834.821	4972
834.959	5174
835.097	4995
835.235	5151
835.373	5113
835.511	5102
835.65	5075
835.788	5060
835.926	4873
836.064	4930
836.202	4949
836.34	5147
836.478	5204
836.615	5162
836.753	5223
836.891	5307
837.029	5292
837.167	5227
837.305	5201
837.443	5189
837.58	5094
837.718	5258
837.856	5193
837.993	5185
838.131	5208
838.269	5204
838.406	5231
838.544	5143
838.681	5037
838.819	5052
838.956	4911
839.094	4896
839.231	5022
839.369	5079
839.506	5421
839.643	5288
839.781	5071
839.918	5022
840.055	5105
840.193	5075
840.33	5121
840.467	5147
840.604	5197
840.742	5421
840.879	5079
841.016	5140
841.153	5197
841.29	5341
841.427	5357
841.564	5360
841.701	5376
841.838	5280
841.975	5296
842.112	5288
842.249	5132
842.385	5086
842.522	5349
842.659	5193
842.796	5193
842.933	5227
843.069	5174
843.206	5174
843.343	5269
843.479	5280
843.616	5296
843.752	5083
843.889	5029
844.025	5242
844.162	5048
844.298	5204
844.435	5086
844.571	5083
844.708	5181
844.844	5322
844.98	5353
845.117	5307
845.253	5189
845.389	5064
845.525	5212
845.661	5140
845.798	5056
845.934	5151
846.07	5109
846.206	5246
846.342	5299
846.478	5174
846.614	5022
846.75	5006
846.886	4900
847.022	5185
847.158	5086
847.294	5086
847.429	5090
847.565	5098
847.701	5318
847.837	4877
847.972	4835
848.108	5041
848.244	4938
848.379	4790
848.515	4710
848.65	4748
848.786	4763
848.921	4835
849.057	4881
849.192	4862
849.328	4816
849.463	4889
849.598	4767
849.734	4771
849.869	4691
850.004	4626
850.14	4683
850.275	4637
850.41	4500
850.545	4588
850.68	4577
850.815	4656
850.95	4645
851.085	4870
851.22	4748
851.355	4668
851.49	4649
851.625	4626
851.76	4664
851.895	4584
852.03	4550
852.165	4679
852.299	4733
852.434	4774
852.569	4778
852.703	4862
852.838	4843
852.973	4942
853.107	4930
853.242	4805
853.376	4660
853.511	4615
853.645	4618
853.78	4790
853.914	4702
854.048	4675
854.183	4649
854.317	4748
854.451	4873
854.585	4679
854.72	4660
854.854	4767
854.988	4580
855.122	4634
855.256	4603
855.39	4694
855.524	4782
855.658	4698
855.792	4683
855.926	4752
856.06	4767
856.194	4885
856.327	4717
856.461	4637
856.595	4637
856.729	4675
856.862	4767
856.996	4706
857.13	4729
857.263	4790
857.397	4786
857.53	4645
857.664	4717
857.797	4793
857.931	4812
858.064	4683
858.197	4774
858.331	4694
858.464	4626
858.597	4508
858.731	4660
858.864	4687
858.997	4596
859.13	4611
859.263	4698
859.396	4729
859.529	4599
859.662	4596
859.795	4542
859.928	4611
860.061	4755
860.194	4839
860.327	4641
860.46	4565
860.592	4714
860.725	4725
860.858	4733
860.99	4626
861.123	4531
861.256	4542
861.388	4649
861.521	5349
861.653	4481
861.786	4462
861.918	4478
862.05	4500
862.183	4573
862.315	4618
862.447	4660
862.58	4558
862.712	4394
862.844	4329
862.976	4489
863.108	4470
863.24	4797
863.372	4371
863.504	4421
863.636	4402
863.768	4527
863.9	4440
864.032	4356
864.164	4405
864.296	4481
864.428	4580
864.559	4573
864.691	4519
864.823	4523
864.954	4497
865.086	4516
865.217	4428
865.349	4424
865.48	4489
865.612	4550
865.743	4668
865.875	4523
866.006	4424
866.137	4474
866.269	4455
866.4	4459
866.531	4421
866.662	4436
866.793	4383
866.924	4455
867.055	4478
867.186	4489
867.317	4405
867.448	4363
867.579	4398
867.71	4383
867.841	4360
867.972	4489
868.103	4485
868.233	4527
868.364	4470
868.495	4466
868.625	4721
868.756	4729
868.886	4607
869.017	4622
869.147	4820
869.278	4771
869.408	4656
869.539	4683
869.669	4714
869.799	4660
869.929	4740
870.06	4725
870.19	4949
870.32	4957
870.45	4961
870.58	5022
870.71	5136
870.84	5060
870.97	4984
871.1	4889
871.23	5147
871.36	5105
871.489	5056
871.619	5071
871.749	5109
871.879	5132
872.008	5178
872.138	5067
872.267	4961
872.397	4843
872.526	4828
872.656	4733
872.785	4831
872.915	4987
873.044	5041
873.173	4965
873.303	4957
873.432	4984
873.561	4972
873.69	4858
873.819	4839
873.948	4938
874.077	4854
874.206	4774
874.335	4831
874.464	4923
874.593	5098
874.722	4984
874.851	5121
874.979	5037
875.108	5037
875.237	4938
875.365	4870
875.494	4873
875.623	4999
875.751	4801
875.88	4889
876.008	4999
876.136	5041
876.265	5216
876.393	5322
876.521	5223
876.65	5239
876.778	5216
876.906	5052
877.034	5094
877.162	5064
877.29	4995
877.418	5090
877.546	5010
877.674	5094
877.802	5098
877.93	5056
878.058	4980
878.185	4881
878.313	4972
878.441	4934
878.568	4801
878.696	4839
878.824	4999
878.951	5025
879.079	5178
879.206	5311
879.333	5083
879.461	4961
879.588	5010
879.715	5174
879.842	5223
879.97	4984
880.097	4752
880.224	4774
880.351	4820
880.478	4866
880.605	4820
880.732	4805
880.859	5143
880.986	4942
881.112	4930
881.239	4767
881.366	4664
881.493	4603
881.619	4611
881.746	4634
881.872	4664
881.999	4668
882.125	4710
882.252	4771
882.378	4831
882.505	4934
882.631	4816
882.757	4687
882.883	4740
883.01	4729
883.136	4622
883.262	4599
883.388	4603
883.514	4866
883.64	4854
883.766	4729
883.892	4645
884.018	4694
884.143	4934
884.269	5003
884.395	4672
884.52	4599
884.646	4618
884.772	4626
884.897	4493
885.023	4672
885.148	4843
885.274	4858
885.399	4847
885.524	4729
885.65	4645
885.775	4706
885.9	4725
886.025	4885
886.15	4801
886.275	4687
886.4	4656
886.525	4672
886.65	4668
886.775	4710
886.9	4892
887.025	5029
887.149	4771
887.274	4694
887.399	4599
887.523	4653
887.648	4565
887.773	4592
887.897	4767
888.021	4793
888.146	4634
888.27	4816
888.395	4915
888.519	4767
888.643	4797
888.767	4824
888.891	4656
889.015	4588
889.139	4675
889.263	4630
889.387	4778
889.511	4908
889.635	4805
889.759	4706
889.883	4611
890.006	4717
890.13	4809
890.254	4603
890.377	4615
890.501	4561
890.624	4561
890.748	4603
890.871	4554
890.995	4436
891.118	4405
891.241	4523
891.364	4523
891.488	4607
891.611	4497
891.734	4516
891.857	4569
891.98	4546
892.103	4622
892.226	4599
892.349	4523
892.471	4447
892.594	4561
892.717	4664
892.839	4554
892.962	4558
893.085	4672
893.207	4626
893.33	4466
893.452	4512
893.575	4717
893.697	4538
893.819	4763
893.941	4812
894.064	4809
894.186	4561
894.308	4565
894.43	4702
894.552	4786
894.674	4793
894.796	4531
894.918	4573
895.04	4569
895.161	4675
895.283	4615
895.405	4607
895.526	4656
895.648	4710
895.769	4668
895.891	4687
896.012	4752
896.134	4729
896.255	4660
896.376	4611
896.498	4596
896.619	4675
896.74	4618
896.861	4618
896.982	4866
897.103	5121
897.224	4873
897.345	4782
897.466	4630
897.587	4721
897.708	4862
897.828	4809
897.949	4649
898.07	4546
898.19	4660
898.311	4831
898.431	4710
898.552	4733
898.672	4824
898.792	4801
898.913	4717
899.033	4683
899.153	4497
899.273	4390
899.393	4523
899.513	4535
899.633	4542
899.753	4512
899.873	4516
899.993	4607
900.113	4531
900.232	4535
900.352	4527
900.472	4478
900.591	4402
900.711	4459
900.83	4436
900.95	4630
901.069	4694
901.189	4531
901.308	4398
901.427	4322
901.546	4405
901.665	4440
901.784	4516
901.904	4409
902.023	4306
902.141	4192
902.26	4147
902.379	4291
902.498	4227
902.617	4253
902.735	4443
902.854	4363
902.973	4356
903.091	4192
903.21	4207
903.328	4291
903.446	4299
903.565	4249
903.683	4341
903.801	4242
903.919	4398
904.038	4421
904.156	4341
904.274	4421
904.392	4375
904.51	4405
904.627	4447
904.745	4535
904.863	4569
904.981	4413
905.098	4318
905.216	4352
905.334	4436
905.451	4455
905.569	4489
905.686	4565
905.803	4542
905.921	4398
906.038	4500
906.155	4459
906.272	4360
906.389	4417
906.506	4333
906.623	4367
906.74	4421
906.857	4287
906.974	4402
907.091	4519
907.208	4626
907.324	4577
907.441	4462
907.557	4306
907.674	4348
907.79	4329
907.907	4367
908.023	4440
908.139	4447
908.256	4459
908.372	4432
908.488	4421
908.604	4363
908.72	4306
908.836	4344
908.952	4367
909.068	4379
909.184	4558
909.3	4504
909.415	4577
909.531	4516
909.647	4379
909.762	4386
909.878	4348
909.993	4394
910.108	4474
910.224	4421
910.339	4459
910.454	4394
910.57	4325
910.685	4291
910.8	4702
910.915	4588
911.03	4481
911.145	4318
911.259	4375
911.374	4341
911.489	4310
911.604	4303
911.718	4169
911.833	4207
911.947	4101
912.062	4051
912.176	4211
912.291	4249
912.405	4253
912.519	4470
912.633	4527
912.748	4421
912.862	4348
912.976	4188
913.09	4063
913.204	4188
913.318	4276
913.431	4394
913.545	4341
913.659	4405
913.772	4310
913.886	4291
914	4227
914.113	4337
914.226	4481
914.34	4367
914.453	4249
914.566	4443
914.68	4253
914.793	4329
914.906	4154
915.019	4150
915.132	4082
915.245	4169
915.358	4185
915.47	4234
915.583	4215
915.696	4284
915.809	4402
915.921	4405
916.034	4249
916.146	4272
916.259	4204
916.371	4379
916.483	4386
916.595	4211
916.708	4314
916.82	4272
916.932	4344
917.044	4325
917.156	4375
917.268	4207
917.38	4268
917.491	4272
917.603	4325
917.715	4386
917.826	4394
917.938	4363
918.049	4223
918.161	4371
918.272	4523
918.384	4512
918.495	4428
918.606	4333
918.717	4253
918.828	4284
918.939	4413
919.05	4261
919.161	4325
919.272	4116
919.383	4188
919.494	4451
919.604	4626
919.715	4447
919.826	4314
919.936	4413
920.047	4554
920.157	4527
920.267	4675
920.378	4531
920.488	4497
920.598	4759
920.708	4850
920.818	4755
920.928	4767
921.038	4965
921.148	4900
921.258	4561
921.368	4538
921.477	4455
921.587	4470
921.697	4424
921.806	4516
921.916	4413
922.025	4280
922.134	4284
922.244	4196
922.353	4348
922.462	4177
922.571	4128
922.68	3975
922.789	3972
922.898	4051
923.007	3983
923.116	4139
923.224	4040
923.333	4021
923.442	3968
923.55	3960
923.659	4044
923.767	4074
923.876	3994
923.984	4109
924.092	3975
924.201	4059
924.309	4093
924.417	4112
924.525	4051
924.633	4135
924.741	5006
924.849	3876
924.956	4150
925.064	3972
925.172	3934
925.279	3964
925.387	4051
925.494	4101
925.602	4185
925.709	4173
925.816	4067
925.924	4150
926.031	4227
926.138	4173
926.245	4219
926.352	4078
926.459	4215
926.566	4268
926.673	4131
926.779	4055
926.886	4055
926.993	3987
927.099	3949
927.206	3941
927.312	3934
927.419	4040
927.525	4017
927.631	4090
927.737	3972
927.843	3956
927.95	3896
928.056	3918
928.162	3945
928.267	4086
928.373	4687
928.479	4147
928.585	3865
928.69	4025
928.796	4105
928.901	3983
929.007	3835
929.112	4013
929.218	3934
929.323	3941
929.428	3972
929.533	4040
929.638	3861
929.743	3983
929.848	4055
929.953	4051
930.058	3907
930.163	3785
930.267	3823
930.372	3983
930.477	3800
930.581	4105
930.685	3956
930.79	3808
930.894	3907
930.998	3857
931.103	4048
931.207	3713
931.311	3637
931.415	3713
931.519	3519
931.623	3542
