Data from test_V78500241_1344.txt Node
Date: Fri Mar 25 16:58:20 CST 2022
User: usil
Spectrometer: V785-0024
Trigger mode: 0
Integration Time (sec): 4.000000E-1
Scans to average: 1
Nonlinearity correction enabled: false
Boxcar width: 0
Storing dark spectrum: false
XAxis mode: Wavelengths
Number of Pixels in Spectrum: 1024
>>>>>Begin Spectral Data<<<<<
801.071	8035
801.214	8081
801.356	7856
801.499	7837
801.641	7814
801.783	7818
801.926	7967
802.068	7970
802.211	8012
802.353	8039
802.496	7795
802.638	7875
802.78	7898
802.923	7951
803.065	7955
803.208	7917
803.35	7959
803.492	8119
803.635	8218
803.777	8035
803.919	8100
804.061	8499
804.204	8123
804.346	8081
804.488	7986
804.63	8027
804.773	7989
804.915	8115
805.057	8324
805.199	8191
805.341	8202
805.483	8248
805.626	8195
805.768	8145
805.91	8180
806.052	8248
806.194	8107
806.336	8275
806.478	8073
806.62	8035
806.762	8084
806.904	8256
807.046	8492
807.188	8366
807.33	8332
807.472	8358
807.614	8096
807.756	8126
807.898	7974
808.04	7928
808.182	7849
808.324	7925
808.465	7944
808.607	8054
808.749	8111
808.891	8130
809.033	8225
809.174	8187
809.316	8073
809.458	8081
809.6	8039
809.741	7982
809.883	8058
810.025	8138
810.166	8043
810.308	8020
810.45	8031
810.591	7890
810.733	7742
810.875	7704
811.016	7453
811.158	7480
811.299	7609
811.441	7750
811.582	7670
811.724	7548
811.865	7502
812.007	7582
812.148	7578
812.29	7601
812.431	7772
812.573	7852
812.714	7947
812.855	8187
812.997	8195
813.138	8294
813.279	8168
813.421	8134
813.562	8008
813.703	7883
813.845	7769
813.986	7381
814.127	7221
814.268	7160
814.41	7202
814.551	7232
814.692	7213
814.833	7069
814.974	7027
815.115	7072
815.256	6989
815.397	6935
815.539	6985
815.68	6829
815.821	6757
815.962	6848
816.103	6798
816.244	6700
816.385	6635
816.526	6566
816.666	6418
816.807	6273
816.948	6410
817.089	6490
817.23	6426
817.371	6338
817.512	6376
817.653	6429
817.793	6380
817.934	6395
818.075	6448
818.216	6467
818.356	6380
818.497	6190
818.638	6072
818.778	6117
818.919	6152
819.06	6148
819.2	6292
819.341	6254
819.481	6403
819.622	6574
819.762	6719
819.903	6642
820.043	6604
820.184	6585
820.324	6559
820.465	6684
820.605	6688
820.746	6566
820.886	6490
821.026	6616
821.167	6665
821.307	6791
821.447	6707
821.588	6616
821.728	6509
821.868	6521
822.008	6327
822.149	6353
822.289	6388
822.429	6136
822.569	6064
822.709	6091
822.849	5935
822.99	5874
823.13	5977
823.27	5954
823.41	5813
823.55	5764
823.69	5786
823.83	5718
823.97	5653
824.11	5509
824.25	5520
824.389	5570
824.529	5596
824.669	5505
824.809	5646
824.949	5619
825.089	5661
825.228	5573
825.368	5452
825.508	5387
825.648	5280
825.787	5372
825.927	5368
826.067	5292
826.206	5315
826.346	5402
826.485	5395
826.625	5387
826.765	5554
826.904	5452
827.044	5208
827.183	5197
827.323	5086
827.462	5181
827.601	5140
827.741	5159
827.88	5265
828.02	5166
828.159	5296
828.298	5296
828.437	5391
828.577	5258
828.716	5459
828.855	5357
828.994	5113
829.134	5166
829.273	5155
829.412	5181
829.551	5117
829.69	5159
829.829	5292
829.968	5318
830.107	5322
830.246	5265
830.385	5201
830.524	5064
830.663	5071
830.802	4987
830.941	4904
831.08	4892
831.219	4987
831.357	4980
831.496	5102
831.635	4919
831.774	4850
831.913	4820
832.051	4748
832.19	4725
832.329	4835
832.467	4664
832.606	4637
832.744	4729
832.883	4744
833.022	4763
833.16	4782
833.299	4801
833.437	4843
833.576	4847
833.714	4858
833.852	4843
833.991	4843
834.129	4965
834.267	4881
834.406	4847
834.544	4972
834.682	4976
834.821	4938
834.959	5090
835.097	4972
835.235	5105
835.373	5045
835.511	5117
835.65	5010
835.788	5033
835.926	4892
836.064	4873
836.202	4828
836.34	5094
836.478	5235
836.615	5079
836.753	5201
836.891	5318
837.029	5174
837.167	5181
837.305	5166
837.443	5090
837.58	5048
837.718	5204
837.856	5204
837.993	5102
838.131	5231
838.269	5170
838.406	5227
838.544	5151
838.681	5041
838.819	5018
838.956	4873
839.094	4858
839.231	5003
839.369	5041
839.506	5402
839.643	5246
839.781	5090
839.918	4987
840.055	5025
840.193	5052
840.33	5132
840.467	5128
840.604	5162
840.742	5448
840.879	5109
841.016	5075
841.153	5166
841.29	5353
841.427	5349
841.564	5307
841.701	5360
841.838	5261
841.975	5250
842.112	5254
842.249	5132
842.385	5151
842.522	5318
842.659	5223
842.796	5143
842.933	5151
843.069	5124
843.206	5170
843.343	5315
843.479	5208
843.616	5277
843.752	5022
843.889	4999
844.025	5223
844.162	5003
844.298	5204
844.435	5105
844.571	5079
844.708	5178
844.844	5311
844.98	5345
845.117	5273
845.253	5117
845.389	5105
845.525	5117
845.661	5041
845.798	5022
845.934	5159
846.07	4999
846.206	5231
846.342	5235
846.478	5143
846.614	5022
846.75	4953
846.886	4942
847.022	5124
847.158	5003
847.294	5041
847.429	5140
847.565	5006
847.701	5277
847.837	4767
847.972	4809
848.108	4968
848.244	4923
848.379	4736
848.515	4717
848.65	4687
848.786	4744
848.921	4797
849.057	4839
849.192	4911
849.328	4809
849.463	4828
849.598	4790
849.734	4729
849.869	4675
850.004	4630
850.14	4596
850.275	4615
850.41	4558
850.545	4542
850.68	4573
850.815	4580
850.95	4599
851.085	4801
851.22	4721
851.355	4683
851.49	4603
851.625	4584
851.76	4615
851.895	4523
852.03	4550
852.165	4615
852.299	4706
852.434	4801
852.569	4752
852.703	4752
852.838	4816
852.973	4892
853.107	4850
853.242	4759
853.376	4611
853.511	4508
853.645	4596
853.78	4771
853.914	4687
854.048	4607
854.183	4630
854.317	4706
854.451	4824
854.585	4698
854.72	4573
854.854	4725
854.988	4599
855.122	4592
855.256	4508
855.39	4664
855.524	4771
855.658	4717
855.792	4634
855.926	4759
856.06	4793
856.194	4755
856.327	4687
856.461	4599
856.595	4649
856.729	4641
856.862	4698
856.996	4729
857.13	4755
857.263	4702
857.397	4774
857.53	4653
857.664	4721
857.797	4778
857.931	4771
858.064	4694
858.197	4759
858.331	4630
858.464	4580
858.597	4527
858.731	4645
858.864	4645
858.997	4599
859.13	4630
859.263	4615
859.396	4687
859.529	4546
859.662	4531
859.795	4462
859.928	4656
860.061	4771
860.194	4706
860.327	4618
860.46	4558
860.592	4706
860.725	4710
860.858	4694
860.99	4554
861.123	4497
861.256	4481
861.388	4630
861.521	5322
861.653	4474
861.786	4455
861.918	4447
862.05	4500
862.183	4535
862.315	4599
862.447	4618
862.58	4558
862.712	4405
862.844	4333
862.976	4466
863.108	4462
863.24	4892
863.372	4337
863.504	4394
863.636	4451
863.768	4447
863.9	4455
864.032	4383
864.164	4375
864.296	4478
864.428	4554
864.559	4512
864.691	4512
864.823	4493
864.954	4489
865.086	4519
865.217	4508
865.349	4390
865.48	4459
865.612	4489
865.743	4664
865.875	4485
866.006	4417
866.137	4443
866.269	4466
866.4	4394
866.531	4440
866.662	4405
866.793	4386
866.924	4440
867.055	4470
867.186	4455
867.317	4421
867.448	4344
867.579	4379
867.71	4402
867.841	4299
867.972	4466
868.103	4409
868.233	4424
868.364	4413
868.495	4504
868.625	4668
868.756	4752
868.886	4538
869.017	4580
869.147	4763
869.278	4740
869.408	4599
869.539	4622
869.669	4691
869.799	4668
869.929	4763
870.06	4778
870.19	4908
870.32	4873
870.45	4919
870.58	5006
870.71	5083
870.84	5056
870.97	4919
871.1	4870
871.23	5155
871.36	5048
871.489	5003
871.619	5060
871.749	5037
871.879	5105
872.008	5170
872.138	5018
872.267	4995
872.397	4809
872.526	4790
872.656	4755
872.785	4809
872.915	4942
873.044	4984
873.173	4949
873.303	4999
873.432	4999
873.561	4942
873.69	4820
873.819	4824
873.948	4923
874.077	4809
874.206	4710
874.335	4759
874.464	4862
874.593	5060
874.722	4965
874.851	5102
874.979	5075
875.108	5033
875.237	4873
875.365	4812
875.494	4866
875.623	4961
875.751	4805
875.88	4877
876.008	4946
876.136	5029
876.265	5166
876.393	5345
876.521	5231
876.65	5250
876.778	5181
876.906	5079
877.034	4976
877.162	5010
877.29	4957
877.418	5006
877.546	4987
877.674	5060
877.802	5018
877.93	5037
878.058	4877
878.185	4866
878.313	4911
878.441	4892
878.568	4752
878.696	4873
878.824	4946
878.951	4987
879.079	5105
879.206	5265
879.333	5109
879.461	4949
879.588	4965
879.715	5136
879.842	5193
879.97	4953
880.097	4809
880.224	4733
880.351	4759
880.478	4755
880.605	4763
880.732	4771
880.859	5064
880.986	4828
881.112	4877
881.239	4774
881.366	4649
881.493	4603
881.619	4531
881.746	4596
881.872	4664
881.999	4611
882.125	4683
882.252	4778
882.378	4809
882.505	4919
882.631	4778
882.757	4691
882.883	4763
883.01	4725
883.136	4637
883.262	4580
883.388	4622
883.514	4793
883.64	4866
883.766	4748
883.892	4687
884.018	4710
884.143	4900
884.269	4999
884.395	4664
884.52	4607
884.646	4641
884.772	4584
884.897	4546
885.023	4660
885.148	4790
885.274	4854
885.399	4797
885.524	4710
885.65	4672
885.775	4706
885.9	4721
886.025	4831
886.15	4748
886.275	4694
886.4	4656
886.525	4698
886.65	4634
886.775	4687
886.9	4915
887.025	5033
887.149	4771
887.274	4656
887.399	4554
887.523	4603
887.648	4519
887.773	4558
887.897	4733
888.021	4767
888.146	4717
888.27	4748
888.395	4858
888.519	4759
888.643	4835
888.767	4839
888.891	4691
889.015	4611
889.139	4664
889.263	4565
889.387	4774
889.511	4885
889.635	4767
889.759	4653
889.883	4634
890.006	4729
890.13	4793
890.254	4637
890.377	4691
890.501	4523
890.624	4527
890.748	4596
890.871	4478
890.995	4440
891.118	4383
891.241	4466
891.364	4504
891.488	4603
891.611	4542
891.734	4542
891.857	4577
891.98	4554
892.103	4649
892.226	4558
892.349	4527
892.471	4421
892.594	4516
892.717	4584
892.839	4512
892.962	4573
893.085	4675
893.207	4607
893.33	4436
893.452	4481
893.575	4641
893.697	4569
893.819	4790
893.941	4831
894.064	4744
894.186	4592
894.308	4596
894.43	4649
894.552	4801
894.674	4733
894.796	4558
894.918	4573
895.04	4577
895.161	4694
895.283	4645
895.405	4561
895.526	4626
895.648	4675
895.769	4683
895.891	4717
896.012	4694
896.134	4744
896.255	4668
896.376	4637
896.498	4588
896.619	4672
896.74	4588
896.861	4561
896.982	4885
897.103	5045
897.224	4847
897.345	4790
897.466	4691
897.587	4744
897.708	4870
897.828	4755
897.949	4672
898.07	4523
898.19	4668
898.311	4831
898.431	4675
898.552	4683
898.672	4816
898.792	4786
898.913	4721
899.033	4603
899.153	4512
899.273	4455
899.393	4519
899.513	4493
899.633	4516
899.753	4512
899.873	4500
899.993	4531
900.113	4474
900.232	4580
900.352	4516
900.472	4504
900.591	4421
900.711	4459
900.83	4481
900.95	4580
901.069	4618
901.189	4538
901.308	4344
901.427	4329
901.546	4379
901.665	4455
901.784	4538
901.904	4375
902.023	4341
902.141	4196
902.26	4192
902.379	4322
902.498	4249
902.617	4181
902.735	4341
902.854	4383
902.973	4337
903.091	4238
903.21	4234
903.328	4284
903.446	4287
903.565	4234
903.683	4310
903.801	4303
903.919	4363
904.038	4447
904.156	4337
904.274	4394
904.392	4394
904.51	4421
904.627	4470
904.745	4535
904.863	4645
904.981	4402
905.098	4310
905.216	4348
905.334	4386
905.451	4379
905.569	4424
905.686	4497
905.803	4588
905.921	4390
906.038	4531
906.155	4459
906.272	4428
906.389	4451
906.506	4348
906.623	4398
906.74	4421
906.857	4303
906.974	4413
907.091	4489
907.208	4653
907.324	4577
907.441	4466
907.557	4314
907.674	4314
907.79	4325
907.907	4398
908.023	4455
908.139	4474
908.256	4432
908.372	4478
908.488	4417
908.604	4333
908.72	4314
908.836	4390
908.952	4383
909.068	4428
909.184	4535
909.3	4497
909.415	4584
909.531	4573
909.647	4333
909.762	4367
909.878	4318
909.993	4440
910.108	4398
910.224	4424
910.339	4451
910.454	4455
910.57	4367
910.685	4341
910.8	4592
910.915	4584
911.03	4512
911.145	4348
911.259	4348
911.374	4356
911.489	4272
911.604	4272
911.718	4177
911.833	4177
911.947	4086
912.062	4071
912.176	4219
912.291	4265
912.405	4215
912.519	4504
912.633	4546
912.748	4363
912.862	4329
912.976	4211
913.09	4078
913.204	4185
913.318	4257
913.431	4375
913.545	4356
913.659	4424
913.772	4371
913.886	4249
914	4207
914.113	4371
914.226	4386
914.34	4390
914.453	4249
914.566	4455
914.68	4276
914.793	4325
914.906	4188
915.019	4124
915.132	4105
915.245	4181
915.358	4207
915.47	4227
915.583	4265
915.696	4314
915.809	4417
915.921	4432
916.034	4253
916.146	4223
916.259	4196
916.371	4390
916.483	4363
916.595	4227
916.708	4367
916.82	4337
916.932	4276
917.044	4295
917.156	4284
917.268	4223
917.38	4246
917.491	4268
917.603	4314
917.715	4413
917.826	4417
917.938	4363
918.049	4219
918.161	4352
918.272	4519
918.384	4546
918.495	4432
918.606	4322
918.717	4257
918.828	4337
918.939	4379
919.05	4253
919.161	4314
919.272	4101
919.383	4181
919.494	4455
919.604	4656
919.715	4424
919.826	4299
919.936	4409
920.047	4508
920.157	4470
920.267	4702
920.378	4611
920.488	4489
920.598	4710
920.708	4839
920.818	4725
920.928	4740
921.038	4873
921.148	4877
921.258	4618
921.368	4558
921.477	4558
921.587	4424
921.697	4402
921.806	4546
921.916	4409
922.025	4257
922.134	4215
922.244	4253
922.353	4363
922.462	4200
922.571	4128
922.68	4040
922.789	3975
922.898	4067
923.007	3964
923.116	4067
923.224	4078
923.333	4074
923.442	3975
923.55	4048
923.659	4055
923.767	4120
923.876	4021
923.984	4078
924.092	3960
924.201	4025
924.309	4101
924.417	4154
924.525	4059
924.633	4090
924.741	5022
924.849	3915
924.956	4112
925.064	3941
925.172	3941
925.279	3983
925.387	4086
925.494	4078
925.602	4185
925.709	4192
925.816	4032
925.924	4154
926.031	4188
926.138	4173
926.245	4173
926.352	4101
926.459	4219
926.566	4306
926.673	4181
926.779	4097
926.886	4090
926.993	3979
927.099	3915
927.206	3934
927.312	3880
927.419	4063
927.525	4029
927.631	4143
927.737	3941
927.843	3907
927.95	3842
928.056	3983
928.162	3949
928.267	4067
928.373	4672
928.479	4143
928.585	3869
928.69	4025
928.796	4071
928.901	4010
929.007	3835
929.112	3975
929.218	3945
929.323	3899
929.428	3972
929.533	4105
929.638	3896
929.743	3903
929.848	4006
929.953	4017
930.058	3880
930.163	3774
930.267	3808
930.372	3979
930.477	3785
930.581	4082
930.685	3956
930.79	3808
930.894	3869
930.998	3861
931.103	4074
931.207	3705
931.311	3682
931.415	3682
931.519	3477
931.623	3538
