Data from test_V78500241_1494.txt Node
Date: Fri Mar 25 16:59:23 CST 2022
User: usil
Spectrometer: V785-0024
Trigger mode: 0
Integration Time (sec): 4.000000E-1
Scans to average: 1
Nonlinearity correction enabled: false
Boxcar width: 0
Storing dark spectrum: false
XAxis mode: Wavelengths
Number of Pixels in Spectrum: 1024
>>>>>Begin Spectral Data<<<<<
801.071	8001
801.214	7974
801.356	7887
801.499	7860
801.641	7769
801.783	7803
801.926	7970
802.068	7963
802.211	7951
802.353	7986
802.496	7784
802.638	7845
802.78	7868
802.923	7928
803.065	7841
803.208	7841
803.35	8024
803.492	8054
803.635	8157
803.777	8008
803.919	8161
804.061	8358
804.204	8130
804.346	8046
804.488	7951
804.63	8073
804.773	7997
804.915	8111
805.057	8218
805.199	8065
805.341	8199
805.483	8221
805.626	8202
805.768	8161
805.91	8244
806.052	8237
806.194	8065
806.336	8286
806.478	8058
806.62	8054
806.762	8183
806.904	8256
807.046	8450
807.188	8355
807.33	8256
807.472	8347
807.614	8138
807.756	8096
807.898	8077
808.04	7837
808.182	7963
808.324	7868
808.465	7967
808.607	8081
808.749	8145
808.891	8142
809.033	8286
809.174	8161
809.316	8115
809.458	8073
809.6	8005
809.741	8054
809.883	7989
810.025	8092
810.166	8050
810.308	8043
810.45	7993
810.591	7822
810.733	7719
810.875	7590
811.016	7540
811.158	7426
811.299	7578
811.441	7708
811.582	7712
811.724	7594
811.865	7464
812.007	7605
812.148	7594
812.29	7643
812.431	7738
812.573	7925
812.714	7898
812.855	8115
812.997	8210
813.138	8332
813.279	8187
813.421	8058
813.562	7932
813.703	7799
813.845	7715
813.986	7434
814.127	7263
814.268	7202
814.41	7244
814.551	7114
814.692	7190
814.833	7061
814.974	7080
815.115	7118
815.256	6970
815.397	6924
815.539	6962
815.68	6772
815.821	6776
815.962	6806
816.103	6757
816.244	6764
816.385	6563
816.526	6547
816.666	6471
816.807	6273
816.948	6422
817.089	6452
817.23	6410
817.371	6365
817.512	6410
817.653	6365
817.793	6277
817.934	6384
818.075	6361
818.216	6353
818.356	6391
818.497	6277
818.638	6144
818.778	6155
818.919	6144
819.06	6175
819.2	6277
819.341	6327
819.481	6399
819.622	6483
819.762	6768
819.903	6688
820.043	6547
820.184	6551
820.324	6525
820.465	6654
820.605	6601
820.746	6665
820.886	6479
821.026	6677
821.167	6703
821.307	6764
821.447	6772
821.588	6642
821.728	6532
821.868	6486
822.008	6311
822.149	6357
822.289	6380
822.429	6110
822.569	6102
822.709	6133
822.849	5912
822.99	5950
823.13	5882
823.27	5912
823.41	5798
823.55	5775
823.69	5790
823.83	5779
823.97	5657
824.11	5532
824.25	5455
824.389	5608
824.529	5558
824.669	5539
824.809	5608
824.949	5619
825.089	5615
825.228	5558
825.368	5357
825.508	5326
825.648	5337
825.787	5326
825.927	5318
826.067	5258
826.206	5315
826.346	5341
826.485	5425
826.625	5402
826.765	5551
826.904	5448
827.044	5216
827.183	5208
827.323	5075
827.462	5189
827.601	5140
827.741	5204
827.88	5185
828.02	5086
828.159	5212
828.298	5334
828.437	5337
828.577	5288
828.716	5512
828.855	5258
828.994	5113
829.134	5155
829.273	5174
829.412	5121
829.551	5147
829.69	5159
829.829	5208
829.968	5341
830.107	5280
830.246	5261
830.385	5193
830.524	5113
830.663	5037
830.802	4965
830.941	4858
831.08	4873
831.219	4923
831.357	4949
831.496	5166
831.635	4915
831.774	4835
831.913	4835
832.051	4717
832.19	4725
832.329	4843
832.467	4679
832.606	4641
832.744	4691
832.883	4706
833.022	4702
833.16	4820
833.299	4824
833.437	4767
833.576	4790
833.714	4831
833.852	4824
833.991	4892
834.129	4930
834.267	4942
834.406	4919
834.544	4923
834.682	4995
834.821	4934
834.959	5136
835.097	4934
835.235	5124
835.373	5048
835.511	5083
835.65	5003
835.788	5006
835.926	4866
836.064	4847
836.202	4942
836.34	5170
836.478	5212
836.615	5113
836.753	5197
836.891	5246
837.029	5181
837.167	5227
837.305	5147
837.443	5189
837.58	5083
837.718	5246
837.856	5181
837.993	5151
838.131	5254
838.269	5189
838.406	5227
838.544	5162
838.681	4938
838.819	4987
838.956	4892
839.094	4843
839.231	4999
839.369	5086
839.506	5410
839.643	5288
839.781	5094
839.918	5006
840.055	5052
840.193	5083
840.33	5098
840.467	5094
840.604	5197
840.742	5433
840.879	5010
841.016	5060
841.153	5136
841.29	5398
841.427	5311
841.564	5303
841.701	5414
841.838	5208
841.975	5204
842.112	5265
842.249	5140
842.385	5102
842.522	5246
842.659	5193
842.796	5174
842.933	5151
843.069	5098
843.206	5136
843.343	5254
843.479	5227
843.616	5239
843.752	5041
843.889	4980
844.025	5159
844.162	5010
844.298	5143
844.435	5098
844.571	5048
844.708	5197
844.844	5299
844.98	5326
845.117	5231
845.253	5117
845.389	5094
845.525	5121
845.661	5136
845.798	5052
845.934	5113
846.07	5045
846.206	5170
846.342	5258
846.478	5162
846.614	4972
846.75	4949
846.886	4938
847.022	5064
847.158	5041
847.294	5052
847.429	5083
847.565	5048
847.701	5311
847.837	4850
847.972	4816
848.108	4908
848.244	4927
848.379	4729
848.515	4733
848.65	4672
848.786	4767
848.921	4805
849.057	4847
849.192	4854
849.328	4778
849.463	4786
849.598	4778
849.734	4725
849.869	4660
850.004	4546
850.14	4660
850.275	4577
850.41	4519
850.545	4554
850.68	4592
850.815	4596
850.95	4626
851.085	4805
851.22	4736
851.355	4664
851.49	4626
851.625	4626
851.76	4672
851.895	4497
852.03	4519
852.165	4622
852.299	4744
852.434	4809
852.569	4710
852.703	4755
852.838	4881
852.973	4892
853.107	4946
853.242	4729
853.376	4634
853.511	4535
853.645	4554
853.78	4759
853.914	4694
854.048	4660
854.183	4630
854.317	4702
854.451	4805
854.585	4649
854.72	4573
854.854	4748
854.988	4607
855.122	4603
855.256	4489
855.39	4618
855.524	4752
855.658	4679
855.792	4687
855.926	4771
856.06	4744
856.194	4752
856.327	4702
856.461	4569
856.595	4596
856.729	4637
856.862	4694
856.996	4694
857.13	4725
857.263	4759
857.397	4824
857.53	4634
857.664	4748
857.797	4767
857.931	4778
858.064	4668
858.197	4740
858.331	4637
858.464	4584
858.597	4512
858.731	4596
858.864	4573
858.997	4641
859.13	4641
859.263	4637
859.396	4660
859.529	4584
859.662	4603
859.795	4512
859.928	4641
860.061	4733
860.194	4763
860.327	4592
860.46	4588
860.592	4683
860.725	4702
860.858	4717
860.99	4611
861.123	4519
861.256	4485
861.388	4603
861.521	5337
861.653	4417
861.786	4455
861.918	4447
862.05	4481
862.183	4527
862.315	4569
862.447	4637
862.58	4531
862.712	4356
862.844	4337
862.976	4443
863.108	4504
863.24	4774
863.372	4272
863.504	4409
863.636	4405
863.768	4481
863.9	4402
864.032	4280
864.164	4367
864.296	4451
864.428	4516
864.559	4527
864.691	4535
864.823	4462
864.954	4424
865.086	4512
865.217	4436
865.349	4424
865.48	4478
865.612	4500
865.743	4611
865.875	4440
866.006	4447
866.137	4451
866.269	4455
866.4	4436
866.531	4413
866.662	4348
866.793	4367
866.924	4413
867.055	4470
867.186	4398
867.317	4424
867.448	4337
867.579	4360
867.71	4356
867.841	4390
867.972	4440
868.103	4470
868.233	4424
868.364	4417
868.495	4462
868.625	4618
868.756	4706
868.886	4542
869.017	4558
869.147	4706
869.278	4740
869.408	4675
869.539	4611
869.669	4672
869.799	4645
869.929	4733
870.06	4679
870.19	4930
870.32	4862
870.45	4904
870.58	4999
870.71	5064
870.84	5045
870.97	4953
871.1	4896
871.23	5109
871.36	5117
871.489	5014
871.619	5056
871.749	5079
871.879	5136
872.008	5151
872.138	5014
872.267	4972
872.397	4873
872.526	4797
872.656	4740
872.785	4870
872.915	4900
873.044	5071
873.173	4927
873.303	5018
873.432	4881
873.561	4976
873.69	4896
873.819	4900
873.948	4885
874.077	4835
874.206	4752
874.335	4778
874.464	4900
874.593	5071
874.722	5022
874.851	5117
874.979	5094
875.108	4968
875.237	4949
875.365	4854
875.494	4881
875.623	5003
875.751	4847
875.88	4915
876.008	4949
876.136	5041
876.265	5258
876.393	5436
876.521	5284
876.65	5265
876.778	5212
876.906	5086
877.034	5018
877.162	5048
877.29	4995
877.418	5067
877.546	5083
877.674	5086
877.802	5079
877.93	5064
878.058	5033
878.185	4870
878.313	4976
878.441	4999
878.568	4908
878.696	4892
878.824	4976
878.951	5018
879.079	5170
879.206	5326
879.333	5147
879.461	5025
879.588	5022
879.715	5162
879.842	5250
879.97	5060
880.097	4820
880.224	4801
880.351	4850
880.478	4858
880.605	4862
880.732	4824
880.859	5143
880.986	4915
881.112	4919
881.239	4824
881.366	4733
881.493	4599
881.619	4637
881.746	4668
881.872	4664
881.999	4691
882.125	4714
882.252	4759
882.378	4862
882.505	4930
882.631	4831
882.757	4698
882.883	4801
883.01	4771
883.136	4694
883.262	4660
883.388	4656
883.514	4831
883.64	4892
883.766	4873
883.892	4733
884.018	4729
884.143	4908
884.269	5071
884.395	4672
884.52	4664
884.646	4664
884.772	4599
884.897	4607
885.023	4698
885.148	4824
885.274	4873
885.399	4835
885.524	4691
885.65	4706
885.775	4812
885.9	4782
886.025	4915
886.15	4797
886.275	4774
886.4	4694
886.525	4744
886.65	4706
886.775	4714
886.9	4930
887.025	5090
887.149	4900
887.274	4702
887.399	4634
887.523	4653
887.648	4588
887.773	4580
887.897	4782
888.021	4790
888.146	4717
888.27	4850
888.395	4904
888.519	4801
888.643	4850
888.767	4866
888.891	4744
889.015	4630
889.139	4691
889.263	4634
889.387	4740
889.511	4866
889.635	4812
889.759	4687
889.883	4630
890.006	4717
890.13	4881
890.254	4611
890.377	4706
890.501	4569
890.624	4542
890.748	4626
890.871	4504
890.995	4413
891.118	4409
891.241	4561
891.364	4550
891.488	4668
891.611	4538
891.734	4580
891.857	4615
891.98	4535
892.103	4649
892.226	4618
892.349	4580
892.471	4485
892.594	4558
892.717	4668
892.839	4637
892.962	4675
893.085	4694
893.207	4653
893.33	4478
893.452	4519
893.575	4668
893.697	4603
893.819	4782
893.941	4816
894.064	4790
894.186	4618
894.308	4554
894.43	4771
894.552	4858
894.674	4828
894.796	4577
894.918	4645
895.04	4641
895.161	4740
895.283	4721
895.405	4615
895.526	4683
895.648	4679
895.769	4706
895.891	4744
896.012	4744
896.134	4714
896.255	4668
896.376	4653
896.498	4645
896.619	4622
896.74	4637
896.861	4672
896.982	4919
897.103	5052
897.224	4812
897.345	4767
897.466	4717
897.587	4752
897.708	4877
897.828	4752
897.949	4706
898.07	4603
898.19	4645
898.311	4824
898.431	4710
898.552	4809
898.672	4835
898.792	4850
898.913	4733
899.033	4618
899.153	4569
899.273	4470
899.393	4516
899.513	4569
899.633	4565
899.753	4554
899.873	4519
899.993	4596
900.113	4512
900.232	4588
900.352	4542
900.472	4489
900.591	4398
900.711	4527
900.83	4493
900.95	4637
901.069	4694
901.189	4622
901.308	4398
901.427	4363
901.546	4383
901.665	4531
901.784	4531
901.904	4390
902.023	4318
902.141	4207
902.26	4173
902.379	4341
902.498	4253
902.617	4227
902.735	4386
902.854	4466
902.973	4394
903.091	4227
903.21	4284
903.328	4295
903.446	4306
903.565	4314
903.683	4390
903.801	4367
903.919	4459
904.038	4436
904.156	4303
904.274	4531
904.392	4428
904.51	4459
904.627	4497
904.745	4588
904.863	4645
904.981	4428
905.098	4360
905.216	4360
905.334	4455
905.451	4481
905.569	4447
905.686	4577
905.803	4588
905.921	4367
906.038	4599
906.155	4523
906.272	4409
906.389	4481
906.506	4383
906.623	4394
906.74	4443
906.857	4333
906.974	4390
907.091	4573
907.208	4694
907.324	4630
907.441	4535
907.557	4363
907.674	4379
907.79	4363
907.907	4447
908.023	4519
908.139	4497
908.256	4443
908.372	4512
908.488	4485
908.604	4383
908.72	4310
908.836	4390
908.952	4413
909.068	4436
909.184	4565
909.3	4500
909.415	4630
909.531	4565
909.647	4375
909.762	4409
909.878	4371
909.993	4443
910.108	4379
910.224	4405
910.339	4542
910.454	4409
910.57	4322
910.685	4333
910.8	4687
910.915	4637
911.03	4493
911.145	4371
911.259	4375
911.374	4379
911.489	4310
911.604	4310
911.718	4223
911.833	4249
911.947	4128
912.062	4078
912.176	4219
912.291	4261
912.405	4280
912.519	4478
912.633	4470
912.748	4413
912.862	4363
912.976	4246
913.09	4105
913.204	4188
913.318	4261
913.431	4417
913.545	4325
913.659	4436
913.772	4314
913.886	4272
914	4242
914.113	4375
914.226	4417
914.34	4390
914.453	4276
914.566	4455
914.68	4333
914.793	4367
914.906	4215
915.019	4090
915.132	4105
915.245	4234
915.358	4253
915.47	4238
915.583	4295
915.696	4360
915.809	4470
915.921	4440
916.034	4242
916.146	4272
916.259	4268
916.371	4421
916.483	4383
916.595	4303
916.708	4325
916.82	4348
916.932	4367
917.044	4325
917.156	4379
917.268	4272
917.38	4276
917.491	4284
917.603	4348
917.715	4409
917.826	4443
917.938	4360
918.049	4303
918.161	4402
918.272	4565
918.384	4527
918.495	4504
918.606	4299
918.717	4227
918.828	4394
918.939	4341
919.05	4287
919.161	4386
919.272	4139
919.383	4238
919.494	4489
919.604	4641
919.715	4451
919.826	4363
919.936	4428
920.047	4558
920.157	4542
920.267	4698
920.378	4535
920.488	4508
920.598	4752
920.708	4873
920.818	4786
920.928	4850
921.038	4949
921.148	4961
921.258	4641
921.368	4550
921.477	4508
921.587	4493
921.697	4394
921.806	4538
921.916	4443
922.025	4261
922.134	4276
922.244	4268
922.353	4383
922.462	4181
922.571	4135
922.68	4044
922.789	3968
922.898	4063
923.007	4021
923.116	4131
923.224	4078
923.333	4048
923.442	3983
923.55	3994
923.659	4021
923.767	4143
923.876	3983
923.984	4128
924.092	4025
924.201	4112
924.309	4120
924.417	4131
924.525	4071
924.633	4116
924.741	4938
924.849	3915
924.956	4150
925.064	4010
925.172	3918
925.279	4029
925.387	4082
925.494	4059
925.602	4230
925.709	4246
925.816	4010
925.924	4147
926.031	4211
926.138	4143
926.245	4177
926.352	4093
926.459	4234
926.566	4329
926.673	4177
926.779	4109
926.886	4112
926.993	3972
927.099	3960
927.206	3953
927.312	3998
927.419	4067
927.525	4025
927.631	4154
927.737	4040
927.843	3937
927.95	3850
928.056	3953
928.162	3960
928.267	4093
928.373	4546
928.479	4124
928.585	3892
928.69	4017
928.796	4071
928.901	4017
929.007	3850
929.112	4010
929.218	3972
929.323	3968
929.428	3941
929.533	4131
929.638	3956
929.743	3998
929.848	4063
929.953	4063
930.058	3934
930.163	3793
930.267	3812
930.372	3972
930.477	3816
930.581	4093
930.685	3979
930.79	3835
930.894	3896
930.998	3854
931.103	4059
931.207	3694
931.311	3698
931.415	3644
931.519	3492
931.623	3568
