Data from test_V78500241_1588.txt Node
Date: Fri Mar 25 17:00:02 CST 2022
User: usil
Spectrometer: V785-0024
Trigger mode: 0
Integration Time (sec): 4.000000E-1
Scans to average: 1
Nonlinearity correction enabled: false
Boxcar width: 0
Storing dark spectrum: false
XAxis mode: Wavelengths
Number of Pixels in Spectrum: 1024
>>>>>Begin Spectral Data<<<<<
801.071	7997
801.214	8046
801.356	7894
801.499	7868
801.641	7780
801.783	7852
801.926	7963
802.068	7951
802.211	7982
802.353	8012
802.496	7841
802.638	7864
802.78	7917
802.923	7932
803.065	7917
803.208	7879
803.35	8035
803.492	8058
803.635	8153
803.777	8046
803.919	8100
804.061	8492
804.204	8111
804.346	8065
804.488	8012
804.63	8134
804.773	8046
804.915	8062
805.057	8336
805.199	8103
805.341	8210
805.483	8244
805.626	8164
805.768	8107
805.91	8180
806.052	8229
806.194	8138
806.336	8301
806.478	8050
806.62	8039
806.762	8172
806.904	8275
807.046	8590
807.188	8351
807.33	8332
807.472	8320
807.614	8202
807.756	8111
807.898	7932
808.04	7928
808.182	7944
808.324	7959
808.465	7871
808.607	7978
808.749	8119
808.891	8210
809.033	8351
809.174	8248
809.316	8065
809.458	8065
809.6	8027
809.741	8039
809.883	8092
810.025	8062
810.166	8054
810.308	8043
810.45	8008
810.591	7856
810.733	7753
810.875	7670
811.016	7540
811.158	7556
811.299	7670
811.441	7746
811.582	7685
811.724	7571
811.865	7533
812.007	7537
812.148	7609
812.29	7658
812.431	7677
812.573	7921
812.714	8035
812.855	8126
812.997	8206
813.138	8317
813.279	8267
813.421	8191
813.562	7959
813.703	7856
813.845	7727
813.986	7392
814.127	7232
814.268	7259
814.41	7255
814.551	7110
814.692	7225
814.833	7129
814.974	7072
815.115	7099
815.256	6928
815.397	6970
815.539	6996
815.68	6890
815.821	6768
815.962	6821
816.103	6791
816.244	6696
816.385	6673
816.526	6578
816.666	6513
816.807	6266
816.948	6437
817.089	6452
817.23	6441
817.371	6395
817.512	6403
817.653	6399
817.793	6338
817.934	6391
818.075	6483
818.216	6395
818.356	6391
818.497	6270
818.638	6121
818.778	6182
818.919	6114
819.06	6182
819.2	6342
819.341	6273
819.481	6407
819.622	6525
819.762	6722
819.903	6589
820.043	6623
820.184	6650
820.324	6616
820.465	6654
820.605	6715
820.746	6593
820.886	6525
821.026	6650
821.167	6703
821.307	6829
821.447	6837
821.588	6715
821.728	6608
821.868	6528
822.008	6315
822.149	6353
822.289	6372
822.429	6159
822.569	6045
822.709	6152
822.849	5870
822.99	5927
823.13	5844
823.27	5988
823.41	5767
823.55	5813
823.69	5798
823.83	5794
823.97	5676
824.11	5535
824.25	5516
824.389	5516
824.529	5585
824.669	5512
824.809	5646
824.949	5623
825.089	5649
825.228	5528
825.368	5376
825.508	5341
825.648	5345
825.787	5376
825.927	5349
826.067	5315
826.206	5299
826.346	5436
826.485	5436
826.625	5478
826.765	5581
826.904	5444
827.044	5288
827.183	5181
827.323	5113
827.462	5258
827.601	5178
827.741	5231
827.88	5235
828.02	5117
828.159	5204
828.298	5311
828.437	5398
828.577	5345
828.716	5505
828.855	5341
828.994	5201
829.134	5212
829.273	5189
829.412	5170
829.551	5132
829.69	5189
829.829	5242
829.968	5353
830.107	5269
830.246	5299
830.385	5124
830.524	5181
830.663	5064
830.802	4968
830.941	4850
831.08	4850
831.219	4972
831.357	4965
831.496	5166
831.635	4965
831.774	4850
831.913	4866
832.051	4763
832.19	4755
832.329	4828
832.467	4736
832.606	4637
832.744	4721
832.883	4744
833.022	4759
833.16	4790
833.299	4820
833.437	4812
833.576	4805
833.714	4839
833.852	4873
833.991	4904
834.129	4991
834.267	4938
834.406	4881
834.544	5006
834.682	4942
834.821	4927
834.959	5174
835.097	4980
835.235	5124
835.373	5102
835.511	5086
835.65	5056
835.788	5033
835.926	4843
836.064	4896
836.202	4930
836.34	5113
836.478	5193
836.615	5102
836.753	5193
836.891	5315
837.029	5277
837.167	5204
837.305	5147
837.443	5151
837.58	5060
837.718	5292
837.856	5143
837.993	5181
838.131	5235
838.269	5166
838.406	5227
838.544	5201
838.681	5014
838.819	5006
838.956	4873
839.094	4889
839.231	5025
839.369	5113
839.506	5429
839.643	5250
839.781	5090
839.918	4972
840.055	5143
840.193	5094
840.33	5113
840.467	5143
840.604	5174
840.742	5433
840.879	5102
841.016	5102
841.153	5166
841.29	5376
841.427	5372
841.564	5311
841.701	5322
841.838	5242
841.975	5231
842.112	5239
842.249	5075
842.385	5132
842.522	5376
842.659	5132
842.796	5132
842.933	5166
843.069	5185
843.206	5117
843.343	5326
843.479	5254
843.616	5277
843.752	5041
843.889	4987
844.025	5204
844.162	5025
844.298	5223
844.435	5090
844.571	5033
844.708	5170
844.844	5269
844.98	5349
845.117	5330
845.253	5143
845.389	5083
845.525	5197
845.661	5170
845.798	5022
845.934	5132
846.07	5025
846.206	5140
846.342	5254
846.478	5166
846.614	5003
846.75	4953
846.886	4915
847.022	5094
847.158	4938
847.294	5052
847.429	5105
847.565	5102
847.701	5277
847.837	4850
847.972	4824
848.108	4976
848.244	4995
848.379	4805
848.515	4687
848.65	4706
848.786	4733
848.921	4752
849.057	4881
849.192	4900
849.328	4786
849.463	4816
849.598	4816
849.734	4774
849.869	4641
850.004	4618
850.14	4691
850.275	4611
850.41	4478
850.545	4527
850.68	4626
850.815	4637
850.95	4618
851.085	4858
851.22	4698
851.355	4687
851.49	4607
851.625	4668
851.76	4668
851.895	4516
852.03	4516
852.165	4656
852.299	4748
852.434	4805
852.569	4771
852.703	4793
852.838	4854
852.973	4946
853.107	4949
853.242	4744
853.376	4637
853.511	4558
853.645	4611
853.78	4805
853.914	4744
854.048	4752
854.183	4679
854.317	4748
854.451	4850
854.585	4717
854.72	4653
854.854	4763
854.988	4584
855.122	4691
855.256	4523
855.39	4717
855.524	4782
855.658	4763
855.792	4786
855.926	4778
856.06	4816
856.194	4839
856.327	4717
856.461	4645
856.595	4653
856.729	4622
856.862	4767
856.996	4725
857.13	4767
857.263	4812
857.397	4835
857.53	4672
857.664	4801
857.797	4793
857.931	4824
858.064	4714
858.197	4812
858.331	4763
858.464	4615
858.597	4565
858.731	4641
858.864	4687
858.997	4618
859.13	4664
859.263	4675
859.396	4721
859.529	4622
859.662	4596
859.795	4615
859.928	4618
860.061	4824
860.194	4816
860.327	4622
860.46	4615
860.592	4725
860.725	4744
860.858	4706
860.99	4599
861.123	4561
861.256	4580
861.388	4596
861.521	5303
861.653	4519
861.786	4493
861.918	4516
862.05	4535
862.183	4603
862.315	4630
862.447	4683
862.58	4592
862.712	4466
862.844	4375
862.976	4504
863.108	4512
863.24	4778
863.372	4394
863.504	4413
863.636	4443
863.768	4500
863.9	4443
864.032	4367
864.164	4428
864.296	4493
864.428	4596
864.559	4603
864.691	4569
864.823	4580
864.954	4504
865.086	4508
865.217	4519
865.349	4462
865.48	4466
865.612	4542
865.743	4649
865.875	4481
866.006	4470
866.137	4466
866.269	4455
866.4	4443
866.531	4394
866.662	4424
866.793	4432
866.924	4474
867.055	4542
867.186	4443
867.317	4455
867.448	4348
867.579	4447
867.71	4447
867.841	4375
867.972	4504
868.103	4466
868.233	4481
868.364	4516
868.495	4512
868.625	4698
868.756	4778
868.886	4630
869.017	4668
869.147	4759
869.278	4805
869.408	4668
869.539	4694
869.669	4755
869.799	4740
869.929	4786
870.06	4767
870.19	4980
870.32	4987
870.45	4919
870.58	5010
870.71	5124
870.84	5128
870.97	4984
871.1	5006
871.23	5174
871.36	5178
871.489	5098
871.619	5086
871.749	5140
871.879	5151
872.008	5193
872.138	5094
872.267	5033
872.397	4927
872.526	4820
872.656	4748
872.785	4835
872.915	4968
873.044	5083
873.173	4946
873.303	4980
873.432	4995
873.561	4965
873.69	4885
873.819	4949
873.948	4949
874.077	4843
874.206	4793
874.335	4816
874.464	4949
874.593	5105
874.722	4965
874.851	5140
874.979	5075
875.108	5041
875.237	4976
875.365	4942
875.494	4877
875.623	5018
875.751	4942
875.88	4892
876.008	5018
876.136	5022
876.265	5223
876.393	5364
876.521	5288
876.65	5265
876.778	5170
876.906	5143
877.034	5052
877.162	5090
877.29	5025
877.418	5075
877.546	5079
877.674	5079
877.802	5052
877.93	5048
878.058	4999
878.185	4900
878.313	4980
878.441	4980
878.568	4908
878.696	4900
878.824	4968
878.951	5071
879.079	5189
879.206	5288
879.333	5105
879.461	4995
879.588	5071
879.715	5170
879.842	5216
879.97	5014
880.097	4763
880.224	4771
880.351	4824
880.478	4896
880.605	4801
880.732	4877
880.859	5174
880.986	4915
881.112	4953
881.239	4809
881.366	4668
881.493	4645
881.619	4634
881.746	4641
881.872	4630
881.999	4702
882.125	4687
882.252	4816
882.378	4809
882.505	4976
882.631	4816
882.757	4656
882.883	4774
883.01	4790
883.136	4717
883.262	4630
883.388	4641
883.514	4793
883.64	4881
883.766	4820
883.892	4679
884.018	4706
884.143	4896
884.269	5022
884.395	4736
884.52	4649
884.646	4660
884.772	4615
884.897	4599
885.023	4653
885.148	4786
885.274	4919
885.399	4774
885.524	4733
885.65	4710
885.775	4801
885.9	4725
886.025	4908
886.15	4835
886.275	4752
886.4	4660
886.525	4736
886.65	4721
886.775	4725
886.9	4923
887.025	5037
887.149	4793
887.274	4664
887.399	4580
887.523	4622
887.648	4630
887.773	4603
887.897	4793
888.021	4778
888.146	4679
888.27	4812
888.395	4957
888.519	4809
888.643	4873
888.767	4870
888.891	4641
889.015	4630
889.139	4694
889.263	4607
889.387	4755
889.511	4896
889.635	4812
889.759	4664
889.883	4664
890.006	4771
890.13	4896
890.254	4634
890.377	4687
890.501	4527
890.624	4554
890.748	4637
890.871	4527
890.995	4413
891.118	4421
891.241	4538
891.364	4554
891.488	4710
891.611	4497
891.734	4542
891.857	4626
891.98	4569
892.103	4664
892.226	4584
892.349	4542
892.471	4455
892.594	4607
892.717	4596
892.839	4580
892.962	4611
893.085	4721
893.207	4573
893.33	4500
893.452	4550
893.575	4656
893.697	4592
893.819	4801
893.941	4828
894.064	4744
894.186	4599
894.308	4618
894.43	4759
894.552	4835
894.674	4752
894.796	4634
894.918	4622
895.04	4531
895.161	4725
895.283	4687
895.405	4580
895.526	4615
895.648	4740
895.769	4698
895.891	4721
896.012	4793
896.134	4797
896.255	4687
896.376	4637
896.498	4611
896.619	4698
896.74	4607
896.861	4660
896.982	4915
897.103	5124
897.224	4873
897.345	4755
897.466	4679
897.587	4797
897.708	4896
897.828	4835
897.949	4649
898.07	4599
898.19	4626
898.311	4824
898.431	4714
898.552	4733
898.672	4843
898.792	4847
898.913	4733
899.033	4687
899.153	4523
899.273	4436
899.393	4523
899.513	4580
899.633	4546
899.753	4569
899.873	4535
899.993	4596
900.113	4519
900.232	4607
900.352	4592
900.472	4516
900.591	4417
900.711	4466
900.83	4508
900.95	4630
901.069	4714
901.189	4588
901.308	4341
901.427	4383
901.546	4386
901.665	4497
901.784	4535
901.904	4367
902.023	4325
902.141	4181
902.26	4173
902.379	4310
902.498	4219
902.617	4249
902.735	4379
902.854	4394
902.973	4348
903.091	4188
903.21	4257
903.328	4322
903.446	4329
903.565	4280
903.683	4379
903.801	4337
903.919	4413
904.038	4493
904.156	4394
904.274	4485
904.392	4409
904.51	4421
904.627	4451
904.745	4611
904.863	4637
904.981	4398
905.098	4325
905.216	4371
905.334	4375
905.451	4455
905.569	4489
905.686	4584
905.803	4599
905.921	4413
906.038	4504
906.155	4478
906.272	4432
906.389	4470
906.506	4356
906.623	4402
906.74	4424
906.857	4295
906.974	4413
907.091	4561
907.208	4679
907.324	4615
907.441	4516
907.557	4379
907.674	4375
907.79	4287
907.907	4379
908.023	4451
908.139	4504
908.256	4500
908.372	4493
908.488	4478
908.604	4333
908.72	4341
908.836	4363
908.952	4344
909.068	4424
909.184	4554
909.3	4455
909.415	4542
909.531	4569
909.647	4371
909.762	4394
909.878	4402
909.993	4470
910.108	4466
910.224	4390
910.339	4546
910.454	4447
910.57	4390
910.685	4322
910.8	4653
910.915	4592
911.03	4504
911.145	4329
911.259	4344
911.374	4363
911.489	4344
911.604	4276
911.718	4158
911.833	4246
911.947	4074
912.062	4036
912.176	4234
912.291	4238
912.405	4242
912.519	4481
912.633	4531
912.748	4375
912.862	4348
912.976	4219
913.09	4139
913.204	4196
913.318	4299
913.431	4405
913.545	4360
913.659	4466
913.772	4367
913.886	4295
914	4246
914.113	4405
914.226	4455
914.34	4394
914.453	4242
914.566	4424
914.68	4310
914.793	4371
914.906	4162
915.019	4112
915.132	4086
915.245	4204
915.358	4257
915.47	4257
915.583	4207
915.696	4322
915.809	4421
915.921	4443
916.034	4257
916.146	4306
916.259	4230
916.371	4383
916.483	4386
916.595	4276
916.708	4284
916.82	4322
916.932	4322
917.044	4356
917.156	4306
917.268	4196
917.38	4306
917.491	4276
917.603	4371
917.715	4440
917.826	4455
917.938	4360
918.049	4242
918.161	4398
918.272	4573
918.384	4519
918.495	4421
918.606	4295
918.717	4215
918.828	4352
918.939	4405
919.05	4265
919.161	4356
919.272	4181
919.383	4246
919.494	4451
919.604	4630
919.715	4462
919.826	4352
919.936	4402
920.047	4554
920.157	4481
920.267	4771
920.378	4554
920.488	4485
920.598	4714
920.708	4843
920.818	4820
920.928	4778
921.038	4965
921.148	4877
921.258	4607
921.368	4573
921.477	4535
921.587	4405
921.697	4398
921.806	4554
921.916	4459
922.025	4291
922.134	4341
922.244	4265
922.353	4306
922.462	4173
922.571	4181
922.68	4048
922.789	3983
922.898	4051
923.007	3960
923.116	4131
923.224	4059
923.333	4101
923.442	3998
923.55	3983
923.659	4006
923.767	4059
923.876	4017
923.984	4158
924.092	4010
924.201	4048
924.309	4086
924.417	4139
924.525	4124
924.633	4086
924.741	4858
924.849	3949
924.956	4131
925.064	3930
925.172	3876
925.279	3968
925.387	4029
925.494	4063
925.602	4223
925.709	4204
925.816	4025
925.924	4154
926.031	4223
926.138	4200
926.245	4230
926.352	4078
926.459	4230
926.566	4280
926.673	4150
926.779	4143
926.886	4112
926.993	3960
927.099	4010
927.206	3953
927.312	3979
927.419	4040
927.525	4036
927.631	4109
927.737	3968
927.843	3941
927.95	3865
928.056	3934
928.162	3994
928.267	4044
928.373	4641
928.479	4101
928.585	3869
928.69	4059
928.796	4109
928.901	4025
929.007	3869
929.112	4002
929.218	3998
929.323	3960
929.428	3930
929.533	4124
929.638	3926
929.743	3968
929.848	4048
929.953	4010
930.058	3949
930.163	3781
930.267	3800
930.372	3975
930.477	3823
930.581	4116
930.685	3968
930.79	3857
930.894	3838
930.998	3869
931.103	4025
931.207	3671
931.311	3713
931.415	3686
931.519	3545
931.623	3572
