Data from test_V78500241_2339.txt Node
Date: Fri Mar 25 17:05:15 CST 2022
User: usil
Spectrometer: V785-0024
Trigger mode: 0
Integration Time (sec): 4.000000E-1
Scans to average: 1
Nonlinearity correction enabled: false
Boxcar width: 0
Storing dark spectrum: false
XAxis mode: Wavelengths
Number of Pixels in Spectrum: 1024
>>>>>Begin Spectral Data<<<<<
801.071	8001
801.214	8008
801.356	7906
801.499	7868
801.641	7833
801.783	7837
801.926	7951
802.068	7974
802.211	7928
802.353	7898
802.496	7864
802.638	7940
802.78	7811
802.923	7849
803.065	7826
803.208	7868
803.35	7928
803.492	8043
803.635	8214
803.777	8058
803.919	8187
804.061	8381
804.204	8130
804.346	8062
804.488	8001
804.63	8103
804.773	8008
804.915	8111
805.057	8328
805.199	8168
805.341	8157
805.483	8244
805.626	8176
805.768	8157
805.91	8172
806.052	8172
806.194	8145
806.336	8282
806.478	8065
806.62	8115
806.762	8195
806.904	8267
807.046	8419
807.188	8332
807.33	8347
807.472	8328
807.614	8115
807.756	8218
807.898	7963
808.04	7841
808.182	7868
808.324	7875
808.465	7989
808.607	8077
808.749	8107
808.891	8206
809.033	8206
809.174	8172
809.316	8081
809.458	8103
809.6	7989
809.741	8073
809.883	8001
810.025	8073
810.166	8107
810.308	8001
810.45	7955
810.591	7913
810.733	7795
810.875	7700
811.016	7563
811.158	7464
811.299	7518
811.441	7613
811.582	7662
811.724	7594
811.865	7575
812.007	7563
812.148	7605
812.29	7594
812.431	7708
812.573	7879
812.714	7989
812.855	8103
812.997	8149
813.138	8279
813.279	8142
813.421	8050
813.562	7963
813.703	7868
813.845	7715
813.986	7426
814.127	7236
814.268	7213
814.41	7209
814.551	7209
814.692	7209
814.833	7080
814.974	7091
815.115	7057
815.256	6996
815.397	6916
815.539	6928
815.68	6878
815.821	6833
815.962	6837
816.103	6798
816.244	6665
816.385	6578
816.526	6608
816.666	6490
816.807	6311
816.948	6369
817.089	6475
817.23	6403
817.371	6426
817.512	6407
817.653	6380
817.793	6407
817.934	6357
818.075	6502
818.216	6395
818.356	6456
818.497	6247
818.638	6121
818.778	6117
818.919	6136
819.06	6148
819.2	6372
819.341	6300
819.481	6380
819.622	6532
819.762	6715
819.903	6673
820.043	6559
820.184	6593
820.324	6585
820.465	6745
820.605	6696
820.746	6658
820.886	6521
821.026	6620
821.167	6707
821.307	6863
821.447	6791
821.588	6703
821.728	6559
821.868	6502
822.008	6323
822.149	6384
822.289	6357
822.429	6159
822.569	6030
822.709	6136
822.849	5889
822.99	5931
823.13	5954
823.27	5988
823.41	5840
823.55	5733
823.69	5741
823.83	5817
823.97	5695
824.11	5581
824.25	5551
824.389	5554
824.529	5608
824.669	5535
824.809	5676
824.949	5756
825.089	5634
825.228	5577
825.368	5471
825.508	5406
825.648	5421
825.787	5372
825.927	5398
826.067	5368
826.206	5353
826.346	5387
826.485	5448
826.625	5528
826.765	5558
826.904	5497
827.044	5258
827.183	5227
827.323	5159
827.462	5269
827.601	5220
827.741	5181
827.88	5280
828.02	5155
828.159	5303
828.298	5364
828.437	5452
828.577	5387
828.716	5516
828.855	5360
828.994	5212
829.134	5189
829.273	5208
829.412	5170
829.551	5162
829.69	5246
829.829	5296
829.968	5436
830.107	5318
830.246	5330
830.385	5235
830.524	5128
830.663	5090
830.802	5010
830.941	5052
831.08	4934
831.219	4995
831.357	5010
831.496	5269
831.635	4961
831.774	4862
831.913	4877
832.051	4733
832.19	4812
832.329	4892
832.467	4786
832.606	4687
832.744	4744
832.883	4744
833.022	4763
833.16	4839
833.299	4839
833.437	4885
833.576	4870
833.714	4889
833.852	4877
833.991	4904
834.129	4980
834.267	4976
834.406	4995
834.544	5029
834.682	5022
834.821	4961
834.959	5159
835.097	5041
835.235	5208
835.373	5075
835.511	5109
835.65	5079
835.788	5064
835.926	4911
836.064	4923
836.202	4999
836.34	5231
836.478	5239
836.615	5109
836.753	5223
836.891	5330
837.029	5318
837.167	5250
837.305	5212
837.443	5181
837.58	5067
837.718	5315
837.856	5261
837.993	5231
838.131	5258
838.269	5235
838.406	5284
838.544	5265
838.681	5102
838.819	5018
838.956	4961
839.094	4961
839.231	5018
839.369	5140
839.506	5490
839.643	5337
839.781	5086
839.918	5037
840.055	5124
840.193	5121
840.33	5109
840.467	5155
840.604	5201
840.742	5516
840.879	5105
841.016	5162
841.153	5162
841.29	5395
841.427	5353
841.564	5376
841.701	5360
841.838	5265
841.975	5239
842.112	5307
842.249	5132
842.385	5143
842.522	5322
842.659	5231
842.796	5201
842.933	5227
843.069	5181
843.206	5204
843.343	5345
843.479	5212
843.616	5292
843.752	5067
843.889	5018
844.025	5254
844.162	5056
844.298	5181
844.435	5128
844.571	5079
844.708	5223
844.844	5337
844.98	5349
845.117	5307
845.253	5193
845.389	5128
845.525	5265
845.661	5193
845.798	5136
845.934	5193
846.07	5124
846.206	5250
846.342	5311
846.478	5216
846.614	5029
846.75	5048
846.886	4957
847.022	5121
847.158	5014
847.294	5109
847.429	5189
847.565	5143
847.701	5368
847.837	4805
847.972	4850
848.108	5045
848.244	4953
848.379	4858
848.515	4714
848.65	4763
848.786	4744
848.921	4778
849.057	4904
849.192	4885
849.328	4831
849.463	4877
849.598	4850
849.734	4835
849.869	4755
850.004	4664
850.14	4694
850.275	4630
850.41	4558
850.545	4577
850.68	4622
850.815	4645
850.95	4656
851.085	4858
851.22	4744
851.355	4706
851.49	4641
851.625	4656
851.76	4660
851.895	4607
852.03	4580
852.165	4679
852.299	4740
852.434	4805
852.569	4763
852.703	4763
852.838	4862
852.973	4957
853.107	4915
853.242	4767
853.376	4687
853.511	4577
853.645	4675
853.78	4877
853.914	4744
854.048	4706
854.183	4645
854.317	4755
854.451	4862
854.585	4675
854.72	4687
854.854	4820
854.988	4660
855.122	4698
855.256	4599
855.39	4725
855.524	4786
855.658	4752
855.792	4729
855.926	4793
856.06	4767
856.194	4854
856.327	4729
856.461	4660
856.595	4622
856.729	4592
856.862	4790
856.996	4752
857.13	4729
857.263	4752
857.397	4828
857.53	4649
857.664	4774
857.797	4782
857.931	4824
858.064	4740
858.197	4763
858.331	4675
858.464	4653
858.597	4630
858.731	4691
858.864	4683
858.997	4653
859.13	4672
859.263	4717
859.396	4714
859.529	4618
859.662	4596
859.795	4558
859.928	4668
860.061	4809
860.194	4759
860.327	4603
860.46	4607
860.592	4755
860.725	4786
860.858	4721
860.99	4622
861.123	4523
861.256	4542
861.388	4626
861.521	5414
861.653	4500
861.786	4451
861.918	4470
862.05	4531
862.183	4577
862.315	4634
862.447	4618
862.58	4542
862.712	4428
862.844	4352
862.976	4500
863.108	4447
863.24	4961
863.372	4344
863.504	4451
863.636	4417
863.768	4497
863.9	4432
864.032	4363
864.164	4379
864.296	4485
864.428	4565
864.559	4615
864.691	4546
864.823	4535
864.954	4474
865.086	4527
865.217	4508
865.349	4413
865.48	4493
865.612	4455
865.743	4645
865.875	4474
866.006	4443
866.137	4516
866.269	4451
866.4	4413
866.531	4455
866.662	4428
866.793	4398
866.924	4455
867.055	4527
867.186	4474
867.317	4447
867.448	4386
867.579	4459
867.71	4390
867.841	4402
867.972	4535
868.103	4512
868.233	4459
868.364	4493
868.495	4493
868.625	4736
868.756	4763
868.886	4577
869.017	4630
869.147	4816
869.278	4816
869.408	4694
869.539	4630
869.669	4740
869.799	4675
869.929	4752
870.06	4763
870.19	4927
870.32	4949
870.45	4938
870.58	5025
870.71	5113
870.84	5140
870.97	5014
871.1	4900
871.23	5170
871.36	5166
871.489	5029
871.619	5113
871.749	5121
871.879	5147
872.008	5242
872.138	5075
872.267	5018
872.397	4877
872.526	4870
872.656	4702
872.785	4812
872.915	4968
873.044	5041
873.173	4995
873.303	5029
873.432	5025
873.561	4999
873.69	4908
873.819	4866
873.948	4919
874.077	4850
874.206	4778
874.335	4771
874.464	4976
874.593	5064
874.722	4930
874.851	5155
874.979	5075
875.108	5022
875.237	4930
875.365	4896
875.494	4870
875.623	4984
875.751	4820
875.88	4934
876.008	5025
876.136	5083
876.265	5220
876.393	5357
876.521	5303
876.65	5277
876.778	5174
876.906	5086
877.034	5067
877.162	5098
877.29	4968
877.418	5060
877.546	5151
877.674	5033
877.802	5045
877.93	5098
878.058	4965
878.185	4908
878.313	4991
878.441	4942
878.568	4850
878.696	4938
878.824	4999
878.951	4984
879.079	5121
879.206	5299
879.333	5159
879.461	4965
879.588	5045
879.715	5189
879.842	5216
879.97	5025
880.097	4809
880.224	4786
880.351	4805
880.478	4835
880.605	4816
880.732	4778
880.859	5124
880.986	4892
881.112	4953
881.239	4809
881.366	4687
881.493	4626
881.619	4626
881.746	4649
881.872	4675
881.999	4710
882.125	4717
882.252	4812
882.378	4828
882.505	4991
882.631	4805
882.757	4668
882.883	4786
883.01	4729
883.136	4649
883.262	4653
883.388	4637
883.514	4809
883.64	4934
883.766	4786
883.892	4706
884.018	4733
884.143	4866
884.269	5045
884.395	4691
884.52	4660
884.646	4694
884.772	4599
884.897	4523
885.023	4668
885.148	4759
885.274	4862
885.399	4816
885.524	4698
885.65	4706
885.775	4759
885.9	4706
886.025	4858
886.15	4793
886.275	4778
886.4	4729
886.525	4721
886.65	4687
886.775	4748
886.9	4881
887.025	5052
887.149	4774
887.274	4660
887.399	4649
887.523	4577
887.648	4558
887.773	4592
887.897	4774
888.021	4820
888.146	4668
888.27	4801
888.395	4938
888.519	4824
888.643	4850
888.767	4820
888.891	4672
889.015	4596
889.139	4660
889.263	4653
889.387	4767
889.511	4866
889.635	4771
889.759	4649
889.883	4653
890.006	4717
890.13	4877
890.254	4588
890.377	4706
890.501	4542
890.624	4523
890.748	4645
890.871	4478
890.995	4443
891.118	4394
891.241	4489
891.364	4580
891.488	4725
891.611	4512
891.734	4573
891.857	4626
891.98	4558
892.103	4599
892.226	4599
892.349	4512
892.471	4409
892.594	4527
892.717	4599
892.839	4603
892.962	4637
893.085	4660
893.207	4584
893.33	4508
893.452	4584
893.575	4672
893.697	4588
893.819	4774
893.941	4858
894.064	4782
894.186	4603
894.308	4626
894.43	4733
894.552	4805
894.674	4790
894.796	4573
894.918	4542
895.04	4565
895.161	4668
895.283	4698
895.405	4596
895.526	4656
895.648	4744
895.769	4698
895.891	4725
896.012	4733
896.134	4706
896.255	4683
896.376	4702
896.498	4637
896.619	4710
896.74	4626
896.861	4725
896.982	4949
897.103	5086
897.224	4824
897.345	4752
897.466	4656
897.587	4717
897.708	4828
897.828	4778
897.949	4710
898.07	4554
898.19	4653
898.311	4854
898.431	4683
898.552	4710
898.672	4820
898.792	4812
898.913	4736
899.033	4637
899.153	4516
899.273	4443
899.393	4546
899.513	4523
899.633	4512
899.753	4569
899.873	4497
899.993	4588
900.113	4542
900.232	4615
900.352	4554
900.472	4470
900.591	4409
900.711	4489
900.83	4459
900.95	4626
901.069	4660
901.189	4558
901.308	4356
901.427	4379
901.546	4352
901.665	4478
901.784	4538
901.904	4386
902.023	4310
902.141	4154
902.26	4166
902.379	4314
902.498	4230
902.617	4230
902.735	4375
902.854	4432
902.973	4344
903.091	4234
903.21	4162
903.328	4299
903.446	4268
903.565	4230
903.683	4352
903.801	4280
903.919	4390
904.038	4413
904.156	4322
904.274	4424
904.392	4402
904.51	4432
904.627	4493
904.745	4584
904.863	4634
904.981	4421
905.098	4337
905.216	4424
905.334	4459
905.451	4428
905.569	4466
905.686	4527
905.803	4523
905.921	4432
906.038	4497
906.155	4459
906.272	4398
906.389	4402
906.506	4318
906.623	4394
906.74	4348
906.857	4268
906.974	4325
907.091	4584
907.208	4672
907.324	4599
907.441	4508
907.557	4341
907.674	4337
907.79	4249
907.907	4394
908.023	4493
908.139	4459
908.256	4432
908.372	4447
908.488	4428
908.604	4379
908.72	4356
908.836	4329
908.952	4383
909.068	4421
909.184	4641
909.3	4512
909.415	4569
909.531	4607
909.647	4360
909.762	4360
909.878	4363
909.993	4402
910.108	4367
910.224	4424
910.339	4508
910.454	4402
910.57	4337
910.685	4280
910.8	4660
910.915	4577
911.03	4485
911.145	4280
911.259	4318
911.374	4383
911.489	4272
911.604	4272
911.718	4162
911.833	4192
911.947	4059
912.062	4036
912.176	4219
912.291	4227
912.405	4219
912.519	4478
912.633	4538
912.748	4367
912.862	4344
912.976	4230
913.09	4093
913.204	4166
913.318	4234
913.431	4337
913.545	4379
913.659	4379
913.772	4314
913.886	4291
914	4204
914.113	4367
914.226	4436
914.34	4405
914.453	4249
914.566	4390
914.68	4314
914.793	4333
914.906	4192
915.019	4131
915.132	4082
915.245	4192
915.358	4219
915.47	4249
915.583	4284
915.696	4295
915.809	4417
915.921	4451
916.034	4227
916.146	4280
916.259	4207
916.371	4352
916.483	4398
916.595	4257
916.708	4352
916.82	4322
916.932	4303
917.044	4333
917.156	4318
917.268	4249
917.38	4299
917.491	4257
917.603	4337
917.715	4424
917.826	4428
917.938	4367
918.049	4272
918.161	4383
918.272	4558
918.384	4569
918.495	4443
918.606	4291
918.717	4215
918.828	4318
918.939	4371
919.05	4257
919.161	4306
919.272	4109
919.383	4211
919.494	4489
919.604	4637
919.715	4424
919.826	4356
919.936	4394
920.047	4527
920.157	4550
920.267	4736
920.378	4554
920.488	4531
920.598	4710
920.708	4835
920.818	4702
920.928	4771
921.038	4908
921.148	4915
921.258	4607
921.368	4546
921.477	4500
921.587	4443
921.697	4371
921.806	4607
921.916	4367
922.025	4291
922.134	4306
922.244	4234
922.353	4299
922.462	4143
922.571	4112
922.68	3998
922.789	4002
922.898	4086
923.007	4025
923.116	4124
923.224	4063
923.333	4063
923.442	3991
923.55	3972
923.659	4032
923.767	4044
923.876	3979
923.984	4101
924.092	4010
924.201	4071
924.309	4071
924.417	4124
924.525	4071
924.633	4078
924.741	5067
924.849	3945
924.956	4093
925.064	3949
925.172	3918
925.279	3956
925.387	4090
925.494	4063
925.602	4215
925.709	4181
925.816	4093
925.924	4131
926.031	4211
926.138	4154
926.245	4204
926.352	4071
926.459	4246
926.566	4295
926.673	4139
926.779	4109
926.886	4120
926.993	3987
927.099	3899
927.206	3949
927.312	3930
927.419	4055
927.525	4021
927.631	4071
927.737	3949
927.843	3907
927.95	3831
928.056	3949
928.162	3953
928.267	4025
928.373	4599
928.479	4101
928.585	3873
928.69	4059
928.796	4036
928.901	3979
929.007	3857
929.112	4017
929.218	3975
929.323	3972
929.428	3911
929.533	4086
929.638	3888
929.743	3945
929.848	4063
929.953	4021
930.058	3915
930.163	3793
930.267	3842
930.372	3960
930.477	3789
930.581	4063
930.685	3960
930.79	3819
930.894	3903
930.998	3861
931.103	4044
931.207	3717
931.311	3656
931.415	3652
931.519	3519
931.623	3564
