Data from test_V78500241_2184.txt Node
Date: Fri Mar 25 17:04:11 CST 2022
User: usil
Spectrometer: V785-0024
Trigger mode: 0
Integration Time (sec): 4.000000E-1
Scans to average: 1
Nonlinearity correction enabled: false
Boxcar width: 0
Storing dark spectrum: false
XAxis mode: Wavelengths
Number of Pixels in Spectrum: 1024
>>>>>Begin Spectral Data<<<<<
801.071	8016
801.214	8027
801.356	7860
801.499	7830
801.641	7723
801.783	7826
801.926	7925
802.068	7871
802.211	7959
802.353	8016
802.496	7875
802.638	7868
802.78	7925
802.923	7940
803.065	7902
803.208	7833
803.35	7951
803.492	8027
803.635	8096
803.777	8073
803.919	8027
804.061	8457
804.204	8119
804.346	8035
804.488	7974
804.63	8119
804.773	8039
804.915	8130
805.057	8290
805.199	8180
805.341	8252
805.483	8286
805.626	8233
805.768	8084
805.91	8164
806.052	8240
806.194	8016
806.336	8214
806.478	8103
806.62	8058
806.762	8142
806.904	8263
807.046	8431
807.188	8332
807.33	8267
807.472	8332
807.614	8123
807.756	8123
807.898	8092
808.04	7879
808.182	7879
808.324	7868
808.465	7890
808.607	8065
808.749	8107
808.891	8256
809.033	8252
809.174	8221
809.316	8088
809.458	8043
809.6	7959
809.741	7978
809.883	8043
810.025	8081
810.166	8123
810.308	8027
810.45	8008
810.591	7841
810.733	7731
810.875	7647
811.016	7480
811.158	7426
811.299	7563
811.441	7788
811.582	7689
811.724	7586
811.865	7537
812.007	7609
812.148	7613
812.29	7563
812.431	7693
812.573	7845
812.714	7970
812.855	8176
812.997	8103
813.138	8256
813.279	8161
813.421	8077
813.562	7947
813.703	7875
813.845	7826
813.986	7464
814.127	7217
814.268	7164
814.41	7202
814.551	7095
814.692	7209
814.833	7122
814.974	7061
815.115	7084
815.256	7034
815.397	6947
815.539	6958
815.68	6772
815.821	6734
815.962	6909
816.103	6840
816.244	6677
816.385	6547
816.526	6608
816.666	6490
816.807	6285
816.948	6452
817.089	6490
817.23	6376
817.371	6361
817.512	6342
817.653	6334
817.793	6353
817.934	6407
818.075	6464
818.216	6422
818.356	6403
818.497	6232
818.638	6167
818.778	6175
818.919	6076
819.06	6175
819.2	6388
819.341	6353
819.481	6399
819.622	6551
819.762	6703
819.903	6703
820.043	6559
820.184	6578
820.324	6525
820.465	6696
820.605	6654
820.746	6642
820.886	6532
821.026	6654
821.167	6684
821.307	6802
821.447	6730
821.588	6711
821.728	6525
821.868	6456
822.008	6296
822.149	6369
822.289	6388
822.429	6091
822.569	6057
822.709	6079
822.849	5889
822.99	5901
823.13	5939
823.27	5942
823.41	5802
823.55	5790
823.69	5809
823.83	5786
823.97	5649
824.11	5497
824.25	5528
824.389	5562
824.529	5570
824.669	5474
824.809	5623
824.949	5638
825.089	5615
825.228	5566
825.368	5402
825.508	5334
825.648	5406
825.787	5364
825.927	5414
826.067	5387
826.206	5242
826.346	5379
826.485	5379
826.625	5433
826.765	5551
826.904	5512
827.044	5216
827.183	5216
827.323	5132
827.462	5250
827.601	5193
827.741	5174
827.88	5170
828.02	5105
828.159	5223
828.298	5277
828.437	5395
828.577	5254
828.716	5459
828.855	5299
828.994	5166
829.134	5155
829.273	5216
829.412	5128
829.551	5128
829.69	5170
829.829	5273
829.968	5334
830.107	5197
830.246	5280
830.385	5155
830.524	5128
830.663	5056
830.802	5003
830.941	4873
831.08	4843
831.219	4942
831.357	4900
831.496	5147
831.635	4949
831.774	4854
831.913	4896
832.051	4729
832.19	4782
832.329	4812
832.467	4687
832.606	4660
832.744	4706
832.883	4733
833.022	4683
833.16	4809
833.299	4786
833.437	4835
833.576	4835
833.714	4843
833.852	4862
833.991	4866
834.129	4934
834.267	4953
834.406	4965
834.544	4984
834.682	4965
834.821	4965
834.959	5086
835.097	4984
835.235	5159
835.373	5041
835.511	5071
835.65	5022
835.788	4999
835.926	4881
836.064	4858
836.202	4904
836.34	5155
836.478	5220
836.615	5159
836.753	5181
836.891	5311
837.029	5246
837.167	5155
837.305	5151
837.443	5121
837.58	5022
837.718	5220
837.856	5166
837.993	5185
838.131	5239
838.269	5174
838.406	5147
838.544	5185
838.681	5045
838.819	4991
838.956	4915
839.094	4911
839.231	4957
839.369	5090
839.506	5436
839.643	5242
839.781	5064
839.918	5052
840.055	5071
840.193	5121
840.33	5128
840.467	5136
840.604	5201
840.742	5425
840.879	5109
841.016	5083
841.153	5117
841.29	5345
841.427	5357
841.564	5303
841.701	5372
841.838	5269
841.975	5280
842.112	5326
842.249	5140
842.385	5071
842.522	5299
842.659	5151
842.796	5185
842.933	5178
843.069	5140
843.206	5147
843.343	5341
843.479	5220
843.616	5261
843.752	5045
843.889	4991
844.025	5201
844.162	5071
844.298	5204
844.435	5067
844.571	5079
844.708	5193
844.844	5277
844.98	5334
845.117	5303
845.253	5170
845.389	5079
845.525	5193
845.661	5155
845.798	5025
845.934	5178
846.07	5052
846.206	5170
846.342	5265
846.478	5155
846.614	5041
846.75	4957
846.886	4877
847.022	5201
847.158	5033
847.294	5075
847.429	5136
847.565	5094
847.701	5307
847.837	4847
847.972	4828
848.108	4987
848.244	4965
848.379	4755
848.515	4672
848.65	4752
848.786	4774
848.921	4828
849.057	4877
849.192	4942
849.328	4801
849.463	4820
849.598	4778
849.734	4717
849.869	4679
850.004	4615
850.14	4656
850.275	4637
850.41	4508
850.545	4577
850.68	4542
850.815	4596
850.95	4649
851.085	4847
851.22	4714
851.355	4637
851.49	4580
851.625	4634
851.76	4618
851.895	4550
852.03	4489
852.165	4599
852.299	4714
852.434	4736
852.569	4698
852.703	4763
852.838	4881
852.973	4980
853.107	4904
853.242	4752
853.376	4626
853.511	4512
853.645	4637
853.78	4790
853.914	4691
854.048	4618
854.183	4599
854.317	4691
854.451	4854
854.585	4672
854.72	4634
854.854	4733
854.988	4569
855.122	4637
855.256	4485
855.39	4607
855.524	4793
855.658	4744
855.792	4641
855.926	4683
856.06	4721
856.194	4790
856.327	4660
856.461	4618
856.595	4622
856.729	4622
856.862	4736
856.996	4744
857.13	4694
857.263	4744
857.397	4763
857.53	4679
857.664	4687
857.797	4774
857.931	4725
858.064	4717
858.197	4714
858.331	4645
858.464	4592
858.597	4512
858.731	4645
858.864	4664
858.997	4588
859.13	4626
859.263	4668
859.396	4702
859.529	4577
859.662	4580
859.795	4527
859.928	4577
860.061	4771
860.194	4759
860.327	4554
860.46	4554
860.592	4687
860.725	4691
860.858	4759
860.99	4603
861.123	4500
861.256	4561
861.388	4634
861.521	5398
861.653	4462
861.786	4470
861.918	4424
862.05	4519
862.183	4573
862.315	4615
862.447	4611
862.58	4516
862.712	4409
862.844	4314
862.976	4455
863.108	4447
863.24	4729
863.372	4314
863.504	4413
863.636	4398
863.768	4489
863.9	4409
864.032	4398
864.164	4432
864.296	4474
864.428	4500
864.559	4573
864.691	4500
864.823	4516
864.954	4459
865.086	4531
865.217	4489
865.349	4432
865.48	4432
865.612	4504
865.743	4664
865.875	4516
866.006	4459
866.137	4500
866.269	4470
866.4	4474
866.531	4409
866.662	4344
866.793	4383
866.924	4405
867.055	4508
867.186	4470
867.317	4466
867.448	4371
867.579	4402
867.71	4394
867.841	4352
867.972	4424
868.103	4489
868.233	4428
868.364	4436
868.495	4478
868.625	4672
868.756	4801
868.886	4580
869.017	4637
869.147	4729
869.278	4740
869.408	4630
869.539	4607
869.669	4717
869.799	4653
869.929	4740
870.06	4740
870.19	4995
870.32	4961
870.45	4949
870.58	4999
870.71	5025
870.84	5109
870.97	4942
871.1	4889
871.23	5151
871.36	5132
871.489	5006
871.619	5067
871.749	5048
871.879	5079
872.008	5189
872.138	5029
872.267	4968
872.397	4820
872.526	4790
872.656	4714
872.785	4793
872.915	4946
873.044	4972
873.173	4938
873.303	4991
873.432	4927
873.561	4984
873.69	4835
873.819	4831
873.948	4885
874.077	4820
874.206	4725
874.335	4797
874.464	4850
874.593	5041
874.722	5025
874.851	5121
874.979	5098
875.108	5029
875.237	4911
875.365	4858
875.494	4854
875.623	4984
875.751	4790
875.88	4866
876.008	4949
876.136	5029
876.265	5166
876.393	5334
876.521	5250
876.65	5162
876.778	5174
876.906	5121
877.034	5022
877.162	5029
877.29	4972
877.418	5067
877.546	5018
877.674	5098
877.802	5056
877.93	5029
878.058	4938
878.185	4866
878.313	4972
878.441	4908
878.568	4812
878.696	4820
878.824	4942
878.951	4976
879.079	5147
879.206	5250
879.333	5102
879.461	4934
879.588	5048
879.715	5102
879.842	5223
879.97	4976
880.097	4809
880.224	4755
880.351	4812
880.478	4831
880.605	4778
880.732	4782
880.859	5071
880.986	4877
881.112	4892
881.239	4767
881.366	4645
881.493	4603
881.619	4596
881.746	4634
881.872	4672
881.999	4641
882.125	4691
882.252	4816
882.378	4839
882.505	5014
882.631	4820
882.757	4683
882.883	4736
883.01	4714
883.136	4645
883.262	4588
883.388	4634
883.514	4752
883.64	4866
883.766	4812
883.892	4664
884.018	4683
884.143	4904
884.269	4999
884.395	4679
884.52	4626
884.646	4668
884.772	4569
884.897	4554
885.023	4622
885.148	4721
885.274	4881
885.399	4797
885.524	4672
885.65	4660
885.775	4767
885.9	4698
886.025	4870
886.15	4790
886.275	4675
886.4	4641
886.525	4694
886.65	4687
886.775	4698
886.9	4942
887.025	5045
887.149	4778
887.274	4599
887.399	4592
887.523	4584
887.648	4546
887.773	4596
887.897	4698
888.021	4790
888.146	4675
888.27	4809
888.395	4847
888.519	4759
888.643	4831
888.767	4793
888.891	4672
889.015	4573
889.139	4679
889.263	4634
889.387	4748
889.511	4870
889.635	4793
889.759	4599
889.883	4672
890.006	4710
890.13	4786
890.254	4569
890.377	4679
890.501	4535
890.624	4523
890.748	4603
890.871	4497
890.995	4436
891.118	4386
891.241	4500
891.364	4535
891.488	4660
891.611	4466
891.734	4554
891.857	4592
891.98	4497
892.103	4645
892.226	4584
892.349	4516
892.471	4371
892.594	4535
892.717	4596
892.839	4596
892.962	4580
893.085	4645
893.207	4573
893.33	4394
893.452	4508
893.575	4656
893.697	4573
893.819	4736
893.941	4790
894.064	4797
894.186	4538
894.308	4565
894.43	4763
894.552	4790
894.674	4729
894.796	4516
894.918	4599
895.04	4565
895.161	4683
895.283	4622
895.405	4615
895.526	4611
895.648	4698
895.769	4687
895.891	4653
896.012	4717
896.134	4694
896.255	4668
896.376	4637
896.498	4588
896.619	4637
896.74	4580
896.861	4664
896.982	4900
897.103	5052
897.224	4831
897.345	4752
897.466	4679
897.587	4706
897.708	4831
897.828	4771
897.949	4679
898.07	4554
898.19	4653
898.311	4790
898.431	4683
898.552	4736
898.672	4812
898.792	4767
898.913	4763
899.033	4626
899.153	4489
899.273	4428
899.393	4474
899.513	4554
899.633	4489
899.753	4508
899.873	4489
899.993	4561
900.113	4535
900.232	4573
900.352	4542
900.472	4519
900.591	4402
900.711	4550
900.83	4447
900.95	4653
901.069	4706
901.189	4565
901.308	4348
901.427	4310
901.546	4409
901.665	4466
901.784	4508
901.904	4375
902.023	4291
902.141	4166
902.26	4185
902.379	4276
902.498	4242
902.617	4162
902.735	4455
902.854	4394
902.973	4314
903.091	4188
903.21	4211
903.328	4295
903.446	4272
903.565	4246
903.683	4379
903.801	4253
903.919	4348
904.038	4455
904.156	4303
904.274	4470
904.392	4405
904.51	4417
904.627	4443
904.745	4580
904.863	4607
904.981	4402
905.098	4303
905.216	4360
905.334	4413
905.451	4459
905.569	4451
905.686	4592
905.803	4531
905.921	4405
906.038	4538
906.155	4474
906.272	4383
906.389	4493
906.506	4341
906.623	4409
906.74	4398
906.857	4276
906.974	4371
907.091	4561
907.208	4683
907.324	4573
907.441	4493
907.557	4341
907.674	4348
907.79	4299
907.907	4379
908.023	4470
908.139	4462
908.256	4398
908.372	4481
908.488	4405
908.604	4325
908.72	4318
908.836	4402
908.952	4398
909.068	4402
909.184	4561
909.3	4493
909.415	4607
909.531	4538
909.647	4367
909.762	4371
909.878	4371
909.993	4451
910.108	4402
910.224	4440
910.339	4512
910.454	4386
910.57	4390
910.685	4337
910.8	4588
910.915	4599
911.03	4466
911.145	4325
911.259	4265
911.374	4398
911.489	4265
911.604	4261
911.718	4150
911.833	4166
911.947	4082
912.062	4032
912.176	4230
912.291	4246
912.405	4253
912.519	4447
912.633	4474
912.748	4352
912.862	4306
912.976	4227
913.09	4055
913.204	4109
913.318	4215
913.431	4325
913.545	4405
913.659	4398
913.772	4344
913.886	4234
914	4238
914.113	4322
914.226	4455
914.34	4363
914.453	4215
914.566	4432
914.68	4291
914.793	4322
914.906	4135
915.019	4143
915.132	4074
915.245	4211
915.358	4185
915.47	4207
915.583	4287
915.696	4272
915.809	4394
915.921	4405
916.034	4204
916.146	4249
916.259	4223
916.371	4329
916.483	4360
916.595	4276
916.708	4322
916.82	4284
916.932	4310
917.044	4333
917.156	4314
917.268	4223
917.38	4284
917.491	4261
917.603	4360
917.715	4424
917.826	4409
917.938	4314
918.049	4295
918.161	4363
918.272	4508
918.384	4512
918.495	4424
918.606	4291
918.717	4219
918.828	4363
918.939	4402
919.05	4227
919.161	4314
919.272	4139
919.383	4249
919.494	4493
919.604	4634
919.715	4440
919.826	4344
919.936	4360
920.047	4508
920.157	4504
920.267	4710
920.378	4554
920.488	4474
920.598	4679
920.708	4908
920.818	4752
920.928	4752
921.038	4976
921.148	4930
921.258	4653
921.368	4561
921.477	4466
921.587	4466
921.697	4352
921.806	4546
921.916	4440
922.025	4230
922.134	4227
922.244	4196
922.353	4341
922.462	4192
922.571	4143
922.68	3998
922.789	3998
922.898	4044
923.007	3975
923.116	4063
923.224	4036
923.333	4067
923.442	3987
923.55	3926
923.659	3991
923.767	4116
923.876	4036
923.984	4128
924.092	3941
924.201	4078
924.309	4116
924.417	4112
924.525	4059
924.633	4086
924.741	5029
924.849	3915
924.956	4173
925.064	3979
925.172	3907
925.279	3964
925.387	4082
925.494	4063
925.602	4192
925.709	4147
925.816	3975
925.924	4090
926.031	4223
926.138	4154
926.245	4173
926.352	4055
926.459	4261
926.566	4287
926.673	4169
926.779	4044
926.886	4105
926.993	3956
927.099	3975
927.206	3915
927.312	3934
927.419	4040
927.525	3972
927.631	4067
927.737	3945
927.843	3915
927.95	3835
928.056	3949
928.162	3991
928.267	4013
928.373	4687
928.479	4131
928.585	3876
928.69	4048
928.796	4029
928.901	3972
929.007	3865
929.112	3998
929.218	3945
929.323	3941
929.428	3941
929.533	4150
929.638	3918
929.743	3953
929.848	4013
929.953	3991
930.058	3922
930.163	3812
930.267	3831
930.372	3953
930.477	3804
930.581	4105
930.685	3926
930.79	3835
930.894	3888
930.998	3812
931.103	4021
931.207	3720
931.311	3667
931.415	3633
931.519	3492
931.623	3538
