Data from test_V78500241_1178.txt Node
Date: Fri Mar 25 16:57:11 CST 2022
User: usil
Spectrometer: V785-0024
Trigger mode: 0
Integration Time (sec): 4.000000E-1
Scans to average: 1
Nonlinearity correction enabled: false
Boxcar width: 0
Storing dark spectrum: false
XAxis mode: Wavelengths
Number of Pixels in Spectrum: 1024
>>>>>Begin Spectral Data<<<<<
801.071	8092
801.214	7997
801.356	8005
801.499	7849
801.641	7807
801.783	7811
801.926	7909
802.068	7906
802.211	7928
802.353	7925
802.496	7826
802.638	7890
802.78	7932
802.923	7951
803.065	7940
803.208	7856
803.35	7974
803.492	8123
803.635	8191
803.777	7982
803.919	8100
804.061	8442
804.204	8187
804.346	8046
804.488	7974
804.63	8111
804.773	7986
804.915	8119
805.057	8286
805.199	8134
805.341	8252
805.483	8252
805.626	8279
805.768	8100
805.91	8237
806.052	8240
806.194	8088
806.336	8256
806.478	8138
806.62	8027
806.762	8145
806.904	8210
807.046	8465
807.188	8370
807.33	8339
807.472	8404
807.614	8111
807.756	8065
807.898	7963
808.04	7909
808.182	7921
808.324	7917
808.465	7955
808.607	8058
808.749	8107
808.891	8145
809.033	8317
809.174	8149
809.316	7997
809.458	8050
809.6	7940
809.741	8005
809.883	8027
810.025	8050
810.166	8058
810.308	8027
810.45	8035
810.591	7852
810.733	7753
810.875	7670
811.016	7457
811.158	7483
811.299	7594
811.441	7693
811.582	7643
811.724	7567
811.865	7480
812.007	7556
812.148	7590
812.29	7613
812.431	7734
812.573	7822
812.714	7906
812.855	8142
812.997	8176
813.138	8279
813.279	8199
813.421	8081
813.562	7986
813.703	7795
813.845	7742
813.986	7441
814.127	7228
814.268	7206
814.41	7190
814.551	7114
814.692	7194
814.833	7061
814.974	7061
815.115	7091
815.256	6954
815.397	6875
815.539	6985
815.68	6837
815.821	6776
815.962	6814
816.103	6745
816.244	6688
816.385	6612
816.526	6616
816.666	6486
816.807	6270
816.948	6422
817.089	6437
817.23	6437
817.371	6376
817.512	6403
817.653	6391
817.793	6319
817.934	6346
818.075	6452
818.216	6429
818.356	6426
818.497	6243
818.638	6098
818.778	6171
818.919	6098
819.06	6125
819.2	6285
819.341	6311
819.481	6365
819.622	6483
819.762	6654
819.903	6719
820.043	6528
820.184	6585
820.324	6528
820.465	6608
820.605	6635
820.746	6616
820.886	6464
821.026	6623
821.167	6635
821.307	6802
821.447	6779
821.588	6635
821.728	6532
821.868	6433
822.008	6251
822.149	6308
822.289	6422
822.429	6117
822.569	6060
822.709	6136
822.849	5916
822.99	5805
823.13	5908
823.27	5874
823.41	5741
823.55	5790
823.69	5714
823.83	5752
823.97	5680
824.11	5509
824.25	5455
824.389	5509
824.529	5581
824.669	5520
824.809	5608
824.949	5661
825.089	5585
825.228	5528
825.368	5364
825.508	5292
825.648	5345
825.787	5334
825.927	5337
826.067	5284
826.206	5265
826.346	5364
826.485	5398
826.625	5402
826.765	5486
826.904	5490
827.044	5280
827.183	5201
827.323	5075
827.462	5231
827.601	5128
827.741	5178
827.88	5170
828.02	5067
828.159	5140
828.298	5269
828.437	5322
828.577	5277
828.716	5474
828.855	5318
828.994	5117
829.134	5090
829.273	5181
829.412	5147
829.551	5060
829.69	5162
829.829	5216
829.968	5353
830.107	5280
830.246	5296
830.385	5170
830.524	5159
830.663	5045
830.802	5022
830.941	4858
831.08	4828
831.219	4961
831.357	4968
831.496	5140
831.635	4911
831.774	4782
831.913	4831
832.051	4668
832.19	4725
832.329	4843
832.467	4679
832.606	4603
832.744	4698
832.883	4694
833.022	4702
833.16	4752
833.299	4828
833.437	4801
833.576	4816
833.714	4828
833.852	4843
833.991	4850
834.129	4938
834.267	4911
834.406	4873
834.544	4961
834.682	4942
834.821	4923
834.959	5147
835.097	4991
835.235	5147
835.373	5056
835.511	5029
835.65	5014
835.788	4995
835.926	4900
836.064	4812
836.202	4904
836.34	5124
836.478	5235
836.615	5121
836.753	5212
836.891	5254
837.029	5242
837.167	5197
837.305	5102
837.443	5124
837.58	5056
837.718	5254
837.856	5181
837.993	5098
838.131	5223
838.269	5143
838.406	5166
838.544	5143
838.681	5033
838.819	4987
838.956	4881
839.094	4896
839.231	4995
839.369	5052
839.506	5406
839.643	5185
839.781	5052
839.918	5018
840.055	5060
840.193	5060
840.33	5083
840.467	5105
840.604	5189
840.742	5402
840.879	5048
841.016	5060
841.153	5102
841.29	5387
841.427	5258
841.564	5318
841.701	5349
841.838	5261
841.975	5197
842.112	5284
842.249	5155
842.385	5121
842.522	5337
842.659	5136
842.796	5121
842.933	5136
843.069	5079
843.206	5155
843.343	5242
843.479	5235
843.616	5296
843.752	5006
843.889	4999
844.025	5246
844.162	4987
844.298	5113
844.435	5048
844.571	5010
844.708	5162
844.844	5284
844.98	5326
845.117	5292
845.253	5117
845.389	5048
845.525	5121
845.661	5124
845.798	5052
845.934	5109
846.07	4987
846.206	5178
846.342	5250
846.478	5162
846.614	4995
846.75	4984
846.886	4892
847.022	5094
847.158	5052
847.294	5052
847.429	5090
847.565	5025
847.701	5299
847.837	4801
847.972	4786
848.108	4942
848.244	4923
848.379	4740
848.515	4694
848.65	4694
848.786	4763
848.921	4729
849.057	4843
849.192	4873
849.328	4782
849.463	4835
849.598	4812
849.734	4721
849.869	4675
850.004	4603
850.14	4618
850.275	4603
850.41	4588
850.545	4531
850.68	4519
850.815	4615
850.95	4656
851.085	4809
851.22	4767
851.355	4622
851.49	4577
851.625	4580
851.76	4668
851.895	4542
852.03	4546
852.165	4656
852.299	4706
852.434	4824
852.569	4755
852.703	4763
852.838	4809
852.973	4873
853.107	4923
853.242	4725
853.376	4649
853.511	4531
853.645	4577
853.78	4748
853.914	4683
854.048	4634
854.183	4565
854.317	4691
854.451	4850
854.585	4683
854.72	4580
854.854	4691
854.988	4603
855.122	4649
855.256	4527
855.39	4672
855.524	4774
855.658	4664
855.792	4725
855.926	4748
856.06	4786
856.194	4801
856.327	4668
856.461	4588
856.595	4668
856.729	4558
856.862	4736
856.996	4664
857.13	4710
857.263	4740
857.397	4740
857.53	4622
857.664	4729
857.797	4733
857.931	4752
858.064	4710
858.197	4714
858.331	4615
858.464	4588
858.597	4554
858.731	4599
858.864	4641
858.997	4603
859.13	4634
859.263	4615
859.396	4694
859.529	4550
859.662	4554
859.795	4516
859.928	4649
860.061	4767
860.194	4755
860.327	4599
860.46	4550
860.592	4683
860.725	4744
860.858	4714
860.99	4588
861.123	4462
861.256	4508
861.388	4615
861.521	5212
861.653	4489
861.786	4428
861.918	4443
862.05	4516
862.183	4531
862.315	4603
862.447	4675
862.58	4550
862.712	4394
862.844	4287
862.976	4421
863.108	4504
863.24	4831
863.372	4291
863.504	4402
863.636	4363
863.768	4428
863.9	4333
864.032	4360
864.164	4375
864.296	4474
864.428	4542
864.559	4519
864.691	4493
864.823	4489
864.954	4504
865.086	4466
865.217	4413
865.349	4375
865.48	4481
865.612	4516
865.743	4592
865.875	4424
866.006	4428
866.137	4500
866.269	4459
866.4	4451
866.531	4428
866.662	4379
866.793	4363
866.924	4402
867.055	4500
867.186	4421
867.317	4417
867.448	4405
867.579	4394
867.71	4402
867.841	4375
867.972	4459
868.103	4417
868.233	4432
868.364	4485
868.495	4466
868.625	4656
868.756	4698
868.886	4561
869.017	4599
869.147	4763
869.278	4740
869.408	4641
869.539	4622
869.669	4729
869.799	4653
869.929	4733
870.06	4694
870.19	4930
870.32	4919
870.45	4885
870.58	4949
870.71	5041
870.84	5075
870.97	4896
871.1	4892
871.23	5159
871.36	5083
871.489	4980
871.619	5090
871.749	5041
871.879	5121
872.008	5166
872.138	5006
872.267	4919
872.397	4816
872.526	4774
872.656	4736
872.785	4801
872.915	4915
873.044	5018
873.173	4923
873.303	4915
873.432	4938
873.561	4923
873.69	4877
873.819	4873
873.948	4881
874.077	4809
874.206	4774
874.335	4748
874.464	4923
874.593	5022
874.722	4957
874.851	5094
874.979	5025
875.108	4987
875.237	4908
875.365	4820
875.494	4820
875.623	4968
875.751	4831
875.88	4831
876.008	5010
876.136	5006
876.265	5185
876.393	5318
876.521	5220
876.65	5201
876.778	5181
876.906	5071
877.034	4980
877.162	5033
877.29	5006
877.418	5033
877.546	4972
877.674	5022
877.802	5006
877.93	4957
878.058	4927
878.185	4847
878.313	4938
878.441	4908
878.568	4740
878.696	4847
878.824	4953
878.951	4987
879.079	5102
879.206	5231
879.333	5067
879.461	4953
879.588	5025
879.715	5086
879.842	5178
879.97	4968
880.097	4759
880.224	4710
880.351	4771
880.478	4755
880.605	4797
880.732	4744
880.859	4991
880.986	4900
881.112	4908
881.239	4767
881.366	4599
881.493	4577
881.619	4588
881.746	4630
881.872	4603
881.999	4634
882.125	4691
882.252	4786
882.378	4828
882.505	4976
882.631	4778
882.757	4660
882.883	4698
883.01	4706
883.136	4596
883.262	4596
883.388	4573
883.514	4793
883.64	4828
883.766	4767
883.892	4634
884.018	4694
884.143	4854
884.269	5003
884.395	4592
884.52	4634
884.646	4611
884.772	4588
884.897	4516
885.023	4653
885.148	4733
885.274	4870
885.399	4809
885.524	4767
885.65	4675
885.775	4733
885.9	4744
886.025	4892
886.15	4786
886.275	4714
886.4	4626
886.525	4748
886.65	4675
886.775	4736
886.9	4923
887.025	5071
887.149	4797
887.274	4683
887.399	4645
887.523	4698
887.648	4577
887.773	4607
887.897	4744
888.021	4839
888.146	4687
888.27	4809
888.395	4930
888.519	4839
888.643	4835
888.767	4854
888.891	4694
889.015	4618
889.139	4656
889.263	4641
889.387	4767
889.511	4892
889.635	4828
889.759	4672
889.883	4668
890.006	4771
890.13	4866
890.254	4637
890.377	4675
890.501	4565
890.624	4577
890.748	4641
890.871	4554
890.995	4470
891.118	4409
891.241	4538
891.364	4561
891.488	4668
891.611	4519
891.734	4546
891.857	4588
891.98	4615
892.103	4687
892.226	4660
892.349	4592
892.471	4402
892.594	4565
892.717	4634
892.839	4611
892.962	4546
893.085	4694
893.207	4656
893.33	4493
893.452	4531
893.575	4744
893.697	4596
893.819	4812
893.941	4839
894.064	4771
894.186	4603
894.308	4588
894.43	4759
894.552	4828
894.674	4767
894.796	4611
894.918	4634
895.04	4584
895.161	4702
895.283	4649
895.405	4596
895.526	4698
895.648	4706
895.769	4729
895.891	4714
896.012	4793
896.134	4759
896.255	4656
896.376	4634
896.498	4599
896.619	4721
896.74	4645
896.861	4675
896.982	4911
897.103	5113
897.224	4900
897.345	4752
897.466	4660
897.587	4786
897.708	4896
897.828	4809
897.949	4706
898.07	4584
898.19	4645
898.311	4824
898.431	4698
898.552	4786
898.672	4881
898.792	4786
898.913	4759
899.033	4683
899.153	4558
899.273	4481
899.393	4512
899.513	4577
899.633	4554
899.753	4596
899.873	4531
899.993	4596
900.113	4580
900.232	4615
900.352	4558
900.472	4569
900.591	4436
900.711	4527
900.83	4443
900.95	4672
901.069	4683
901.189	4626
901.308	4386
901.427	4310
901.546	4413
901.665	4470
901.784	4535
901.904	4379
902.023	4367
902.141	4215
902.26	4173
902.379	4360
902.498	4223
902.617	4215
902.735	4405
902.854	4440
902.973	4375
903.091	4223
903.21	4253
903.328	4329
903.446	4280
903.565	4261
903.683	4394
903.801	4325
903.919	4405
904.038	4413
904.156	4325
904.274	4459
904.392	4417
904.51	4436
904.627	4500
904.745	4630
904.863	4626
904.981	4409
905.098	4322
905.216	4386
905.334	4436
905.451	4455
905.569	4455
905.686	4542
905.803	4584
905.921	4417
906.038	4611
906.155	4455
906.272	4413
906.389	4455
906.506	4398
906.623	4379
906.74	4447
906.857	4344
906.974	4428
907.091	4577
907.208	4683
907.324	4615
907.441	4550
907.557	4314
907.674	4390
907.79	4360
907.907	4405
908.023	4489
908.139	4512
908.256	4504
908.372	4474
908.488	4497
908.604	4371
908.72	4329
908.836	4375
908.952	4386
909.068	4455
909.184	4588
909.3	4485
909.415	4588
909.531	4588
909.647	4360
909.762	4379
909.878	4341
909.993	4413
910.108	4447
910.224	4428
910.339	4546
910.454	4466
910.57	4402
910.685	4291
910.8	4668
910.915	4653
911.03	4519
911.145	4325
911.259	4337
911.374	4428
911.489	4337
911.604	4287
911.718	4215
911.833	4249
911.947	4116
912.062	4055
912.176	4207
912.291	4299
912.405	4261
912.519	4516
912.633	4504
912.748	4375
912.862	4325
912.976	4257
913.09	4086
913.204	4257
913.318	4318
913.431	4386
913.545	4379
913.659	4485
913.772	4383
913.886	4280
914	4253
914.113	4394
914.226	4424
914.34	4459
914.453	4272
914.566	4428
914.68	4360
914.793	4322
914.906	4169
915.019	4150
915.132	4154
915.245	4211
915.358	4238
915.47	4211
915.583	4295
915.696	4367
915.809	4447
915.921	4447
916.034	4356
916.146	4253
916.259	4242
916.371	4409
916.483	4390
916.595	4287
916.708	4386
916.82	4333
916.932	4386
917.044	4333
917.156	4348
917.268	4261
917.38	4299
917.491	4242
917.603	4367
917.715	4440
917.826	4428
917.938	4322
918.049	4249
918.161	4375
918.272	4554
918.384	4531
918.495	4470
918.606	4314
918.717	4268
918.828	4352
918.939	4356
919.05	4337
919.161	4360
919.272	4128
919.383	4230
919.494	4462
919.604	4577
919.715	4455
919.826	4379
919.936	4417
920.047	4519
920.157	4527
920.267	4782
920.378	4596
920.488	4500
920.598	4710
920.708	4942
920.818	4812
920.928	4755
921.038	4953
921.148	4930
921.258	4645
921.368	4607
921.477	4523
921.587	4428
921.697	4405
921.806	4592
921.916	4402
922.025	4284
922.134	4257
922.244	4257
922.353	4329
922.462	4200
922.571	4158
922.68	4036
922.789	3960
922.898	4074
923.007	4006
923.116	4124
923.224	4059
923.333	4150
923.442	3972
923.55	4063
923.659	4074
923.767	4112
923.876	4029
923.984	4097
924.092	3979
924.201	4044
924.309	4086
924.417	4105
924.525	4078
924.633	4082
924.741	5048
924.849	3941
924.956	4116
925.064	3983
925.172	3926
925.279	4013
925.387	4097
925.494	4010
925.602	4211
925.709	4227
925.816	4051
925.924	4177
926.031	4227
926.138	4185
926.245	4192
926.352	4078
926.459	4219
926.566	4299
926.673	4169
926.779	4105
926.886	4067
926.993	4048
927.099	3956
927.206	3975
927.312	3930
927.419	4082
927.525	4010
927.631	4131
927.737	4013
927.843	3949
927.95	3880
928.056	3953
928.162	3998
928.267	4051
928.373	4691
928.479	4128
928.585	3880
928.69	4086
928.796	4067
928.901	3983
929.007	3880
929.112	4013
929.218	3975
929.323	3949
929.428	3956
929.533	4135
929.638	3907
929.743	4006
929.848	4059
929.953	4010
930.058	3953
930.163	3766
930.267	3842
930.372	3983
930.477	3819
930.581	4105
930.685	3934
930.79	3831
930.894	3873
930.998	3876
931.103	4032
931.207	3728
931.311	3724
931.415	3724
931.519	3538
931.623	3576
