Data from test_V78500241_1208.txt Node
Date: Fri Mar 25 16:57:24 CST 2022
User: usil
Spectrometer: V785-0024
Trigger mode: 0
Integration Time (sec): 4.000000E-1
Scans to average: 1
Nonlinearity correction enabled: false
Boxcar width: 0
Storing dark spectrum: false
XAxis mode: Wavelengths
Number of Pixels in Spectrum: 1024
>>>>>Begin Spectral Data<<<<<
801.071	8031
801.214	8046
801.356	7788
801.499	7841
801.641	7757
801.783	7769
801.926	7936
802.068	7940
802.211	7925
802.353	7955
802.496	7845
802.638	7890
802.78	7871
802.923	7890
803.065	7875
803.208	7814
803.35	7913
803.492	8084
803.635	8119
803.777	8012
803.919	8138
804.061	8473
804.204	8119
804.346	7993
804.488	8020
804.63	8031
804.773	7997
804.915	8100
805.057	8275
805.199	8164
805.341	8180
805.483	8221
805.626	8218
805.768	8039
805.91	8229
806.052	8153
806.194	8020
806.336	8252
806.478	8092
806.62	8119
806.762	8058
806.904	8225
807.046	8427
807.188	8320
807.33	8282
807.472	8313
807.614	8161
807.756	8031
807.898	7951
808.04	7894
808.182	7913
808.324	7887
808.465	7833
808.607	8100
808.749	8149
808.891	8187
809.033	8271
809.174	8191
809.316	8016
809.458	7944
809.6	7944
809.741	7959
809.883	8016
810.025	8058
810.166	8027
810.308	8020
810.45	7993
810.591	7898
810.733	7765
810.875	7605
811.016	7540
811.158	7438
811.299	7609
811.441	7708
811.582	7647
811.724	7563
811.865	7502
812.007	7556
812.148	7556
812.29	7609
812.431	7727
812.573	7799
812.714	7955
812.855	8054
812.997	8199
813.138	8267
813.279	8191
813.421	8096
813.562	8027
813.703	7814
813.845	7784
813.986	7381
814.127	7206
814.268	7206
814.41	7179
814.551	7152
814.692	7206
814.833	7084
814.974	7110
815.115	7031
815.256	6954
815.397	6856
815.539	6951
815.68	6760
815.821	6719
815.962	6837
816.103	6760
816.244	6749
816.385	6593
816.526	6650
816.666	6448
816.807	6277
816.948	6422
817.089	6471
817.23	6486
817.371	6292
817.512	6338
817.653	6410
817.793	6357
817.934	6376
818.075	6429
818.216	6441
818.356	6380
818.497	6190
818.638	6057
818.778	6095
818.919	6133
819.06	6186
819.2	6296
819.341	6350
819.481	6315
819.622	6544
819.762	6707
819.903	6696
820.043	6582
820.184	6593
820.324	6509
820.465	6669
820.605	6639
820.746	6635
820.886	6483
821.026	6639
821.167	6654
821.307	6726
821.447	6745
821.588	6604
821.728	6521
821.868	6509
822.008	6292
822.149	6338
822.289	6327
822.429	6106
822.569	6022
822.709	6114
822.849	5942
822.99	5863
823.13	5912
823.27	5935
823.41	5760
823.55	5847
823.69	5714
823.83	5741
823.97	5657
824.11	5505
824.25	5497
824.389	5570
824.529	5558
824.669	5524
824.809	5630
824.949	5649
825.089	5630
825.228	5573
825.368	5376
825.508	5353
825.648	5402
825.787	5376
825.927	5345
826.067	5353
826.206	5296
826.346	5368
826.485	5417
826.625	5402
826.765	5570
826.904	5509
827.044	5280
827.183	5178
827.323	5147
827.462	5239
827.601	5185
827.741	5136
827.88	5216
828.02	5132
828.159	5223
828.298	5360
828.437	5410
828.577	5284
828.716	5516
828.855	5368
828.994	5174
829.134	5235
829.273	5223
829.412	5159
829.551	5121
829.69	5185
829.829	5246
829.968	5383
830.107	5303
830.246	5288
830.385	5265
830.524	5185
830.663	5136
830.802	4980
830.941	4904
831.08	4892
831.219	4999
831.357	5048
831.496	5166
831.635	4953
831.774	4850
831.913	4881
832.051	4755
832.19	4725
832.329	4915
832.467	4740
832.606	4630
832.744	4729
832.883	4759
833.022	4755
833.16	4801
833.299	4824
833.437	4835
833.576	4850
833.714	4847
833.852	4896
833.991	4942
834.129	4999
834.267	4946
834.406	4889
834.544	4999
834.682	5003
834.821	5037
834.959	5178
835.097	5014
835.235	5185
835.373	5098
835.511	5109
835.65	5052
835.788	5048
835.926	4930
836.064	4908
836.202	4881
836.34	5166
836.478	5254
836.615	5220
836.753	5227
836.891	5250
837.029	5322
837.167	5212
837.305	5250
837.443	5201
837.58	5041
837.718	5284
837.856	5220
837.993	5193
838.131	5307
838.269	5193
838.406	5235
838.544	5166
838.681	5018
838.819	4987
838.956	4896
839.094	4896
839.231	5010
839.369	5071
839.506	5455
839.643	5273
839.781	5037
839.918	5048
840.055	5151
840.193	5105
840.33	5132
840.467	5185
840.604	5223
840.742	5459
840.879	5113
841.016	5166
841.153	5159
841.29	5330
841.427	5345
841.564	5330
841.701	5326
841.838	5273
841.975	5258
842.112	5269
842.249	5162
842.385	5113
842.522	5277
842.659	5197
842.796	5170
842.933	5201
843.069	5189
843.206	5124
843.343	5330
843.479	5273
843.616	5261
843.752	5098
843.889	5064
844.025	5227
844.162	4991
844.298	5220
844.435	5079
844.571	5067
844.708	5239
844.844	5334
844.98	5337
845.117	5330
845.253	5140
845.389	5102
845.525	5162
845.661	5170
845.798	5090
845.934	5159
846.07	5056
846.206	5227
846.342	5345
846.478	5208
846.614	5018
846.75	5025
846.886	4934
847.022	5201
847.158	5010
847.294	5128
847.429	5102
847.565	5025
847.701	5357
847.837	4927
847.972	4790
848.108	4968
848.244	4930
848.379	4774
848.515	4771
848.65	4759
848.786	4809
848.921	4748
849.057	4839
849.192	4919
849.328	4877
849.463	4828
849.598	4771
849.734	4778
849.869	4698
850.004	4645
850.14	4691
850.275	4607
850.41	4550
850.545	4607
850.68	4694
850.815	4653
850.95	4660
851.085	4809
851.22	4736
851.355	4736
851.49	4706
851.625	4675
851.76	4607
851.895	4584
852.03	4497
852.165	4691
852.299	4736
852.434	4843
852.569	4828
852.703	4812
852.838	4858
852.973	4942
853.107	4892
853.242	4774
853.376	4702
853.511	4565
853.645	4641
853.78	4831
853.914	4698
854.048	4710
854.183	4687
854.317	4733
854.451	4892
854.585	4717
854.72	4664
854.854	4755
854.988	4577
855.122	4679
855.256	4561
855.39	4679
855.524	4782
855.658	4763
855.792	4744
855.926	4759
856.06	4824
856.194	4839
856.327	4725
856.461	4664
856.595	4645
856.729	4649
856.862	4763
856.996	4736
857.13	4755
857.263	4790
857.397	4809
857.53	4641
857.664	4748
857.797	4778
857.931	4835
858.064	4675
858.197	4786
858.331	4664
858.464	4660
858.597	4550
858.731	4691
858.864	4660
858.997	4577
859.13	4679
859.263	4706
859.396	4694
859.529	4599
859.662	4611
859.795	4558
859.928	4653
860.061	4801
860.194	4793
860.327	4607
860.46	4588
860.592	4752
860.725	4782
860.858	4733
860.99	4577
861.123	4580
861.256	4550
861.388	4599
861.521	5258
861.653	4485
861.786	4481
861.918	4466
862.05	4523
862.183	4603
862.315	4649
862.447	4622
862.58	4577
862.712	4443
862.844	4322
862.976	4478
863.108	4462
863.24	4927
863.372	4402
863.504	4443
863.636	4443
863.768	4493
863.9	4489
864.032	4390
864.164	4405
864.296	4554
864.428	4561
864.559	4603
864.691	4527
864.823	4516
864.954	4531
865.086	4546
865.217	4462
865.349	4413
865.48	4474
865.612	4489
865.743	4637
865.875	4466
866.006	4447
866.137	4417
866.269	4512
866.4	4409
866.531	4402
866.662	4409
866.793	4447
866.924	4440
867.055	4527
867.186	4474
867.317	4428
867.448	4409
867.579	4440
867.71	4402
867.841	4455
867.972	4462
868.103	4538
868.233	4500
868.364	4432
868.495	4504
868.625	4672
868.756	4820
868.886	4615
869.017	4607
869.147	4782
869.278	4710
869.408	4702
869.539	4656
869.669	4694
869.799	4656
869.929	4759
870.06	4763
870.19	4911
870.32	4927
870.45	4987
870.58	5060
870.71	5094
870.84	5132
870.97	4972
871.1	4904
871.23	5136
871.36	5178
871.489	4995
871.619	5056
871.749	5094
871.879	5185
872.008	5155
872.138	5094
872.267	4968
872.397	4877
872.526	4774
872.656	4740
872.785	4835
872.915	4938
873.044	5037
873.173	4927
873.303	4999
873.432	4946
873.561	4987
873.69	4911
873.819	4858
873.948	4938
874.077	4809
874.206	4790
874.335	4831
874.464	4968
874.593	5071
874.722	5006
874.851	5060
874.979	5071
875.108	5056
875.237	4923
875.365	4885
875.494	4866
875.623	4946
875.751	4831
875.88	4877
876.008	4987
876.136	5071
876.265	5197
876.393	5349
876.521	5223
876.65	5235
876.778	5170
876.906	5132
877.034	5033
877.162	5029
877.29	4995
877.418	5045
877.546	5060
877.674	5025
877.802	5029
877.93	5090
878.058	4911
878.185	4877
878.313	4942
878.441	4957
878.568	4847
878.696	4828
878.824	4961
878.951	5018
879.079	5109
879.206	5311
879.333	5128
879.461	5003
879.588	4942
879.715	5166
879.842	5235
879.97	5037
880.097	4771
880.224	4721
880.351	4816
880.478	4767
880.605	4850
880.732	4774
880.859	5094
880.986	4900
881.112	4892
881.239	4790
881.366	4668
881.493	4630
881.619	4603
881.746	4656
881.872	4634
881.999	4683
882.125	4675
882.252	4786
882.378	4870
882.505	4953
882.631	4862
882.757	4679
882.883	4778
883.01	4691
883.136	4725
883.262	4607
883.388	4660
883.514	4847
883.64	4873
883.766	4805
883.892	4675
884.018	4687
884.143	4919
884.269	5006
884.395	4675
884.52	4656
884.646	4653
884.772	4668
884.897	4523
885.023	4694
885.148	4755
885.274	4843
885.399	4820
885.524	4744
885.65	4687
885.775	4755
885.9	4702
886.025	4889
886.15	4809
886.275	4687
886.4	4637
886.525	4733
886.65	4687
886.775	4675
886.9	4900
887.025	5003
887.149	4828
887.274	4672
887.399	4580
887.523	4573
887.648	4607
887.773	4622
887.897	4717
888.021	4809
888.146	4672
888.27	4759
888.395	4930
888.519	4797
888.643	4824
888.767	4835
888.891	4637
889.015	4641
889.139	4649
889.263	4565
889.387	4771
889.511	4873
889.635	4812
889.759	4607
889.883	4637
890.006	4721
890.13	4782
890.254	4626
890.377	4679
890.501	4542
890.624	4546
890.748	4664
890.871	4527
890.995	4470
891.118	4421
891.241	4546
891.364	4554
891.488	4596
891.611	4485
891.734	4512
891.857	4641
891.98	4577
892.103	4607
892.226	4618
892.349	4565
892.471	4424
892.594	4569
892.717	4596
892.839	4584
892.962	4573
893.085	4611
893.207	4611
893.33	4478
893.452	4523
893.575	4649
893.697	4577
893.819	4793
893.941	4816
894.064	4812
894.186	4569
894.308	4618
894.43	4744
894.552	4835
894.674	4755
894.796	4577
894.918	4535
895.04	4584
895.161	4744
895.283	4691
895.405	4535
895.526	4630
895.648	4687
895.769	4710
895.891	4714
896.012	4721
896.134	4714
896.255	4656
896.376	4599
896.498	4569
896.619	4691
896.74	4645
896.861	4634
896.982	4946
897.103	5132
897.224	4805
897.345	4755
897.466	4656
897.587	4729
897.708	4847
897.828	4752
897.949	4683
898.07	4508
898.19	4611
898.311	4828
898.431	4675
898.552	4740
898.672	4812
898.792	4820
898.913	4740
899.033	4641
899.153	4523
899.273	4447
899.393	4535
899.513	4535
899.633	4550
899.753	4527
899.873	4485
899.993	4569
900.113	4516
900.232	4611
900.352	4519
900.472	4478
900.591	4379
900.711	4531
900.83	4466
900.95	4656
901.069	4679
901.189	4550
901.308	4318
901.427	4341
901.546	4375
901.665	4451
901.784	4519
901.904	4379
902.023	4333
902.141	4257
902.26	4188
902.379	4352
902.498	4246
902.617	4207
902.735	4409
902.854	4409
902.973	4379
903.091	4227
903.21	4200
903.328	4291
903.446	4238
903.565	4272
903.683	4348
903.801	4322
903.919	4402
904.038	4462
904.156	4329
904.274	4470
904.392	4478
904.51	4462
904.627	4489
904.745	4580
904.863	4641
904.981	4417
905.098	4306
905.216	4386
905.334	4440
905.451	4478
905.569	4470
905.686	4584
905.803	4565
905.921	4459
906.038	4569
906.155	4493
906.272	4447
906.389	4504
906.506	4383
906.623	4398
906.74	4459
906.857	4322
906.974	4390
907.091	4637
907.208	4672
907.324	4664
907.441	4535
907.557	4386
907.674	4367
907.79	4363
907.907	4424
908.023	4531
908.139	4535
908.256	4474
908.372	4516
908.488	4485
908.604	4390
908.72	4363
908.836	4436
908.952	4402
909.068	4432
909.184	4588
909.3	4519
909.415	4615
909.531	4596
909.647	4409
909.762	4367
909.878	4367
909.993	4432
910.108	4451
910.224	4466
910.339	4485
910.454	4481
910.57	4398
910.685	4356
910.8	4714
910.915	4653
911.03	4508
911.145	4383
911.259	4367
911.374	4440
911.489	4310
911.604	4322
911.718	4211
911.833	4238
911.947	4093
912.062	4090
912.176	4234
912.291	4291
912.405	4249
912.519	4527
912.633	4584
912.748	4417
912.862	4344
912.976	4253
913.09	4196
913.204	4249
913.318	4325
913.431	4409
913.545	4432
913.659	4462
913.772	4367
913.886	4268
914	4219
914.113	4405
914.226	4497
914.34	4428
914.453	4249
914.566	4436
914.68	4383
914.793	4375
914.906	4147
915.019	4162
915.132	4086
915.245	4227
915.358	4261
915.47	4257
915.583	4318
915.696	4295
915.809	4478
915.921	4459
916.034	4272
916.146	4272
916.259	4261
916.371	4371
916.483	4424
916.595	4303
916.708	4352
916.82	4352
916.932	4386
917.044	4295
917.156	4390
917.268	4261
917.38	4318
917.491	4268
917.603	4333
917.715	4440
917.826	4466
917.938	4348
918.049	4238
918.161	4455
918.272	4573
918.384	4599
918.495	4455
918.606	4348
918.717	4295
918.828	4344
918.939	4394
919.05	4299
919.161	4325
919.272	4173
919.383	4265
919.494	4478
919.604	4653
919.715	4413
919.826	4409
919.936	4443
920.047	4577
920.157	4500
920.267	4721
920.378	4558
920.488	4523
920.598	4740
920.708	4953
920.818	4801
920.928	4816
921.038	4957
921.148	4972
921.258	4668
921.368	4592
921.477	4531
921.587	4478
921.697	4409
921.806	4592
921.916	4478
922.025	4291
922.134	4284
922.244	4268
922.353	4383
922.462	4177
922.571	4207
922.68	4063
922.789	3975
922.898	4078
923.007	4010
923.116	4154
923.224	4131
923.333	4090
923.442	4021
923.55	4040
923.659	4025
923.767	4131
923.876	4082
923.984	4207
924.092	3994
924.201	4093
924.309	4135
924.417	4147
924.525	4090
924.633	4109
924.741	5067
924.849	3918
924.956	4154
925.064	3964
925.172	3903
925.279	3941
925.387	4093
925.494	4090
925.602	4234
925.709	4188
925.816	4074
925.924	4196
926.031	4261
926.138	4173
926.245	4242
926.352	4154
926.459	4265
926.566	4291
926.673	4192
926.779	4135
926.886	4150
926.993	4002
927.099	3972
927.206	3968
927.312	3975
927.419	4051
927.525	4002
927.631	4101
927.737	4029
927.843	3968
927.95	3892
928.056	3983
928.162	3998
928.267	4078
928.373	4694
928.479	4128
928.585	3941
928.69	4036
928.796	4124
928.901	3998
929.007	3854
929.112	4025
929.218	4010
929.323	3983
929.428	3994
929.533	4086
929.638	3934
929.743	3979
929.848	4078
929.953	4021
930.058	3934
930.163	3797
930.267	3816
930.372	3979
930.477	3854
930.581	4086
930.685	4021
930.79	3835
930.894	3911
930.998	3892
931.103	4059
931.207	3732
931.311	3652
931.415	3701
931.519	3557
931.623	3561
