Data from test_V78500241_919.txt Node
Date: Fri Mar 25 16:55:23 CST 2022
User: usil
Spectrometer: V785-0024
Trigger mode: 0
Integration Time (sec): 4.000000E-1
Scans to average: 1
Nonlinearity correction enabled: false
Boxcar width: 0
Storing dark spectrum: false
XAxis mode: Wavelengths
Number of Pixels in Spectrum: 1024
>>>>>Begin Spectral Data<<<<<
801.071	8050
801.214	8020
801.356	7887
801.499	7921
801.641	7746
801.783	7803
801.926	7967
802.068	7967
802.211	7959
802.353	7963
802.496	7875
802.638	7856
802.78	7860
802.923	7913
803.065	7936
803.208	7864
803.35	8020
803.492	8134
803.635	8221
803.777	7989
803.919	8111
804.061	8374
804.204	8126
804.346	8054
804.488	7955
804.63	8107
804.773	8020
804.915	8084
805.057	8191
805.199	8187
805.341	8161
805.483	8191
805.626	8187
805.768	8180
805.91	8145
806.052	8134
806.194	8096
806.336	8267
806.478	8142
806.62	8008
806.762	8069
806.904	8301
807.046	8450
807.188	8339
807.33	8275
807.472	8275
807.614	8115
807.756	8107
807.898	7955
808.04	7879
808.182	7887
808.324	7845
808.465	7856
808.607	7986
808.749	8031
808.891	8214
809.033	8317
809.174	8206
809.316	8103
809.458	7967
809.6	8005
809.741	8020
809.883	8039
810.025	8103
810.166	8092
810.308	8005
810.45	8024
810.591	7970
810.733	7719
810.875	7624
811.016	7476
811.158	7514
811.299	7506
811.441	7670
811.582	7674
811.724	7559
811.865	7502
812.007	7540
812.148	7609
812.29	7616
812.431	7757
812.573	7803
812.714	7883
812.855	8119
812.997	8187
813.138	8275
813.279	8180
813.421	8161
813.562	8020
813.703	7890
813.845	7738
813.986	7457
814.127	7354
814.268	7278
814.41	7198
814.551	7091
814.692	7160
814.833	7057
814.974	7095
815.115	7088
815.256	6947
815.397	6932
815.539	6977
815.68	6787
815.821	6772
815.962	6848
816.103	6772
816.244	6681
816.385	6681
816.526	6612
816.666	6502
816.807	6285
816.948	6395
817.089	6441
817.23	6471
817.371	6407
817.512	6334
817.653	6422
817.793	6296
817.934	6422
818.075	6471
818.216	6433
818.356	6353
818.497	6197
818.638	6125
818.778	6155
818.919	6129
819.06	6159
819.2	6357
819.341	6251
819.481	6361
819.622	6475
819.762	6681
819.903	6707
820.043	6601
820.184	6612
820.324	6601
820.465	6658
820.605	6665
820.746	6669
820.886	6486
821.026	6650
821.167	6692
821.307	6734
821.447	6757
821.588	6677
821.728	6578
821.868	6460
822.008	6323
822.149	6350
822.289	6323
822.429	6148
822.569	6011
822.709	6102
822.849	5904
822.99	5939
823.13	5939
823.27	5920
823.41	5813
823.55	5840
823.69	5760
823.83	5760
823.97	5676
824.11	5566
824.25	5505
824.389	5573
824.529	5535
824.669	5478
824.809	5611
824.949	5630
825.089	5623
825.228	5554
825.368	5410
825.508	5322
825.648	5376
825.787	5357
825.927	5372
826.067	5261
826.206	5284
826.346	5353
826.485	5402
826.625	5376
826.765	5516
826.904	5501
827.044	5258
827.183	5189
827.323	5109
827.462	5212
827.601	5197
827.741	5189
827.88	5162
828.02	5083
828.159	5193
828.298	5280
828.437	5345
828.577	5250
828.716	5474
828.855	5265
828.994	5166
829.134	5143
829.273	5166
829.412	5064
829.551	5064
829.69	5155
829.829	5201
829.968	5345
830.107	5277
830.246	5284
830.385	5128
830.524	5094
830.663	5045
830.802	4911
830.941	4885
831.08	4843
831.219	4976
831.357	4965
831.496	5098
831.635	4911
831.774	4820
831.913	4805
832.051	4687
832.19	4714
832.329	4767
832.467	4717
832.606	4618
832.744	4660
832.883	4691
833.022	4733
833.16	4767
833.299	4831
833.437	4858
833.576	4809
833.714	4835
833.852	4862
833.991	4862
834.129	4927
834.267	4919
834.406	4862
834.544	4957
834.682	5003
834.821	4919
834.959	5140
835.097	4980
835.235	5159
835.373	5071
835.511	5109
835.65	4995
835.788	4987
835.926	4889
836.064	4850
836.202	4858
836.34	5117
836.478	5223
836.615	5079
836.753	5208
836.891	5235
837.029	5239
837.167	5185
837.305	5136
837.443	5140
837.58	5048
837.718	5197
837.856	5170
837.993	5132
838.131	5212
838.269	5143
838.406	5159
838.544	5117
838.681	5033
838.819	4957
838.956	4877
839.094	4896
839.231	4911
839.369	5079
839.506	5368
839.643	5254
839.781	4987
839.918	4984
840.055	5018
840.193	5083
840.33	5083
840.467	5090
840.604	5174
840.742	5406
840.879	5071
841.016	5079
841.153	5136
841.29	5345
841.427	5318
841.564	5280
841.701	5296
841.838	5242
841.975	5223
842.112	5277
842.249	5147
842.385	5113
842.522	5307
842.659	5212
842.796	5197
842.933	5174
843.069	5128
843.206	5113
843.343	5322
843.479	5227
843.616	5246
843.752	5033
843.889	5006
844.025	5178
844.162	5056
844.298	5197
844.435	5075
844.571	5037
844.708	5204
844.844	5334
844.98	5364
845.117	5216
845.253	5162
845.389	5098
845.525	5159
845.661	5136
845.798	4987
845.934	5109
846.07	5048
846.206	5189
846.342	5299
846.478	5159
846.614	4968
846.75	4976
846.886	4927
847.022	5121
847.158	4984
847.294	5041
847.429	5124
847.565	5037
847.701	5334
847.837	4828
847.972	4774
848.108	5006
848.244	4919
848.379	4771
848.515	4702
848.65	4694
848.786	4664
848.921	4721
849.057	4862
849.192	4877
849.328	4793
849.463	4843
849.598	4790
849.734	4729
849.869	4645
850.004	4596
850.14	4694
850.275	4577
850.41	4508
850.545	4558
850.68	4580
850.815	4596
850.95	4653
851.085	4812
851.22	4653
851.355	4645
851.49	4618
851.625	4668
851.76	4637
851.895	4546
852.03	4497
852.165	4653
852.299	4725
852.434	4782
852.569	4706
852.703	4744
852.838	4790
852.973	4919
853.107	4881
853.242	4729
853.376	4675
853.511	4592
853.645	4558
853.78	4793
853.914	4672
854.048	4618
854.183	4615
854.317	4675
854.451	4828
854.585	4649
854.72	4626
854.854	4759
854.988	4592
855.122	4641
855.256	4546
855.39	4637
855.524	4740
855.658	4710
855.792	4729
855.926	4733
856.06	4744
856.194	4778
856.327	4679
856.461	4618
856.595	4607
856.729	4596
856.862	4740
856.996	4698
857.13	4740
857.263	4748
857.397	4782
857.53	4607
857.664	4687
857.797	4721
857.931	4729
858.064	4645
858.197	4710
858.331	4626
858.464	4592
858.597	4527
858.731	4607
858.864	4611
858.997	4603
859.13	4691
859.263	4675
859.396	4721
859.529	4550
859.662	4527
859.795	4561
859.928	4615
860.061	4759
860.194	4763
860.327	4580
860.46	4523
860.592	4672
860.725	4733
860.858	4698
860.99	4497
861.123	4493
861.256	4493
861.388	4645
861.521	5151
861.653	4451
861.786	4447
861.918	4432
862.05	4561
862.183	4504
862.315	4603
862.447	4656
862.58	4554
862.712	4398
862.844	4341
862.976	4455
863.108	4462
863.24	4767
863.372	4341
863.504	4390
863.636	4352
863.768	4504
863.9	4493
864.032	4287
864.164	4333
864.296	4481
864.428	4535
864.559	4538
864.691	4542
864.823	4516
864.954	4516
865.086	4481
865.217	4474
865.349	4386
865.48	4447
865.612	4478
865.743	4675
865.875	4478
866.006	4405
866.137	4443
866.269	4443
866.4	4409
866.531	4386
866.662	4367
866.793	4421
866.924	4424
867.055	4516
867.186	4512
867.317	4383
867.448	4352
867.579	4383
867.71	4398
867.841	4341
867.972	4478
868.103	4409
868.233	4440
868.364	4440
868.495	4497
868.625	4668
868.756	4771
868.886	4580
869.017	4626
869.147	4740
869.278	4748
869.408	4641
869.539	4615
869.669	4744
869.799	4656
869.929	4717
870.06	4653
870.19	4991
870.32	4938
870.45	4885
870.58	4968
870.71	5083
870.84	5056
870.97	4885
871.1	4896
871.23	5105
871.36	5079
871.489	5003
871.619	5022
871.749	5083
871.879	5121
872.008	5124
872.138	5048
872.267	4999
872.397	4873
872.526	4774
872.656	4733
872.785	4790
872.915	4984
873.044	5018
873.173	4930
873.303	4987
873.432	4957
873.561	4980
873.69	4870
873.819	4820
873.948	4938
874.077	4786
874.206	4824
874.335	4790
874.464	4938
874.593	5029
874.722	4946
874.851	5105
874.979	5079
875.108	5090
875.237	4900
875.365	4896
875.494	4885
875.623	5006
875.751	4801
875.88	4866
876.008	4930
876.136	5022
876.265	5162
876.393	5280
876.521	5227
876.65	5220
876.778	5117
876.906	5109
877.034	4995
877.162	5090
877.29	4984
877.418	5014
877.546	5029
877.674	5041
877.802	5022
877.93	4980
878.058	4949
878.185	4862
878.313	4938
878.441	4938
878.568	4790
878.696	4824
878.824	4976
878.951	5003
879.079	5151
879.206	5284
879.333	5098
879.461	4995
879.588	4976
879.715	5094
879.842	5166
879.97	4980
880.097	4752
880.224	4725
880.351	4850
880.478	4831
880.605	4767
880.732	4805
880.859	5045
880.986	4892
881.112	4862
881.239	4744
881.366	4649
881.493	4615
881.619	4599
881.746	4641
881.872	4660
881.999	4634
882.125	4626
882.252	4805
882.378	4759
882.505	4965
882.631	4809
882.757	4675
882.883	4752
883.01	4740
883.136	4668
883.262	4554
883.388	4577
883.514	4774
883.64	4858
883.766	4782
883.892	4637
884.018	4725
884.143	4911
884.269	4995
884.395	4634
884.52	4596
884.646	4641
884.772	4611
884.897	4588
885.023	4622
885.148	4793
885.274	4881
885.399	4790
885.524	4702
885.65	4687
885.775	4706
885.9	4710
886.025	4858
886.15	4736
886.275	4717
886.4	4641
886.525	4714
886.65	4653
886.775	4687
886.9	4915
887.025	5071
887.149	4786
887.274	4584
887.399	4603
887.523	4588
887.648	4535
887.773	4580
887.897	4706
888.021	4740
888.146	4660
888.27	4824
888.395	4900
888.519	4771
888.643	4828
888.767	4801
888.891	4683
889.015	4634
889.139	4630
889.263	4550
889.387	4721
889.511	4862
889.635	4771
889.759	4653
889.883	4630
890.006	4725
890.13	4828
890.254	4637
890.377	4637
890.501	4542
890.624	4500
890.748	4649
890.871	4462
890.995	4466
891.118	4394
891.241	4531
891.364	4527
891.488	4573
891.611	4519
891.734	4489
891.857	4626
891.98	4561
892.103	4618
892.226	4577
892.349	4504
892.471	4443
892.594	4546
892.717	4592
892.839	4577
892.962	4611
893.085	4634
893.207	4592
893.33	4447
893.452	4481
893.575	4634
893.697	4558
893.819	4782
893.941	4786
894.064	4774
894.186	4489
894.308	4554
894.43	4736
894.552	4797
894.674	4725
894.796	4573
894.918	4565
895.04	4512
895.161	4675
895.283	4656
895.405	4577
895.526	4596
895.648	4691
895.769	4702
895.891	4687
896.012	4759
896.134	4710
896.255	4660
896.376	4664
896.498	4637
896.619	4664
896.74	4626
896.861	4626
896.982	4892
897.103	5029
897.224	4793
897.345	4774
897.466	4653
897.587	4717
897.708	4797
897.828	4797
897.949	4630
898.07	4561
898.19	4573
898.311	4778
898.431	4637
898.552	4733
898.672	4786
898.792	4782
898.913	4748
899.033	4607
899.153	4519
899.273	4417
899.393	4519
899.513	4523
899.633	4546
899.753	4519
899.873	4497
899.993	4607
900.113	4542
900.232	4569
900.352	4538
900.472	4542
900.591	4344
900.711	4455
900.83	4432
900.95	4588
901.069	4668
901.189	4531
901.308	4344
901.427	4306
901.546	4352
901.665	4462
901.784	4466
901.904	4371
902.023	4299
902.141	4215
902.26	4158
902.379	4291
902.498	4166
902.617	4234
902.735	4306
902.854	4405
902.973	4306
903.091	4215
903.21	4211
903.328	4265
903.446	4246
903.565	4265
903.683	4295
903.801	4257
903.919	4390
904.038	4417
904.156	4280
904.274	4466
904.392	4371
904.51	4424
904.627	4447
904.745	4580
904.863	4607
904.981	4447
905.098	4287
905.216	4333
905.334	4417
905.451	4413
905.569	4424
905.686	4569
905.803	4462
905.921	4394
906.038	4550
906.155	4470
906.272	4379
906.389	4455
906.506	4383
906.623	4371
906.74	4379
906.857	4314
906.974	4402
907.091	4599
907.208	4641
907.324	4588
907.441	4466
907.557	4318
907.674	4325
907.79	4287
907.907	4390
908.023	4546
908.139	4459
908.256	4421
908.372	4516
908.488	4424
908.604	4371
908.72	4333
908.836	4318
908.952	4383
909.068	4360
909.184	4558
909.3	4504
909.415	4618
909.531	4493
909.647	4375
909.762	4394
909.878	4329
909.993	4432
910.108	4409
910.224	4421
910.339	4462
910.454	4333
910.57	4310
910.685	4261
910.8	4660
910.915	4569
911.03	4497
911.145	4299
911.259	4325
911.374	4314
911.489	4310
911.604	4303
911.718	4154
911.833	4204
911.947	4109
912.062	4025
912.176	4192
912.291	4227
912.405	4276
912.519	4405
912.633	4516
912.748	4356
912.862	4261
912.976	4207
913.09	4139
913.204	4147
913.318	4234
913.431	4386
913.545	4337
913.659	4440
913.772	4356
913.886	4200
914	4211
914.113	4386
914.226	4413
914.34	4386
914.453	4192
914.566	4405
914.68	4329
914.793	4318
914.906	4128
915.019	4093
915.132	4036
915.245	4150
915.358	4188
915.47	4207
915.583	4253
915.696	4303
915.809	4375
915.921	4383
916.034	4249
916.146	4234
916.259	4158
916.371	4352
916.483	4325
916.595	4276
916.708	4306
916.82	4310
916.932	4333
917.044	4287
917.156	4352
917.268	4219
917.38	4268
917.491	4284
917.603	4348
917.715	4447
917.826	4443
917.938	4371
918.049	4188
918.161	4421
918.272	4519
918.384	4569
918.495	4451
918.606	4333
918.717	4253
918.828	4295
918.939	4348
919.05	4268
919.161	4329
919.272	4120
919.383	4177
919.494	4466
919.604	4611
919.715	4424
919.826	4337
919.936	4443
920.047	4519
920.157	4462
920.267	4653
920.378	4531
920.488	4512
920.598	4717
920.708	4873
920.818	4679
920.928	4835
921.038	4915
921.148	4881
921.258	4611
921.368	4497
921.477	4447
921.587	4481
921.697	4375
921.806	4527
921.916	4443
922.025	4227
922.134	4211
922.244	4230
922.353	4356
922.462	4192
922.571	4074
922.68	4013
922.789	3972
922.898	4021
923.007	4010
923.116	4074
923.224	4101
923.333	4090
923.442	3991
923.55	3987
923.659	4055
923.767	4074
923.876	4055
923.984	4116
924.092	3926
924.201	4040
924.309	4093
924.417	4059
924.525	4044
924.633	4120
924.741	4896
924.849	3884
924.956	4112
925.064	3968
925.172	3922
925.279	3918
925.387	3998
925.494	4051
925.602	4188
925.709	4177
925.816	4021
925.924	4101
926.031	4223
926.138	4147
926.245	4223
926.352	4120
926.459	4234
926.566	4322
926.673	4109
926.779	4120
926.886	4063
926.993	3968
927.099	3934
927.206	3949
927.312	3937
927.419	4051
927.525	4006
927.631	4082
927.737	3941
927.843	4006
927.95	3819
928.056	3915
928.162	4025
928.267	4010
928.373	4561
928.479	4116
928.585	3892
928.69	4036
928.796	4063
928.901	3953
929.007	3816
929.112	4006
929.218	3994
929.323	3911
929.428	3945
929.533	4101
929.638	3842
929.743	3983
929.848	4021
929.953	3968
930.058	3930
930.163	3762
930.267	3819
930.372	3991
930.477	3835
930.581	4082
930.685	3968
930.79	3831
930.894	3884
930.998	3854
931.103	3991
931.207	3717
931.311	3675
931.415	3644
931.519	3530
931.623	3534
