Data from test_V78500241_642.txt Node
Date: Fri Mar 25 16:53:27 CST 2022
User: usil
Spectrometer: V785-0024
Trigger mode: 0
Integration Time (sec): 4.000000E-1
Scans to average: 1
Nonlinearity correction enabled: false
Boxcar width: 0
Storing dark spectrum: false
XAxis mode: Wavelengths
Number of Pixels in Spectrum: 1024
>>>>>Begin Spectral Data<<<<<
801.071	8005
801.214	8016
801.356	7928
801.499	7871
801.641	7803
801.783	7811
801.926	7982
802.068	7982
802.211	8027
802.353	7974
802.496	7898
802.638	7898
802.78	7917
802.923	7913
803.065	7776
803.208	7784
803.35	7978
803.492	8073
803.635	8145
803.777	8043
803.919	8157
804.061	8454
804.204	8130
804.346	8126
804.488	7936
804.63	8069
804.773	7974
804.915	8046
805.057	8282
805.199	8134
805.341	8195
805.483	8324
805.626	8259
805.768	8107
805.91	8218
806.052	8172
806.194	8084
806.336	8259
806.478	8081
806.62	8043
806.762	8130
806.904	8286
807.046	8533
807.188	8385
807.33	8320
807.472	8332
807.614	8172
807.756	8100
807.898	8005
808.04	7811
808.182	7871
808.324	7928
808.465	7902
808.607	8039
808.749	8115
808.891	8282
809.033	8229
809.174	8180
809.316	8073
809.458	8027
809.6	7936
809.741	7936
809.883	7982
810.025	8096
810.166	8081
810.308	7997
810.45	7993
810.591	7921
810.733	7757
810.875	7727
811.016	7506
811.158	7460
811.299	7613
811.441	7715
811.582	7708
811.724	7506
811.865	7544
812.007	7548
812.148	7597
812.29	7639
812.431	7761
812.573	7871
812.714	7936
812.855	8142
812.997	8180
813.138	8355
813.279	8149
813.421	8161
813.562	7993
813.703	7845
813.845	7818
813.986	7491
814.127	7297
814.268	7289
814.41	7228
814.551	7152
814.692	7175
814.833	7050
814.974	7057
815.115	7126
815.256	7000
815.397	6954
815.539	6916
815.68	6768
815.821	6772
815.962	6806
816.103	6844
816.244	6681
816.385	6559
816.526	6631
816.666	6498
816.807	6334
816.948	6452
817.089	6551
817.23	6483
817.371	6334
817.512	6380
817.653	6426
817.793	6388
817.934	6456
818.075	6528
818.216	6418
818.356	6376
818.497	6311
818.638	6117
818.778	6129
818.919	6129
819.06	6140
819.2	6308
819.341	6353
819.481	6350
819.622	6540
819.762	6711
819.903	6696
820.043	6525
820.184	6566
820.324	6544
820.465	6669
820.605	6654
820.746	6601
820.886	6536
821.026	6620
821.167	6650
821.307	6783
821.447	6715
821.588	6642
821.728	6559
821.868	6483
822.008	6304
822.149	6311
822.289	6277
822.429	6175
822.569	6049
822.709	6083
822.849	5885
822.99	5901
823.13	5897
823.27	5893
823.41	5771
823.55	5779
823.69	5745
823.83	5790
823.97	5634
824.11	5471
824.25	5490
824.389	5547
824.529	5577
824.669	5520
824.809	5589
824.949	5627
825.089	5581
825.228	5512
825.368	5368
825.508	5337
825.648	5357
825.787	5376
825.927	5364
826.067	5296
826.206	5292
826.346	5322
826.485	5357
826.625	5368
826.765	5551
826.904	5482
827.044	5280
827.183	5185
827.323	5124
827.462	5208
827.601	5181
827.741	5128
827.88	5178
828.02	5166
828.159	5197
828.298	5269
828.437	5337
828.577	5292
828.716	5512
828.855	5326
828.994	5193
829.134	5117
829.273	5162
829.412	5098
829.551	5140
829.69	5143
829.829	5227
829.968	5364
830.107	5235
830.246	5261
830.385	5128
830.524	5064
830.663	4995
830.802	4999
830.941	4858
831.08	4850
831.219	4942
831.357	4965
831.496	5155
831.635	4881
831.774	4824
831.913	4847
832.051	4706
832.19	4736
832.329	4824
832.467	4702
832.606	4656
832.744	4736
832.883	4694
833.022	4691
833.16	4790
833.299	4786
833.437	4778
833.576	4820
833.714	4782
833.852	4812
833.991	4870
834.129	4976
834.267	4938
834.406	4889
834.544	4987
834.682	4965
834.821	4965
834.959	5170
835.097	4984
835.235	5094
835.373	5075
835.511	5117
835.65	5003
835.788	5029
835.926	4919
836.064	4858
836.202	4870
836.34	5166
836.478	5216
836.615	5075
836.753	5193
836.891	5277
837.029	5239
837.167	5246
837.305	5162
837.443	5121
837.58	5098
837.718	5273
837.856	5113
837.993	5155
838.131	5254
838.269	5189
838.406	5208
838.544	5174
838.681	5025
838.819	5006
838.956	4892
839.094	4919
839.231	4915
839.369	5048
839.506	5429
839.643	5326
839.781	5045
839.918	5006
840.055	5159
840.193	5064
840.33	5079
840.467	5159
840.604	5174
840.742	5463
840.879	5086
841.016	5029
841.153	5128
841.29	5341
841.427	5345
841.564	5284
841.701	5345
841.838	5242
841.975	5201
842.112	5326
842.249	5086
842.385	5113
842.522	5311
842.659	5166
842.796	5121
842.933	5155
843.069	5124
843.206	5216
843.343	5326
843.479	5235
843.616	5326
843.752	5064
843.889	4984
844.025	5231
844.162	4984
844.298	5128
844.435	5037
844.571	5098
844.708	5208
844.844	5288
844.98	5326
845.117	5258
845.253	5128
845.389	5045
845.525	5128
845.661	5117
845.798	5052
845.934	5147
846.07	5083
846.206	5159
846.342	5284
846.478	5212
846.614	5018
846.75	4919
846.886	4942
847.022	5185
847.158	5041
847.294	5090
847.429	5067
847.565	5045
847.701	5326
847.837	4824
847.972	4790
848.108	4957
848.244	4873
848.379	4763
848.515	4698
848.65	4736
848.786	4755
848.921	4797
849.057	4820
849.192	4908
849.328	4854
849.463	4820
849.598	4774
849.734	4755
849.869	4702
850.004	4611
850.14	4698
850.275	4615
850.41	4558
850.545	4542
850.68	4584
850.815	4592
850.95	4641
851.085	4839
851.22	4721
851.355	4668
851.49	4615
851.625	4637
851.76	4717
851.895	4580
852.03	4542
852.165	4611
852.299	4660
852.434	4752
852.569	4729
852.703	4733
852.838	4820
852.973	4923
853.107	4942
853.242	4801
853.376	4645
853.511	4607
853.645	4668
853.78	4828
853.914	4656
854.048	4672
854.183	4634
854.317	4645
854.451	4774
854.585	4634
854.72	4603
854.854	4752
854.988	4611
855.122	4653
855.256	4535
855.39	4622
855.524	4782
855.658	4679
855.792	4664
855.926	4702
856.06	4740
856.194	4767
856.327	4672
856.461	4626
856.595	4622
856.729	4615
856.862	4740
856.996	4618
857.13	4729
857.263	4774
857.397	4843
857.53	4683
857.664	4744
857.797	4774
857.931	4809
858.064	4683
858.197	4736
858.331	4683
858.464	4596
858.597	4550
858.731	4634
858.864	4634
858.997	4584
859.13	4607
859.263	4717
859.396	4649
859.529	4584
859.662	4550
859.795	4538
859.928	4637
860.061	4710
860.194	4759
860.327	4607
860.46	4538
860.592	4706
860.725	4702
860.858	4721
860.99	4546
861.123	4519
861.256	4474
861.388	4626
861.521	5318
861.653	4489
861.786	4436
861.918	4451
862.05	4516
862.183	4546
862.315	4668
862.447	4618
862.58	4538
862.712	4371
862.844	4314
862.976	4428
863.108	4413
863.24	4873
863.372	4344
863.504	4402
863.636	4402
863.768	4508
863.9	4421
864.032	4348
864.164	4424
864.296	4428
864.428	4573
864.559	4554
864.691	4588
864.823	4527
864.954	4481
865.086	4512
865.217	4440
865.349	4371
865.48	4440
865.612	4481
865.743	4637
865.875	4466
866.006	4394
866.137	4432
866.269	4413
866.4	4417
866.531	4379
866.662	4440
866.793	4432
866.924	4443
867.055	4478
867.186	4462
867.317	4424
867.448	4390
867.579	4421
867.71	4360
867.841	4394
867.972	4447
868.103	4447
868.233	4440
868.364	4508
868.495	4470
868.625	4618
868.756	4733
868.886	4546
869.017	4630
869.147	4733
869.278	4759
869.408	4653
869.539	4607
869.669	4744
869.799	4626
869.929	4748
870.06	4710
870.19	4934
870.32	4847
870.45	4946
870.58	5060
870.71	5121
870.84	5098
870.97	4904
871.1	4911
871.23	5155
871.36	5071
871.489	5014
871.619	5041
871.749	5064
871.879	5098
872.008	5166
872.138	5086
872.267	4938
872.397	4778
872.526	4828
872.656	4733
872.785	4816
872.915	4927
873.044	4961
873.173	4919
873.303	4965
873.432	4984
873.561	4976
873.69	4885
873.819	4847
873.948	4919
874.077	4786
874.206	4740
874.335	4774
874.464	4972
874.593	5060
874.722	4953
874.851	5094
874.979	5064
875.108	5022
875.237	4927
875.365	4862
875.494	4873
875.623	4961
875.751	4843
875.88	4850
876.008	4972
876.136	5041
876.265	5284
876.393	5349
876.521	5212
876.65	5197
876.778	5143
876.906	4984
877.034	5006
877.162	5067
877.29	4972
877.418	5067
877.546	5052
877.674	5037
877.802	5083
877.93	5029
878.058	4957
878.185	4862
878.313	4946
878.441	4946
878.568	4820
878.696	4889
878.824	4961
878.951	4995
879.079	5121
879.206	5258
879.333	5151
879.461	4961
879.588	4976
879.715	5105
879.842	5204
879.97	5022
880.097	4797
880.224	4698
880.351	4793
880.478	4809
880.605	4790
880.732	4736
880.859	5098
880.986	4915
881.112	4908
881.239	4767
881.366	4637
881.493	4607
881.619	4603
881.746	4641
881.872	4660
881.999	4622
882.125	4687
882.252	4797
882.378	4839
882.505	4987
882.631	4790
882.757	4675
882.883	4725
883.01	4725
883.136	4645
883.262	4630
883.388	4656
883.514	4824
883.64	4854
883.766	4831
883.892	4698
884.018	4679
884.143	4854
884.269	5006
884.395	4634
884.52	4615
884.646	4645
884.772	4637
884.897	4516
885.023	4634
885.148	4797
885.274	4831
885.399	4805
885.524	4763
885.65	4675
885.775	4752
885.9	4668
886.025	4850
886.15	4812
886.275	4725
886.4	4683
886.525	4717
886.65	4717
886.775	4664
886.9	4881
887.025	5022
887.149	4767
887.274	4668
887.399	4588
887.523	4603
887.648	4588
887.773	4599
887.897	4725
888.021	4755
888.146	4675
888.27	4786
888.395	4938
888.519	4824
888.643	4816
888.767	4820
888.891	4691
889.015	4573
889.139	4653
889.263	4565
889.387	4767
889.511	4908
889.635	4805
889.759	4622
889.883	4622
890.006	4691
890.13	4797
890.254	4645
890.377	4679
890.501	4527
890.624	4531
890.748	4618
890.871	4523
890.995	4451
891.118	4344
891.241	4516
891.364	4558
891.488	4653
891.611	4497
891.734	4580
891.857	4626
891.98	4500
892.103	4611
892.226	4580
892.349	4516
892.471	4402
892.594	4550
892.717	4580
892.839	4546
892.962	4596
893.085	4672
893.207	4592
893.33	4474
893.452	4531
893.575	4672
893.697	4577
893.819	4778
893.941	4801
894.064	4744
894.186	4554
894.308	4561
894.43	4759
894.552	4816
894.674	4706
894.796	4588
894.918	4615
895.04	4596
895.161	4706
895.283	4702
895.405	4577
895.526	4599
895.648	4664
895.769	4733
895.891	4698
896.012	4744
896.134	4774
896.255	4630
896.376	4618
896.498	4615
896.619	4675
896.74	4580
896.861	4626
896.982	4934
897.103	5064
897.224	4839
897.345	4778
897.466	4672
897.587	4710
897.708	4839
897.828	4793
897.949	4645
898.07	4538
898.19	4634
898.311	4797
898.431	4683
898.552	4748
898.672	4820
898.792	4774
898.913	4733
899.033	4634
899.153	4504
899.273	4447
899.393	4508
899.513	4523
899.633	4558
899.753	4519
899.873	4542
899.993	4577
900.113	4504
900.232	4584
900.352	4550
900.472	4497
900.591	4451
900.711	4497
900.83	4405
900.95	4660
901.069	4672
901.189	4546
901.308	4287
901.427	4344
901.546	4383
901.665	4443
901.784	4504
901.904	4421
902.023	4287
902.141	4200
902.26	4166
902.379	4303
902.498	4223
902.617	4253
902.735	4402
902.854	4386
902.973	4352
903.091	4177
903.21	4253
903.328	4291
903.446	4299
903.565	4246
903.683	4379
903.801	4291
903.919	4375
904.038	4424
904.156	4287
904.274	4394
904.392	4329
904.51	4398
904.627	4455
904.745	4558
904.863	4634
904.981	4417
905.098	4291
905.216	4386
905.334	4428
905.451	4424
905.569	4462
905.686	4523
905.803	4596
905.921	4383
906.038	4531
906.155	4504
906.272	4424
906.389	4398
906.506	4356
906.623	4413
906.74	4383
906.857	4356
906.974	4383
907.091	4577
907.208	4664
907.324	4592
907.441	4493
907.557	4348
907.674	4360
907.79	4314
907.907	4402
908.023	4447
908.139	4481
908.256	4421
908.372	4489
908.488	4405
908.604	4325
908.72	4268
908.836	4363
908.952	4367
909.068	4371
909.184	4573
909.3	4485
909.415	4573
909.531	4550
909.647	4375
909.762	4367
909.878	4325
909.993	4451
910.108	4363
910.224	4428
910.339	4489
910.454	4390
910.57	4375
910.685	4265
910.8	4653
910.915	4622
911.03	4470
911.145	4318
911.259	4352
911.374	4371
911.489	4322
911.604	4287
911.718	4105
911.833	4196
911.947	4097
912.062	4059
912.176	4204
912.291	4268
912.405	4268
912.519	4504
912.633	4497
912.748	4325
912.862	4322
912.976	4154
913.09	4071
913.204	4131
913.318	4211
913.431	4360
913.545	4379
913.659	4405
913.772	4390
913.886	4207
914	4211
914.113	4348
914.226	4390
914.34	4379
914.453	4246
914.566	4436
914.68	4284
914.793	4390
914.906	4181
915.019	4124
915.132	4059
915.245	4166
915.358	4219
915.47	4249
915.583	4291
915.696	4314
915.809	4337
915.921	4371
916.034	4287
916.146	4280
916.259	4173
916.371	4394
916.483	4390
916.595	4242
916.708	4325
916.82	4280
916.932	4322
917.044	4299
917.156	4306
917.268	4238
917.38	4333
917.491	4257
917.603	4341
917.715	4424
917.826	4417
917.938	4344
918.049	4234
918.161	4348
918.272	4554
918.384	4573
918.495	4455
918.606	4287
918.717	4242
918.828	4322
918.939	4341
919.05	4242
919.161	4348
919.272	4135
919.383	4177
919.494	4421
919.604	4637
919.715	4436
919.826	4375
919.936	4386
920.047	4542
920.157	4470
920.267	4710
920.378	4523
920.488	4500
920.598	4740
920.708	4824
920.818	4744
920.928	4778
921.038	4930
921.148	4892
921.258	4611
921.368	4565
921.477	4474
921.587	4451
921.697	4390
921.806	4538
921.916	4421
922.025	4272
922.134	4310
922.244	4204
922.353	4329
922.462	4169
922.571	4139
922.68	3972
922.789	3975
922.898	4040
923.007	3979
923.116	4055
923.224	4051
923.333	4051
923.442	3998
923.55	3960
923.659	4055
923.767	4112
923.876	4017
923.984	4173
924.092	3994
924.201	4021
924.309	4086
924.417	4116
924.525	4055
924.633	4074
924.741	5018
924.849	3892
924.956	4150
925.064	3979
925.172	3869
925.279	3979
925.387	4051
925.494	4059
925.602	4242
925.709	4211
925.816	4055
925.924	4116
926.031	4230
926.138	4162
926.245	4246
926.352	4055
926.459	4276
926.566	4306
926.673	4143
926.779	4105
926.886	4071
926.993	3979
927.099	3975
927.206	3911
927.312	3930
927.419	4048
927.525	4013
927.631	4071
927.737	4013
927.843	3937
927.95	3831
928.056	3953
928.162	3975
928.267	4063
928.373	4649
928.479	4112
928.585	3846
928.69	4021
928.796	4071
928.901	3907
929.007	3854
929.112	3979
929.218	3941
929.323	3937
929.428	3934
929.533	4093
929.638	3880
929.743	3987
929.848	4006
929.953	3956
930.058	3956
930.163	3785
930.267	3816
930.372	3964
930.477	3778
930.581	4082
930.685	3915
930.79	3827
930.894	3896
930.998	3873
931.103	4074
931.207	3732
931.311	3698
931.415	3682
931.519	3507
931.623	3599
