Data from test_V78500241_437.txt Node
Date: Fri Mar 25 16:52:02 CST 2022
User: usil
Spectrometer: V785-0024
Trigger mode: 0
Integration Time (sec): 4.000000E-1
Scans to average: 1
Nonlinearity correction enabled: false
Boxcar width: 0
Storing dark spectrum: false
XAxis mode: Wavelengths
Number of Pixels in Spectrum: 1024
>>>>>Begin Spectral Data<<<<<
801.071	8039
801.214	8016
801.356	7921
801.499	7925
801.641	7799
801.783	7883
801.926	8039
802.068	8008
802.211	8016
802.353	8005
802.496	7925
802.638	7940
802.78	7894
802.923	7936
803.065	7928
803.208	7921
803.35	7932
803.492	8058
803.635	8164
803.777	8020
803.919	8176
804.061	8427
804.204	8195
804.346	8081
804.488	8031
804.63	8054
804.773	8054
804.915	8123
805.057	8328
805.199	8172
805.341	8229
805.483	8233
805.626	8199
805.768	8039
805.91	8142
806.052	8183
806.194	8100
806.336	8313
806.478	8176
806.62	8149
806.762	8134
806.904	8301
807.046	8480
807.188	8332
807.33	8244
807.472	8309
807.614	8180
807.756	8176
807.898	8069
808.04	7936
808.182	7959
808.324	7951
808.465	7982
808.607	8084
808.749	8164
808.891	8279
809.033	8282
809.174	8195
809.316	8058
809.458	8103
809.6	8008
809.741	8054
809.883	8145
810.025	8123
810.166	8077
810.308	7986
810.45	8073
810.591	7917
810.733	7753
810.875	7674
811.016	7537
811.158	7559
811.299	7601
811.441	7833
811.582	7719
811.724	7597
811.865	7624
812.007	7655
812.148	7632
812.29	7696
812.431	7845
812.573	7921
812.714	8016
812.855	8233
812.997	8263
813.138	8393
813.279	8271
813.421	8195
813.562	8050
813.703	7967
813.845	7883
813.986	7529
814.127	7396
814.268	7335
814.41	7247
814.551	7213
814.692	7232
814.833	7061
814.974	7145
815.115	7179
815.256	6962
815.397	6966
815.539	7031
815.68	6837
815.821	6852
815.962	6970
816.103	6901
816.244	6795
816.385	6642
816.526	6612
816.666	6528
816.807	6311
816.948	6418
817.089	6483
817.23	6483
817.371	6403
817.512	6334
817.653	6391
817.793	6464
817.934	6437
818.075	6506
818.216	6509
818.356	6441
818.497	6235
818.638	6163
818.778	6129
818.919	6163
819.06	6175
819.2	6315
819.341	6338
819.481	6365
819.622	6513
819.762	6810
819.903	6760
820.043	6635
820.184	6559
820.324	6608
820.465	6669
820.605	6711
820.746	6654
820.886	6517
821.026	6715
821.167	6791
821.307	6791
821.447	6791
821.588	6726
821.728	6608
821.868	6517
822.008	6365
822.149	6388
822.289	6323
822.429	6159
822.569	6114
822.709	6140
822.849	5965
822.99	5916
823.13	5961
823.27	5988
823.41	5821
823.55	5794
823.69	5790
823.83	5813
823.97	5760
824.11	5570
824.25	5562
824.389	5554
824.529	5630
824.669	5581
824.809	5638
824.949	5627
825.089	5638
825.228	5524
825.368	5402
825.508	5379
825.648	5376
825.787	5376
825.927	5383
826.067	5288
826.206	5330
826.346	5376
826.485	5414
826.625	5421
826.765	5558
826.904	5528
827.044	5265
827.183	5193
827.323	5166
827.462	5258
827.601	5197
827.741	5208
827.88	5258
828.02	5185
828.159	5265
828.298	5337
828.437	5368
828.577	5284
828.716	5524
828.855	5334
828.994	5197
829.134	5181
829.273	5174
829.412	5178
829.551	5140
829.69	5197
829.829	5261
829.968	5395
830.107	5269
830.246	5296
830.385	5212
830.524	5117
830.663	5064
830.802	5041
830.941	4927
831.08	4885
831.219	5010
831.357	5025
831.496	5174
831.635	4942
831.774	4850
831.913	4892
832.051	4812
832.19	4786
832.329	4866
832.467	4694
832.606	4626
832.744	4725
832.883	4736
833.022	4717
833.16	4816
833.299	4877
833.437	4850
833.576	4809
833.714	4908
833.852	4896
833.991	4930
834.129	4968
834.267	4972
834.406	4870
834.544	5006
834.682	4999
834.821	5014
834.959	5239
835.097	5022
835.235	5162
835.373	5086
835.511	5121
835.65	5022
835.788	5048
835.926	4923
836.064	4927
836.202	4949
836.34	5258
836.478	5235
836.615	5132
836.753	5201
836.891	5307
837.029	5288
837.167	5265
837.305	5193
837.443	5105
837.58	5109
837.718	5227
837.856	5178
837.993	5098
838.131	5261
838.269	5204
838.406	5261
838.544	5181
838.681	5094
838.819	4972
838.956	4911
839.094	4896
839.231	4972
839.369	5136
839.506	5395
839.643	5284
839.781	5067
839.918	5022
840.055	5056
840.193	5147
840.33	5140
840.467	5197
840.604	5254
840.742	5520
840.879	5109
841.016	5113
841.153	5189
841.29	5440
841.427	5360
841.564	5345
841.701	5387
841.838	5261
841.975	5223
842.112	5242
842.249	5162
842.385	5151
842.522	5326
842.659	5178
842.796	5136
842.933	5208
843.069	5166
843.206	5159
843.343	5318
843.479	5296
843.616	5265
843.752	5041
843.889	5067
844.025	5223
844.162	5071
844.298	5265
844.435	5071
844.571	5162
844.708	5235
844.844	5322
844.98	5341
845.117	5254
845.253	5140
845.389	5102
845.525	5208
845.661	5178
845.798	5037
845.934	5181
846.07	5083
846.206	5151
846.342	5299
846.478	5220
846.614	4995
846.75	4995
846.886	4949
847.022	5155
847.158	5075
847.294	5064
847.429	5155
847.565	5045
847.701	5273
847.837	4877
847.972	4801
848.108	4995
848.244	4919
848.379	4828
848.515	4729
848.65	4729
848.786	4748
848.921	4748
849.057	4904
849.192	4904
849.328	4828
849.463	4843
849.598	4847
849.734	4797
849.869	4733
850.004	4630
850.14	4721
850.275	4664
850.41	4554
850.545	4542
850.68	4626
850.815	4641
850.95	4653
851.085	4839
851.22	4736
851.355	4721
851.49	4615
851.625	4702
851.76	4653
851.895	4592
852.03	4554
852.165	4675
852.299	4763
852.434	4759
852.569	4752
852.703	4812
852.838	4885
852.973	4892
853.107	4911
853.242	4706
853.376	4691
853.511	4615
853.645	4618
853.78	4828
853.914	4668
854.048	4702
854.183	4656
854.317	4679
854.451	4809
854.585	4702
854.72	4660
854.854	4778
854.988	4668
855.122	4649
855.256	4569
855.39	4649
855.524	4828
855.658	4755
855.792	4736
855.926	4729
856.06	4839
856.194	4843
856.327	4736
856.461	4664
856.595	4622
856.729	4626
856.862	4736
856.996	4672
857.13	4740
857.263	4767
857.397	4790
857.53	4626
857.664	4733
857.797	4786
857.931	4816
858.064	4675
858.197	4763
858.331	4660
858.464	4577
858.597	4535
858.731	4672
858.864	4656
858.997	4641
859.13	4656
859.263	4736
859.396	4710
859.529	4584
859.662	4592
859.795	4523
859.928	4664
860.061	4763
860.194	4805
860.327	4626
860.46	4573
860.592	4725
860.725	4740
860.858	4752
860.99	4565
861.123	4580
861.256	4535
861.388	4630
861.521	5398
861.653	4459
861.786	4443
861.918	4481
862.05	4512
862.183	4565
862.315	4603
862.447	4641
862.58	4573
862.712	4409
862.844	4363
862.976	4451
863.108	4424
863.24	4755
863.372	4360
863.504	4459
863.636	4413
863.768	4523
863.9	4440
864.032	4375
864.164	4413
864.296	4523
864.428	4611
864.559	4634
864.691	4516
864.823	4512
864.954	4542
865.086	4519
865.217	4508
865.349	4421
865.48	4470
865.612	4497
865.743	4675
865.875	4523
866.006	4440
866.137	4443
866.269	4451
866.4	4447
866.531	4500
866.662	4432
866.793	4424
866.924	4451
867.055	4512
867.186	4432
867.317	4421
867.448	4436
867.579	4409
867.71	4394
867.841	4360
867.972	4436
868.103	4497
868.233	4447
868.364	4455
868.495	4489
868.625	4664
868.756	4763
868.886	4584
869.017	4656
869.147	4782
869.278	4778
869.408	4694
869.539	4687
869.669	4710
869.799	4660
869.929	4733
870.06	4797
870.19	4976
870.32	4957
870.45	4972
870.58	4999
870.71	5060
870.84	5094
870.97	4949
871.1	4930
871.23	5181
871.36	5151
871.489	5025
871.619	5090
871.749	5143
871.879	5071
872.008	5147
872.138	5079
872.267	5018
872.397	4854
872.526	4820
872.656	4694
872.785	4801
872.915	4923
873.044	4999
873.173	4968
873.303	4957
873.432	4968
873.561	5006
873.69	4881
873.819	4885
873.948	4938
874.077	4839
874.206	4729
874.335	4831
874.464	4965
874.593	5067
874.722	5003
874.851	5094
874.979	5025
875.108	5025
875.237	4942
875.365	4870
875.494	4934
875.623	4972
875.751	4847
875.88	4919
876.008	4976
876.136	5033
876.265	5288
876.393	5296
876.521	5288
876.65	5204
876.778	5159
876.906	5056
877.034	5045
877.162	5045
877.29	5014
877.418	5094
877.546	5098
877.674	5056
877.802	5045
877.93	4968
878.058	4953
878.185	4904
878.313	5018
878.441	4927
878.568	4831
878.696	4839
878.824	4976
878.951	5014
879.079	5102
879.206	5284
879.333	5090
879.461	4972
879.588	5045
879.715	5098
879.842	5189
879.97	4995
880.097	4793
880.224	4767
880.351	4786
880.478	4843
880.605	4824
880.732	4797
880.859	5105
880.986	4900
881.112	4972
881.239	4763
881.366	4710
881.493	4679
881.619	4592
881.746	4630
881.872	4672
881.999	4611
882.125	4691
882.252	4820
882.378	4854
882.505	4984
882.631	4763
882.757	4683
882.883	4786
883.01	4736
883.136	4691
883.262	4599
883.388	4649
883.514	4767
883.64	4870
883.766	4820
883.892	4664
884.018	4763
884.143	4877
884.269	5018
884.395	4683
884.52	4622
884.646	4645
884.772	4634
884.897	4607
885.023	4721
885.148	4805
885.274	4847
885.399	4755
885.524	4679
885.65	4725
885.775	4744
885.9	4755
886.025	4850
886.15	4782
886.275	4729
886.4	4653
886.525	4729
886.65	4675
886.775	4725
886.9	4927
887.025	5064
887.149	4812
887.274	4664
887.399	4588
887.523	4637
887.648	4569
887.773	4611
887.897	4778
888.021	4831
888.146	4717
888.27	4820
888.395	4911
888.519	4805
888.643	4873
888.767	4820
888.891	4721
889.015	4599
889.139	4672
889.263	4592
889.387	4778
889.511	4866
889.635	4824
889.759	4683
889.883	4668
890.006	4702
890.13	4839
890.254	4630
890.377	4664
890.501	4554
890.624	4497
890.748	4622
890.871	4558
890.995	4478
891.118	4428
891.241	4519
891.364	4588
891.488	4637
891.611	4516
891.734	4565
891.857	4611
891.98	4596
892.103	4656
892.226	4580
892.349	4527
892.471	4386
892.594	4542
892.717	4599
892.839	4577
892.962	4569
893.085	4660
893.207	4573
893.33	4432
893.452	4478
893.575	4649
893.697	4569
893.819	4755
893.941	4854
894.064	4755
894.186	4607
894.308	4569
894.43	4729
894.552	4816
894.674	4744
894.796	4550
894.918	4599
895.04	4588
895.161	4714
895.283	4702
895.405	4618
895.526	4672
895.648	4729
895.769	4702
895.891	4694
896.012	4771
896.134	4755
896.255	4672
896.376	4675
896.498	4611
896.619	4660
896.74	4611
896.861	4683
896.982	4889
897.103	5102
897.224	4843
897.345	4763
897.466	4683
897.587	4740
897.708	4870
897.828	4774
897.949	4717
898.07	4592
898.19	4694
898.311	4835
898.431	4637
898.552	4729
898.672	4847
898.792	4771
898.913	4717
899.033	4664
899.153	4527
899.273	4421
899.393	4462
899.513	4523
899.633	4519
899.753	4497
899.873	4497
899.993	4596
900.113	4493
900.232	4599
900.352	4550
900.472	4531
900.591	4386
900.711	4466
900.83	4462
900.95	4599
901.069	4675
901.189	4577
901.308	4394
901.427	4295
901.546	4394
901.665	4466
901.784	4531
901.904	4409
902.023	4337
902.141	4215
902.26	4120
902.379	4318
902.498	4253
902.617	4230
902.735	4413
902.854	4386
902.973	4352
903.091	4215
903.21	4253
903.328	4265
903.446	4284
903.565	4268
903.683	4356
903.801	4284
903.919	4390
904.038	4478
904.156	4299
904.274	4432
904.392	4375
904.51	4474
904.627	4462
904.745	4565
904.863	4641
904.981	4386
905.098	4356
905.216	4348
905.334	4424
905.451	4436
905.569	4390
905.686	4607
905.803	4538
905.921	4428
906.038	4561
906.155	4504
906.272	4428
906.389	4493
906.506	4352
906.623	4409
906.74	4371
906.857	4318
906.974	4383
907.091	4546
907.208	4664
907.324	4596
907.441	4519
907.557	4405
907.674	4356
907.79	4322
907.907	4386
908.023	4470
908.139	4451
908.256	4428
908.372	4504
908.488	4489
908.604	4329
908.72	4314
908.836	4424
908.952	4363
909.068	4489
909.184	4599
909.3	4527
909.415	4550
909.531	4580
909.647	4405
909.762	4348
909.878	4371
909.993	4436
910.108	4413
910.224	4436
910.339	4516
910.454	4402
910.57	4341
910.685	4265
910.8	4641
910.915	4588
911.03	4500
911.145	4337
911.259	4363
911.374	4394
911.489	4325
911.604	4291
911.718	4204
911.833	4200
911.947	4078
912.062	4032
912.176	4219
912.291	4234
912.405	4204
912.519	4451
912.633	4497
912.748	4398
912.862	4329
912.976	4196
913.09	4078
913.204	4185
913.318	4261
913.431	4363
913.545	4348
913.659	4428
913.772	4291
913.886	4246
914	4242
914.113	4402
914.226	4443
914.34	4356
914.453	4291
914.566	4459
914.68	4295
914.793	4356
914.906	4135
915.019	4128
915.132	4067
915.245	4200
915.358	4211
915.47	4246
915.583	4261
915.696	4322
915.809	4394
915.921	4424
916.034	4249
916.146	4238
916.259	4196
916.371	4398
916.483	4367
916.595	4215
916.708	4325
916.82	4337
916.932	4329
917.044	4356
917.156	4310
917.268	4219
917.38	4310
917.491	4295
917.603	4356
917.715	4443
917.826	4436
917.938	4333
918.049	4276
918.161	4424
918.272	4527
918.384	4531
918.495	4447
918.606	4284
918.717	4200
918.828	4379
918.939	4360
919.05	4276
919.161	4306
919.272	4116
919.383	4230
919.494	4447
919.604	4565
919.715	4386
919.826	4295
919.936	4405
920.047	4527
920.157	4542
920.267	4721
920.378	4599
920.488	4538
920.598	4740
920.708	4885
920.818	4774
920.928	4748
921.038	4934
921.148	4930
921.258	4649
921.368	4527
921.477	4447
921.587	4455
921.697	4360
921.806	4569
921.916	4466
922.025	4272
922.134	4280
922.244	4238
922.353	4363
922.462	4162
922.571	4131
922.68	3979
922.789	3998
922.898	4025
923.007	3960
923.116	4082
923.224	4074
923.333	4067
923.442	3979
923.55	4025
923.659	4036
923.767	4124
923.876	4002
923.984	4131
924.092	3994
924.201	4090
924.309	4078
924.417	4101
924.525	4078
924.633	4090
924.741	5048
924.849	3899
924.956	4131
925.064	3915
925.172	3907
925.279	3972
925.387	4044
925.494	4086
925.602	4227
925.709	4219
925.816	4036
925.924	4150
926.031	4219
926.138	4150
926.245	4200
926.352	4097
926.459	4253
926.566	4253
926.673	4116
926.779	4116
926.886	4093
926.993	3956
927.099	3937
927.206	3941
927.312	3918
927.419	4036
927.525	3987
927.631	4067
927.737	3953
927.843	3945
927.95	3831
928.056	3937
928.162	4021
928.267	4044
928.373	4710
928.479	4162
928.585	3865
928.69	4010
928.796	4059
928.901	3998
929.007	3823
929.112	4017
929.218	3975
929.323	3941
929.428	3987
929.533	4086
929.638	3968
929.743	3960
929.848	4044
929.953	3994
930.058	3907
930.163	3755
930.267	3854
930.372	3998
930.477	3800
930.581	4090
930.685	3964
930.79	3823
930.894	3861
930.998	3911
931.103	4036
931.207	3686
931.311	3686
931.415	3709
931.519	3519
931.623	3595
