Data from test_V78500241_1238.txt Node
Date: Fri Mar 25 16:57:36 CST 2022
User: usil
Spectrometer: V785-0024
Trigger mode: 0
Integration Time (sec): 4.000000E-1
Scans to average: 1
Nonlinearity correction enabled: false
Boxcar width: 0
Storing dark spectrum: false
XAxis mode: Wavelengths
Number of Pixels in Spectrum: 1024
>>>>>Begin Spectral Data<<<<<
801.071	8092
801.214	8012
801.356	7928
801.499	7883
801.641	7765
801.783	7788
801.926	7906
802.068	7894
802.211	7955
802.353	7940
802.496	7898
802.638	7871
802.78	7932
802.923	7940
803.065	7932
803.208	7852
803.35	7909
803.492	8119
803.635	8153
803.777	8054
803.919	8149
804.061	8507
804.204	8176
804.346	8005
804.488	7951
804.63	8100
804.773	7970
804.915	8107
805.057	8298
805.199	8210
805.341	8221
805.483	8256
805.626	8271
805.768	8088
805.91	8233
806.052	8214
806.194	8084
806.336	8263
806.478	8096
806.62	8065
806.762	8134
806.904	8244
807.046	8427
807.188	8339
807.33	8305
807.472	8279
807.614	8187
807.756	8123
807.898	8016
808.04	7909
808.182	7864
808.324	7932
808.465	7978
808.607	8126
808.749	8126
808.891	8176
809.033	8279
809.174	8240
809.316	8077
809.458	8046
809.6	8008
809.741	8050
809.883	7982
810.025	8100
810.166	8084
810.308	8005
810.45	8016
810.591	7845
810.733	7719
810.875	7658
811.016	7597
811.158	7533
811.299	7556
811.441	7757
811.582	7727
811.724	7575
811.865	7544
812.007	7601
812.148	7628
812.29	7575
812.431	7761
812.573	7875
812.714	7986
812.855	8065
812.997	8210
813.138	8298
813.279	8191
813.421	8073
813.562	8084
813.703	7887
813.845	7727
813.986	7434
814.127	7278
814.268	7213
814.41	7202
814.551	7160
814.692	7209
814.833	7031
814.974	7076
815.115	7061
815.256	6897
815.397	6924
815.539	6962
815.68	6856
815.821	6776
815.962	6837
816.103	6783
816.244	6753
816.385	6612
816.526	6570
816.666	6460
816.807	6277
816.948	6426
817.089	6467
817.23	6456
817.371	6380
817.512	6369
817.653	6437
817.793	6334
817.934	6391
818.075	6471
818.216	6369
818.356	6414
818.497	6235
818.638	6125
818.778	6136
818.919	6197
819.06	6178
819.2	6292
819.341	6296
819.481	6350
819.622	6494
819.762	6726
819.903	6745
820.043	6635
820.184	6582
820.324	6585
820.465	6696
820.605	6711
820.746	6604
820.886	6471
821.026	6642
821.167	6715
821.307	6798
821.447	6741
821.588	6673
821.728	6585
821.868	6525
822.008	6334
822.149	6426
822.289	6388
822.429	6224
822.569	6087
822.709	6148
822.849	5992
822.99	5889
823.13	5927
823.27	5950
823.41	5790
823.55	5832
823.69	5817
823.83	5809
823.97	5718
824.11	5600
824.25	5539
824.389	5554
824.529	5589
824.669	5520
824.809	5608
824.949	5691
825.089	5630
825.228	5608
825.368	5436
825.508	5376
825.648	5364
825.787	5368
825.927	5425
826.067	5402
826.206	5284
826.346	5448
826.485	5421
826.625	5478
826.765	5543
826.904	5490
827.044	5334
827.183	5269
827.323	5159
827.462	5246
827.601	5261
827.741	5242
827.88	5265
828.02	5155
828.159	5235
828.298	5349
828.437	5349
828.577	5292
828.716	5501
828.855	5315
828.994	5204
829.134	5060
829.273	5170
829.412	5174
829.551	5121
829.69	5231
829.829	5269
829.968	5410
830.107	5337
830.246	5330
830.385	5216
830.524	5170
830.663	5113
830.802	4995
830.941	4942
831.08	4923
831.219	4972
831.357	5041
831.496	5174
831.635	4995
831.774	4873
831.913	4854
832.051	4774
832.19	4771
832.329	4858
832.467	4736
832.606	4672
832.744	4774
832.883	4714
833.022	4740
833.16	4850
833.299	4843
833.437	4889
833.576	4908
833.714	4873
833.852	4866
833.991	4968
834.129	4987
834.267	5003
834.406	4919
834.544	4984
834.682	5010
834.821	4961
834.959	5189
835.097	5037
835.235	5227
835.373	5094
835.511	5121
835.65	5037
835.788	5094
835.926	4919
836.064	4900
836.202	4949
836.34	5204
836.478	5246
836.615	5170
836.753	5208
836.891	5307
837.029	5280
837.167	5265
837.305	5197
837.443	5201
837.58	5090
837.718	5250
837.856	5231
837.993	5208
838.131	5258
838.269	5208
838.406	5227
838.544	5231
838.681	5071
838.819	5056
838.956	4889
839.094	4953
839.231	5018
839.369	5121
839.506	5501
839.643	5315
839.781	5117
839.918	5037
840.055	5128
840.193	5079
840.33	5117
840.467	5174
840.604	5174
840.742	5543
840.879	5113
841.016	5102
841.153	5170
841.29	5421
841.427	5337
841.564	5311
841.701	5398
841.838	5307
841.975	5231
842.112	5318
842.249	5136
842.385	5094
842.522	5330
842.659	5159
842.796	5151
842.933	5185
843.069	5128
843.206	5121
843.343	5376
843.479	5204
843.616	5296
843.752	5075
843.889	5025
844.025	5242
844.162	5014
844.298	5216
844.435	5094
844.571	5033
844.708	5174
844.844	5341
844.98	5353
845.117	5303
845.253	5143
845.389	5132
845.525	5223
845.661	5140
845.798	5022
845.934	5189
846.07	5075
846.206	5185
846.342	5303
846.478	5170
846.614	5041
846.75	5010
846.886	4949
847.022	5132
847.158	5022
847.294	5121
847.429	5090
847.565	5083
847.701	5303
847.837	4892
847.972	4816
848.108	4980
848.244	4972
848.379	4858
848.515	4748
848.65	4740
848.786	4782
848.921	4755
849.057	4892
849.192	4919
849.328	4839
849.463	4908
849.598	4824
849.734	4790
849.869	4733
850.004	4653
850.14	4698
850.275	4603
850.41	4580
850.545	4603
850.68	4630
850.815	4675
850.95	4599
851.085	4839
851.22	4755
851.355	4683
851.49	4611
851.625	4592
851.76	4637
851.895	4550
852.03	4577
852.165	4653
852.299	4740
852.434	4797
852.569	4698
852.703	4790
852.838	4854
852.973	4904
853.107	4961
853.242	4801
853.376	4683
853.511	4565
853.645	4641
853.78	4835
853.914	4736
854.048	4668
854.183	4656
854.317	4725
854.451	4881
854.585	4725
854.72	4634
854.854	4774
854.988	4618
855.122	4683
855.256	4527
855.39	4672
855.524	4820
855.658	4729
855.792	4721
855.926	4740
856.06	4767
856.194	4790
856.327	4725
856.461	4596
856.595	4630
856.729	4649
856.862	4752
856.996	4710
857.13	4725
857.263	4801
857.397	4755
857.53	4725
857.664	4752
857.797	4752
857.931	4809
858.064	4691
858.197	4786
858.331	4649
858.464	4599
858.597	4512
858.731	4687
858.864	4630
858.997	4592
859.13	4664
859.263	4668
859.396	4736
859.529	4649
859.662	4592
859.795	4527
859.928	4656
860.061	4816
860.194	4763
860.327	4607
860.46	4577
860.592	4710
860.725	4790
860.858	4710
860.99	4615
861.123	4546
861.256	4535
861.388	4615
861.521	5250
861.653	4535
861.786	4428
861.918	4455
862.05	4527
862.183	4611
862.315	4599
862.447	4580
862.58	4523
862.712	4447
862.844	4371
862.976	4474
863.108	4508
863.24	4896
863.372	4318
863.504	4459
863.636	4413
863.768	4519
863.9	4421
864.032	4375
864.164	4413
864.296	4500
864.428	4542
864.559	4615
864.691	4580
864.823	4504
864.954	4512
865.086	4531
865.217	4443
865.349	4409
865.48	4466
865.612	4485
865.743	4615
865.875	4504
866.006	4436
866.137	4489
866.269	4497
866.4	4474
866.531	4466
866.662	4424
866.793	4424
866.924	4405
867.055	4523
867.186	4485
867.317	4390
867.448	4383
867.579	4451
867.71	4398
867.841	4402
867.972	4481
868.103	4478
868.233	4478
868.364	4527
868.495	4497
868.625	4683
868.756	4816
868.886	4580
869.017	4637
869.147	4767
869.278	4801
869.408	4672
869.539	4603
869.669	4748
869.799	4664
869.929	4782
870.06	4763
870.19	4968
870.32	4930
870.45	4953
870.58	5033
870.71	5117
870.84	5109
870.97	4949
871.1	4946
871.23	5162
871.36	5136
871.489	5022
871.619	5086
871.749	5109
871.879	5117
872.008	5181
872.138	5056
872.267	5033
872.397	4839
872.526	4812
872.656	4702
872.785	4850
872.915	4961
873.044	5033
873.173	4968
873.303	4980
873.432	4961
873.561	4995
873.69	4889
873.819	4877
873.948	4938
874.077	4797
874.206	4763
874.335	4805
874.464	4915
874.593	5090
874.722	4942
874.851	5067
874.979	5105
875.108	5033
875.237	4900
875.365	4911
875.494	4843
875.623	4987
875.751	4820
875.88	4870
876.008	4984
876.136	5033
876.265	5201
876.393	5410
876.521	5204
876.65	5201
876.778	5166
876.906	5048
877.034	5037
877.162	5045
877.29	4991
877.418	5102
877.546	5067
877.674	5060
877.802	5075
877.93	5045
878.058	4938
878.185	4885
878.313	4957
878.441	4987
878.568	4820
878.696	4885
878.824	4938
878.951	5018
879.079	5162
879.206	5269
879.333	5124
879.461	5018
879.588	5003
879.715	5124
879.842	5254
879.97	5010
880.097	4824
880.224	4763
880.351	4835
880.478	4828
880.605	4809
880.732	4763
880.859	5105
880.986	4938
881.112	4885
881.239	4820
881.366	4694
881.493	4622
881.619	4599
881.746	4630
881.872	4668
881.999	4645
882.125	4733
882.252	4786
882.378	4877
882.505	4980
882.631	4816
882.757	4710
882.883	4782
883.01	4767
883.136	4698
883.262	4546
883.388	4611
883.514	4828
883.64	4870
883.766	4828
883.892	4698
884.018	4790
884.143	4938
884.269	5014
884.395	4710
884.52	4683
884.646	4653
884.772	4588
884.897	4561
885.023	4733
885.148	4820
885.274	4862
885.399	4797
885.524	4710
885.65	4740
885.775	4755
885.9	4702
886.025	4854
886.15	4786
886.275	4752
886.4	4641
886.525	4691
886.65	4672
886.775	4710
886.9	4919
887.025	5083
887.149	4820
887.274	4675
887.399	4599
887.523	4554
887.648	4618
887.773	4538
887.897	4767
888.021	4767
888.146	4706
888.27	4892
888.395	4934
888.519	4839
888.643	4790
888.767	4816
888.891	4710
889.015	4641
889.139	4656
889.263	4611
889.387	4755
889.511	4809
889.635	4831
889.759	4645
889.883	4656
890.006	4710
890.13	4790
890.254	4645
890.377	4653
890.501	4565
890.624	4489
890.748	4649
890.871	4516
890.995	4417
891.118	4394
891.241	4554
891.364	4561
891.488	4653
891.611	4531
891.734	4588
891.857	4660
891.98	4588
892.103	4622
892.226	4599
892.349	4523
892.471	4447
892.594	4561
892.717	4615
892.839	4596
892.962	4573
893.085	4664
893.207	4618
893.33	4462
893.452	4538
893.575	4668
893.697	4599
893.819	4793
893.941	4866
894.064	4721
894.186	4561
894.308	4584
894.43	4725
894.552	4797
894.674	4752
894.796	4546
894.918	4618
895.04	4577
895.161	4653
895.283	4691
895.405	4634
895.526	4641
895.648	4694
895.769	4710
895.891	4729
896.012	4706
896.134	4702
896.255	4649
896.376	4653
896.498	4615
896.619	4683
896.74	4649
896.861	4660
896.982	4946
897.103	5067
897.224	4835
897.345	4801
897.466	4679
897.587	4714
897.708	4862
897.828	4763
897.949	4763
898.07	4558
898.19	4611
898.311	4793
898.431	4698
898.552	4748
898.672	4812
898.792	4786
898.913	4691
899.033	4618
899.153	4508
899.273	4428
899.393	4459
899.513	4538
899.633	4478
899.753	4550
899.873	4538
899.993	4626
900.113	4531
900.232	4607
900.352	4558
900.472	4497
900.591	4405
900.711	4527
900.83	4436
900.95	4664
901.069	4672
901.189	4569
901.308	4440
901.427	4371
901.546	4398
901.665	4436
901.784	4500
901.904	4417
902.023	4329
902.141	4188
902.26	4143
902.379	4322
902.498	4291
902.617	4238
902.735	4398
902.854	4417
902.973	4363
903.091	4219
903.21	4215
903.328	4280
903.446	4265
903.565	4280
903.683	4383
903.801	4295
903.919	4379
904.038	4405
904.156	4299
904.274	4436
904.392	4424
904.51	4462
904.627	4440
904.745	4565
904.863	4656
904.981	4386
905.098	4287
905.216	4367
905.334	4421
905.451	4436
905.569	4440
905.686	4531
905.803	4584
905.921	4421
906.038	4546
906.155	4459
906.272	4367
906.389	4516
906.506	4318
906.623	4314
906.74	4383
906.857	4318
906.974	4413
907.091	4565
907.208	4683
907.324	4615
907.441	4489
907.557	4363
907.674	4348
907.79	4268
907.907	4356
908.023	4451
908.139	4459
908.256	4405
908.372	4424
908.488	4462
908.604	4356
908.72	4325
908.836	4348
908.952	4371
909.068	4428
909.184	4580
909.3	4436
909.415	4527
909.531	4542
909.647	4379
909.762	4390
909.878	4348
909.993	4417
910.108	4417
910.224	4398
910.339	4504
910.454	4432
910.57	4295
910.685	4303
910.8	4691
910.915	4599
911.03	4466
911.145	4348
911.259	4322
911.374	4386
911.489	4310
911.604	4291
911.718	4154
911.833	4261
911.947	4074
912.062	4010
912.176	4181
912.291	4284
912.405	4257
912.519	4436
912.633	4504
912.748	4371
912.862	4291
912.976	4207
913.09	4063
913.204	4192
913.318	4181
913.431	4360
913.545	4371
913.659	4436
913.772	4367
913.886	4181
914	4238
914.113	4363
914.226	4428
914.34	4337
914.453	4276
914.566	4455
914.68	4337
914.793	4268
914.906	4139
915.019	4109
915.132	4105
915.245	4185
915.358	4246
915.47	4223
915.583	4280
915.696	4322
915.809	4379
915.921	4383
916.034	4265
916.146	4299
916.259	4211
916.371	4432
916.483	4352
916.595	4268
916.708	4341
916.82	4284
916.932	4303
917.044	4329
917.156	4322
917.268	4230
917.38	4306
917.491	4242
917.603	4344
917.715	4390
917.826	4455
917.938	4325
918.049	4295
918.161	4367
918.272	4546
918.384	4504
918.495	4459
918.606	4295
918.717	4211
918.828	4363
918.939	4383
919.05	4249
919.161	4314
919.272	4124
919.383	4234
919.494	4413
919.604	4592
919.715	4424
919.826	4367
919.936	4447
920.047	4611
920.157	4478
920.267	4702
920.378	4527
920.488	4485
920.598	4710
920.708	4885
920.818	4771
920.928	4752
921.038	4934
921.148	4927
921.258	4611
921.368	4512
921.477	4512
921.587	4455
921.697	4348
921.806	4569
921.916	4394
922.025	4276
922.134	4295
922.244	4227
922.353	4352
922.462	4166
922.571	4166
922.68	4017
922.789	3968
922.898	4048
923.007	3987
923.116	4120
923.224	4090
923.333	4082
923.442	3994
923.55	3937
923.659	4002
923.767	4128
923.876	4044
923.984	4093
924.092	3953
924.201	4036
924.309	4109
924.417	4162
924.525	4093
924.633	4109
924.741	5048
924.849	3960
924.956	4120
925.064	3937
925.172	3888
925.279	3930
925.387	4048
925.494	4025
925.602	4215
925.709	4166
925.816	4055
925.924	4101
926.031	4200
926.138	4215
926.245	4227
926.352	4105
926.459	4227
926.566	4318
926.673	4150
926.779	4013
926.886	4044
926.993	3930
927.099	3949
927.206	3949
927.312	3907
927.419	4021
927.525	4032
927.631	4116
927.737	3975
927.843	3945
927.95	3873
928.056	3918
928.162	4040
928.267	4029
928.373	4694
928.479	4109
928.585	3892
928.69	4029
928.796	4006
928.901	3934
929.007	3827
929.112	3998
929.218	3934
929.323	3915
929.428	3964
929.533	4082
929.638	3899
929.743	3972
929.848	4017
929.953	3987
930.058	3930
930.163	3781
930.267	3812
930.372	3998
930.477	3816
930.581	4116
930.685	3941
930.79	3804
930.894	3876
930.998	3873
931.103	4040
931.207	3728
931.311	3679
931.415	3648
931.519	3538
931.623	3561
