Data from test_V78500241_1935.txt Node
Date: Fri Mar 25 17:02:27 CST 2022
User: usil
Spectrometer: V785-0024
Trigger mode: 0
Integration Time (sec): 4.000000E-1
Scans to average: 1
Nonlinearity correction enabled: false
Boxcar width: 0
Storing dark spectrum: false
XAxis mode: Wavelengths
Number of Pixels in Spectrum: 1024
>>>>>Begin Spectral Data<<<<<
801.071	7928
801.214	7982
801.356	7833
801.499	7814
801.641	7799
801.783	7818
801.926	7982
802.068	7898
802.211	8027
802.353	7982
802.496	7803
802.638	7795
802.78	7875
802.923	7799
803.065	7894
803.208	7894
803.35	7936
803.492	8062
803.635	8092
803.777	7997
803.919	8119
804.061	8336
804.204	8157
804.346	8012
804.488	7928
804.63	8172
804.773	7898
804.915	8077
805.057	8320
805.199	8176
805.341	8168
805.483	8214
805.626	8149
805.768	8096
805.91	8221
806.052	8244
806.194	8115
806.336	8309
806.478	8081
806.62	8065
806.762	8119
806.904	8240
807.046	8469
807.188	8377
807.33	8248
807.472	8279
807.614	8157
807.756	8119
807.898	7982
808.04	7883
808.182	7879
808.324	7887
808.465	7925
808.607	8062
808.749	8027
808.891	8199
809.033	8286
809.174	8244
809.316	8039
809.458	8081
809.6	7986
809.741	8039
809.883	8016
810.025	8107
810.166	8050
810.308	8016
810.45	7959
810.591	7795
810.733	7670
810.875	7578
811.016	7430
811.158	7468
811.299	7487
811.441	7738
811.582	7677
811.724	7540
811.865	7476
812.007	7537
812.148	7559
812.29	7643
812.431	7780
812.573	7902
812.714	7947
812.855	8100
812.997	8168
813.138	8252
813.279	8092
813.421	8107
813.562	7917
813.703	7826
813.845	7696
813.986	7460
814.127	7206
814.268	7152
814.41	7255
814.551	7126
814.692	7240
814.833	7141
814.974	7107
815.115	7145
815.256	6989
815.397	6897
815.539	6894
815.68	6814
815.821	6738
815.962	6818
816.103	6810
816.244	6681
816.385	6681
816.526	6582
816.666	6517
816.807	6270
816.948	6460
817.089	6422
817.23	6414
817.371	6311
817.512	6418
817.653	6334
817.793	6323
817.934	6395
818.075	6460
818.216	6486
818.356	6403
818.497	6175
818.638	6140
818.778	6083
818.919	6140
819.06	6091
819.2	6346
819.341	6338
819.481	6334
819.622	6464
819.762	6726
819.903	6631
820.043	6559
820.184	6563
820.324	6528
820.465	6623
820.605	6669
820.746	6692
820.886	6494
821.026	6650
821.167	6707
821.307	6787
821.447	6730
821.588	6703
821.728	6570
821.868	6452
822.008	6361
822.149	6350
822.289	6365
822.429	6125
822.569	6098
822.709	6102
822.849	5942
822.99	5870
823.13	5859
823.27	5889
823.41	5802
823.55	5752
823.69	5760
823.83	5771
823.97	5608
824.11	5509
824.25	5478
824.389	5520
824.529	5604
824.669	5490
824.809	5619
824.949	5608
825.089	5585
825.228	5471
825.368	5379
825.508	5330
825.648	5341
825.787	5349
825.927	5398
826.067	5318
826.206	5242
826.346	5379
826.485	5398
826.625	5383
826.765	5547
826.904	5486
827.044	5208
827.183	5254
827.323	5132
827.462	5239
827.601	5159
827.741	5212
827.88	5220
828.02	5105
828.159	5220
828.298	5288
828.437	5326
828.577	5341
828.716	5452
828.855	5311
828.994	5151
829.134	5136
829.273	5174
829.412	5121
829.551	5109
829.69	5193
829.829	5185
829.968	5353
830.107	5284
830.246	5273
830.385	5212
830.524	5121
830.663	5048
830.802	4949
830.941	4877
831.08	4854
831.219	4965
831.357	4976
831.496	5143
831.635	4942
831.774	4812
831.913	4854
832.051	4759
832.19	4748
832.329	4820
832.467	4656
832.606	4622
832.744	4744
832.883	4744
833.022	4721
833.16	4790
833.299	4850
833.437	4809
833.576	4820
833.714	4850
833.852	4850
833.991	4877
834.129	4961
834.267	4934
834.406	4942
834.544	4953
834.682	4995
834.821	4965
834.959	5136
835.097	5041
835.235	5113
835.373	5025
835.511	5136
835.65	5018
835.788	5045
835.926	4923
836.064	4885
836.202	4919
836.34	5193
836.478	5201
836.615	5132
836.753	5197
836.891	5296
837.029	5204
837.167	5174
837.305	5102
837.443	5185
837.58	5060
837.718	5216
837.856	5212
837.993	5147
838.131	5239
838.269	5193
838.406	5185
838.544	5155
838.681	4972
838.819	4976
838.956	4831
839.094	4934
839.231	4984
839.369	5086
839.506	5414
839.643	5292
839.781	5071
839.918	5003
840.055	5060
840.193	5132
840.33	5109
840.467	5117
840.604	5254
840.742	5414
840.879	5124
841.016	5060
841.153	5105
841.29	5398
841.427	5379
841.564	5296
841.701	5398
841.838	5254
841.975	5197
842.112	5284
842.249	5124
842.385	5064
842.522	5349
842.659	5181
842.796	5147
842.933	5197
843.069	5181
843.206	5174
843.343	5296
843.479	5216
843.616	5269
843.752	5037
843.889	5006
844.025	5242
844.162	5010
844.298	5181
844.435	5117
844.571	5006
844.708	5197
844.844	5299
844.98	5318
845.117	5292
845.253	5136
845.389	5064
845.525	5170
845.661	5147
845.798	5029
845.934	5166
846.07	5083
846.206	5174
846.342	5269
846.478	5162
846.614	4976
846.75	4949
846.886	4927
847.022	5143
847.158	5041
847.294	5033
847.429	5067
847.565	5064
847.701	5311
847.837	4816
847.972	4797
848.108	4934
848.244	4949
848.379	4755
848.515	4736
848.65	4717
848.786	4740
848.921	4774
849.057	4854
849.192	4889
849.328	4820
849.463	4854
849.598	4809
849.734	4755
849.869	4683
850.004	4611
850.14	4694
850.275	4599
850.41	4508
850.545	4550
850.68	4603
850.815	4584
850.95	4626
851.085	4831
851.22	4725
851.355	4694
851.49	4622
851.625	4592
851.76	4622
851.895	4565
852.03	4523
852.165	4672
852.299	4733
852.434	4759
852.569	4702
852.703	4755
852.838	4847
852.973	4930
853.107	4942
853.242	4729
853.376	4668
853.511	4542
853.645	4626
853.78	4763
853.914	4725
854.048	4683
854.183	4656
854.317	4706
854.451	4839
854.585	4679
854.72	4611
854.854	4740
854.988	4561
855.122	4626
855.256	4504
855.39	4634
855.524	4790
855.658	4717
855.792	4653
855.926	4763
856.06	4778
856.194	4793
856.327	4664
856.461	4565
856.595	4626
856.729	4615
856.862	4767
856.996	4668
857.13	4683
857.263	4736
857.397	4797
857.53	4679
857.664	4687
857.797	4752
857.931	4771
858.064	4714
858.197	4782
858.331	4645
858.464	4599
858.597	4546
858.731	4596
858.864	4637
858.997	4561
859.13	4664
859.263	4630
859.396	4687
859.529	4561
859.662	4542
859.795	4508
859.928	4615
860.061	4717
860.194	4778
860.327	4580
860.46	4519
860.592	4752
860.725	4714
860.858	4706
860.99	4584
861.123	4516
861.256	4493
861.388	4637
861.521	5292
861.653	4478
861.786	4409
861.918	4459
862.05	4489
862.183	4516
862.315	4596
862.447	4637
862.58	4580
862.712	4413
862.844	4322
862.976	4497
863.108	4478
863.24	4816
863.372	4329
863.504	4390
863.636	4421
863.768	4478
863.9	4383
864.032	4341
864.164	4375
864.296	4481
864.428	4519
864.559	4550
864.691	4523
864.823	4523
864.954	4489
865.086	4489
865.217	4447
865.349	4394
865.48	4455
865.612	4481
865.743	4615
865.875	4470
866.006	4462
866.137	4443
866.269	4428
866.4	4443
866.531	4405
866.662	4402
866.793	4371
866.924	4394
867.055	4459
867.186	4478
867.317	4390
867.448	4451
867.579	4367
867.71	4409
867.841	4352
867.972	4462
868.103	4508
868.233	4432
868.364	4462
868.495	4470
868.625	4653
868.756	4774
868.886	4538
869.017	4634
869.147	4782
869.278	4767
869.408	4672
869.539	4641
869.669	4698
869.799	4679
869.929	4774
870.06	4721
870.19	4915
870.32	4930
870.45	4889
870.58	4999
870.71	5117
870.84	5098
870.97	4968
871.1	4889
871.23	5098
871.36	5098
871.489	5025
871.619	5045
871.749	5083
871.879	5124
872.008	5189
872.138	5086
872.267	5014
872.397	4790
872.526	4790
872.656	4740
872.785	4805
872.915	4953
873.044	4999
873.173	4892
873.303	4949
873.432	4938
873.561	4938
873.69	4850
873.819	4866
873.948	4892
874.077	4797
874.206	4729
874.335	4793
874.464	4930
874.593	5018
874.722	4965
874.851	5124
874.979	5029
875.108	5014
875.237	4938
875.365	4892
875.494	4889
875.623	5003
875.751	4850
875.88	4835
876.008	5022
876.136	5010
876.265	5185
876.393	5360
876.521	5258
876.65	5170
876.778	5189
876.906	5098
877.034	5010
877.162	5022
877.29	5006
877.418	5037
877.546	5003
877.674	5067
877.802	4999
877.93	5003
878.058	4911
878.185	4843
878.313	4984
878.441	4946
878.568	4752
878.696	4896
878.824	4919
878.951	4995
879.079	5086
879.206	5315
879.333	5166
879.461	4999
879.588	5033
879.715	5102
879.842	5216
879.97	5010
880.097	4809
880.224	4755
880.351	4805
880.478	4793
880.605	4782
880.732	4778
880.859	5109
880.986	4885
881.112	4873
881.239	4809
881.366	4664
881.493	4618
881.619	4622
881.746	4626
881.872	4641
881.999	4653
882.125	4694
882.252	4763
882.378	4797
882.505	4953
882.631	4774
882.757	4664
882.883	4714
883.01	4729
883.136	4607
883.262	4603
883.388	4618
883.514	4847
883.64	4881
883.766	4763
883.892	4706
884.018	4763
884.143	4873
884.269	4995
884.395	4656
884.52	4615
884.646	4645
884.772	4596
884.897	4550
885.023	4694
885.148	4782
885.274	4892
885.399	4801
885.524	4744
885.65	4679
885.775	4748
885.9	4698
886.025	4847
886.15	4820
886.275	4725
886.4	4641
886.525	4717
886.65	4702
886.775	4702
886.9	4873
887.025	5060
887.149	4793
887.274	4672
887.399	4607
887.523	4599
887.648	4554
887.773	4569
887.897	4755
888.021	4767
888.146	4668
888.27	4755
888.395	4892
888.519	4793
888.643	4805
888.767	4828
888.891	4660
889.015	4626
889.139	4645
889.263	4577
889.387	4748
889.511	4862
889.635	4812
889.759	4615
889.883	4607
890.006	4721
890.13	4812
890.254	4634
890.377	4649
890.501	4569
890.624	4497
890.748	4656
890.871	4561
890.995	4440
891.118	4409
891.241	4531
891.364	4516
891.488	4588
891.611	4485
891.734	4497
891.857	4565
891.98	4584
892.103	4615
892.226	4630
892.349	4535
892.471	4447
892.594	4565
892.717	4622
892.839	4615
892.962	4577
893.085	4637
893.207	4611
893.33	4405
893.452	4516
893.575	4691
893.697	4558
893.819	4812
893.941	4809
894.064	4748
894.186	4565
894.308	4565
894.43	4752
894.552	4774
894.674	4694
894.796	4561
894.918	4599
895.04	4580
895.161	4740
895.283	4664
895.405	4596
895.526	4683
895.648	4660
895.769	4694
895.891	4744
896.012	4729
896.134	4721
896.255	4618
896.376	4618
896.498	4607
896.619	4698
896.74	4607
896.861	4618
896.982	4862
897.103	5086
897.224	4870
897.345	4721
897.466	4649
897.587	4774
897.708	4839
897.828	4748
897.949	4645
898.07	4584
898.19	4622
898.311	4839
898.431	4641
898.552	4740
898.672	4820
898.792	4801
898.913	4733
899.033	4596
899.153	4466
899.273	4383
899.393	4466
899.513	4531
899.633	4455
899.753	4512
899.873	4459
899.993	4592
900.113	4550
900.232	4558
900.352	4546
900.472	4455
900.591	4424
900.711	4478
900.83	4470
900.95	4626
901.069	4691
901.189	4550
901.308	4371
901.427	4344
901.546	4428
901.665	4466
901.784	4462
901.904	4398
902.023	4276
902.141	4166
902.26	4158
902.379	4363
902.498	4272
902.617	4211
902.735	4318
902.854	4424
902.973	4314
903.091	4219
903.21	4253
903.328	4310
903.446	4268
903.565	4234
903.683	4363
903.801	4246
903.919	4413
904.038	4432
904.156	4379
904.274	4447
904.392	4405
904.51	4424
904.627	4485
904.745	4580
904.863	4656
904.981	4348
905.098	4291
905.216	4341
905.334	4379
905.451	4379
905.569	4417
905.686	4542
905.803	4538
905.921	4409
906.038	4546
906.155	4459
906.272	4379
906.389	4402
906.506	4325
906.623	4325
906.74	4417
906.857	4356
906.974	4291
907.091	4550
907.208	4691
907.324	4558
907.441	4497
907.557	4360
907.674	4360
907.79	4322
907.907	4367
908.023	4466
908.139	4455
908.256	4466
908.372	4481
908.488	4413
908.604	4379
908.72	4287
908.836	4386
908.952	4363
909.068	4417
909.184	4592
909.3	4470
909.415	4592
909.531	4546
909.647	4363
909.762	4379
909.878	4291
909.993	4451
910.108	4398
910.224	4409
910.339	4436
910.454	4398
910.57	4379
910.685	4299
910.8	4603
910.915	4599
911.03	4447
911.145	4356
911.259	4303
911.374	4352
911.489	4303
911.604	4322
911.718	4169
911.833	4227
911.947	4097
912.062	4071
912.176	4204
912.291	4249
912.405	4227
912.519	4485
912.633	4462
912.748	4402
912.862	4299
912.976	4207
913.09	4097
913.204	4223
913.318	4211
913.431	4371
913.545	4352
913.659	4462
913.772	4363
913.886	4238
914	4200
914.113	4363
914.226	4462
914.34	4390
914.453	4234
914.566	4447
914.68	4295
914.793	4276
914.906	4162
915.019	4147
915.132	4036
915.245	4234
915.358	4192
915.47	4223
915.583	4265
915.696	4272
915.809	4440
915.921	4428
916.034	4246
916.146	4268
916.259	4177
916.371	4371
916.483	4413
916.595	4276
916.708	4341
916.82	4337
916.932	4318
917.044	4352
917.156	4333
917.268	4238
917.38	4249
917.491	4295
917.603	4367
917.715	4402
917.826	4428
917.938	4284
918.049	4242
918.161	4398
918.272	4531
918.384	4516
918.495	4413
918.606	4257
918.717	4227
918.828	4303
918.939	4363
919.05	4287
919.161	4272
919.272	4093
919.383	4276
919.494	4481
919.604	4573
919.715	4398
919.826	4344
919.936	4394
920.047	4523
920.157	4489
920.267	4714
920.378	4504
920.488	4512
920.598	4702
920.708	4877
920.818	4729
920.928	4736
921.038	4930
921.148	4896
921.258	4653
921.368	4550
921.477	4481
921.587	4455
921.697	4390
921.806	4573
921.916	4386
922.025	4287
922.134	4257
922.244	4249
922.353	4303
922.462	4147
922.571	4143
922.68	4017
922.789	4013
922.898	4025
923.007	4010
923.116	4124
923.224	4086
923.333	4090
923.442	4013
923.55	3964
923.659	4036
923.767	4116
923.876	4036
923.984	4097
924.092	3979
924.201	4059
924.309	4048
924.417	4128
924.525	4044
924.633	4128
924.741	5067
924.849	3911
924.956	4147
925.064	3945
925.172	3888
925.279	3960
925.387	4086
925.494	4055
925.602	4185
925.709	4154
925.816	4025
925.924	4112
926.031	4238
926.138	4147
926.245	4200
926.352	4105
926.459	4230
926.566	4287
926.673	4131
926.779	4063
926.886	4120
926.993	3983
927.099	3956
927.206	3937
927.312	3911
927.419	4051
927.525	4040
927.631	4067
927.737	3956
927.843	3941
927.95	3846
928.056	3949
928.162	4002
928.267	4017
928.373	4561
928.479	4116
928.585	3903
928.69	4021
928.796	4059
928.901	3994
929.007	3869
929.112	3964
929.218	3972
929.323	3972
929.428	3945
929.533	4120
929.638	3888
929.743	3945
929.848	4048
929.953	3949
930.058	3892
930.163	3785
930.267	3816
930.372	3968
930.477	3819
930.581	4025
930.685	3907
930.79	3793
930.894	3857
930.998	3812
931.103	4036
931.207	3694
931.311	3675
931.415	3717
931.519	3469
931.623	3576
