Data from test_V78500241_1001.txt Node
Date: Fri Mar 25 16:55:57 CST 2022
User: usil
Spectrometer: V785-0024
Trigger mode: 0
Integration Time (sec): 4.000000E-1
Scans to average: 1
Nonlinearity correction enabled: false
Boxcar width: 0
Storing dark spectrum: false
XAxis mode: Wavelengths
Number of Pixels in Spectrum: 1024
>>>>>Begin Spectral Data<<<<<
801.071	8062
801.214	8043
801.356	7852
801.499	7864
801.641	7746
801.783	7776
801.926	7947
802.068	7944
802.211	7909
802.353	7936
802.496	7807
802.638	7845
802.78	7894
802.923	7959
803.065	7898
803.208	7898
803.35	8020
803.492	8016
803.635	8153
803.777	7993
803.919	8126
804.061	8473
804.204	8187
804.346	8001
804.488	7925
804.63	8119
804.773	7967
804.915	8123
805.057	8263
805.199	8142
805.341	8191
805.483	8195
805.626	8153
805.768	8149
805.91	8168
806.052	8210
806.194	8084
806.336	8221
806.478	8031
806.62	8035
806.762	8065
806.904	8221
807.046	8503
807.188	8324
807.33	8294
807.472	8317
807.614	8100
807.756	8126
807.898	7959
808.04	7875
808.182	7909
808.324	7803
808.465	7883
808.607	8043
808.749	8073
808.891	8130
809.033	8256
809.174	8187
809.316	8050
809.458	7993
809.6	7986
809.741	8031
809.883	8081
810.025	8027
810.166	8012
810.308	7986
810.45	8050
810.591	7868
810.733	7746
810.875	7655
811.016	7533
811.158	7537
811.299	7575
811.441	7677
811.582	7693
811.724	7586
811.865	7548
812.007	7533
812.148	7556
812.29	7647
812.431	7792
812.573	7833
812.714	7940
812.855	8107
812.997	8180
813.138	8305
813.279	8138
813.421	8115
813.562	7978
813.703	7909
813.845	7803
813.986	7441
814.127	7263
814.268	7247
814.41	7179
814.551	7145
814.692	7126
814.833	7065
814.974	7034
815.115	7080
815.256	6973
815.397	6886
815.539	6890
815.68	6772
815.821	6734
815.962	6859
816.103	6818
816.244	6722
816.385	6616
816.526	6658
816.666	6536
816.807	6220
816.948	6365
817.089	6498
817.23	6490
817.371	6372
817.512	6403
817.653	6395
817.793	6319
817.934	6376
818.075	6410
818.216	6429
818.356	6391
818.497	6228
818.638	6129
818.778	6121
818.919	6144
819.06	6136
819.2	6243
819.341	6262
819.481	6369
819.622	6509
819.762	6696
819.903	6688
820.043	6578
820.184	6589
820.324	6574
820.465	6696
820.605	6707
820.746	6650
820.886	6475
821.026	6696
821.167	6662
821.307	6806
821.447	6715
821.588	6692
821.728	6544
821.868	6486
822.008	6342
822.149	6319
822.289	6300
822.429	6079
822.569	6091
822.709	6117
822.849	5927
822.99	5889
823.13	5840
823.27	5920
823.41	5809
823.55	5748
823.69	5790
823.83	5737
823.97	5634
824.11	5566
824.25	5528
824.389	5558
824.529	5577
824.669	5512
824.809	5646
824.949	5665
825.089	5589
825.228	5516
825.368	5402
825.508	5341
825.648	5311
825.787	5284
825.927	5417
826.067	5288
826.206	5284
826.346	5360
826.485	5364
826.625	5398
826.765	5554
826.904	5448
827.044	5242
827.183	5170
827.323	5143
827.462	5261
827.601	5170
827.741	5124
827.88	5242
828.02	5056
828.159	5265
828.298	5315
828.437	5337
828.577	5292
828.716	5452
828.855	5280
828.994	5140
829.134	5121
829.273	5162
829.412	5117
829.551	5102
829.69	5117
829.829	5193
829.968	5341
830.107	5235
830.246	5258
830.385	5185
830.524	5086
830.663	5067
830.802	4942
830.941	4889
831.08	4881
831.219	4995
831.357	4995
831.496	5128
831.635	4900
831.774	4835
831.913	4812
832.051	4733
832.19	4702
832.329	4847
832.467	4656
832.606	4611
832.744	4721
832.883	4736
833.022	4698
833.16	4824
833.299	4805
833.437	4850
833.576	4793
833.714	4877
833.852	4824
833.991	4835
834.129	4927
834.267	4957
834.406	4889
834.544	4957
834.682	4991
834.821	4923
834.959	5155
835.097	4942
835.235	5113
835.373	5033
835.511	5098
835.65	5033
835.788	4968
835.926	4923
836.064	4839
836.202	4877
836.34	5185
836.478	5193
836.615	5067
836.753	5162
836.891	5261
837.029	5273
837.167	5155
837.305	5140
837.443	5140
837.58	5037
837.718	5250
837.856	5193
837.993	5155
838.131	5227
838.269	5159
838.406	5166
838.544	5193
838.681	5033
838.819	4961
838.956	4889
839.094	4877
839.231	4949
839.369	5083
839.506	5376
839.643	5242
839.781	5014
839.918	5041
840.055	5071
840.193	5041
840.33	5117
840.467	5147
840.604	5159
840.742	5402
840.879	5113
841.016	5052
841.153	5140
841.29	5368
841.427	5376
841.564	5277
841.701	5353
841.838	5239
841.975	5223
842.112	5292
842.249	5147
842.385	5102
842.522	5353
842.659	5143
842.796	5094
842.933	5189
843.069	5178
843.206	5151
843.343	5307
843.479	5174
843.616	5269
843.752	5010
843.889	5003
844.025	5204
844.162	5003
844.298	5185
844.435	5060
844.571	5022
844.708	5166
844.844	5204
844.98	5284
845.117	5284
845.253	5162
845.389	5029
845.525	5117
845.661	5151
845.798	5071
845.934	5109
846.07	5014
846.206	5189
846.342	5227
846.478	5178
846.614	4995
846.75	4980
846.886	4949
847.022	5147
847.158	4987
847.294	5045
847.429	5102
847.565	5022
847.701	5322
847.837	4801
847.972	4774
848.108	4927
848.244	4919
848.379	4778
848.515	4744
848.65	4702
848.786	4714
848.921	4748
849.057	4797
849.192	4908
849.328	4820
849.463	4809
849.598	4782
849.734	4786
849.869	4691
850.004	4599
850.14	4664
850.275	4592
850.41	4561
850.545	4565
850.68	4550
850.815	4618
850.95	4622
851.085	4854
851.22	4725
851.355	4687
851.49	4573
851.625	4611
851.76	4630
851.895	4527
852.03	4546
852.165	4645
852.299	4691
852.434	4755
852.569	4706
852.703	4782
852.838	4820
852.973	4904
853.107	4889
853.242	4748
853.376	4637
853.511	4558
853.645	4603
853.78	4812
853.914	4664
854.048	4607
854.183	4603
854.317	4683
854.451	4850
854.585	4645
854.72	4618
854.854	4763
854.988	4561
855.122	4637
855.256	4504
855.39	4641
855.524	4721
855.658	4675
855.792	4660
855.926	4714
856.06	4721
856.194	4793
856.327	4656
856.461	4565
856.595	4527
856.729	4611
856.862	4793
856.996	4660
857.13	4733
857.263	4782
857.397	4771
857.53	4565
857.664	4679
857.797	4755
857.931	4763
858.064	4637
858.197	4698
858.331	4637
858.464	4569
858.597	4470
858.731	4656
858.864	4683
858.997	4577
859.13	4630
859.263	4679
859.396	4687
859.529	4592
859.662	4558
859.795	4527
859.928	4588
860.061	4748
860.194	4721
860.327	4622
860.46	4554
860.592	4691
860.725	4687
860.858	4710
860.99	4599
861.123	4519
861.256	4489
861.388	4622
861.521	5261
861.653	4478
861.786	4466
861.918	4451
862.05	4504
862.183	4546
862.315	4607
862.447	4649
862.58	4573
862.712	4398
862.844	4348
862.976	4489
863.108	4424
863.24	4809
863.372	4295
863.504	4424
863.636	4402
863.768	4474
863.9	4398
864.032	4325
864.164	4367
864.296	4466
864.428	4596
864.559	4516
864.691	4527
864.823	4519
864.954	4462
865.086	4531
865.217	4497
865.349	4371
865.48	4436
865.612	4443
865.743	4584
865.875	4413
866.006	4371
866.137	4459
866.269	4489
866.4	4451
866.531	4386
866.662	4386
866.793	4379
866.924	4402
867.055	4481
867.186	4413
867.317	4398
867.448	4421
867.579	4360
867.71	4383
867.841	4337
867.972	4421
868.103	4424
868.233	4443
868.364	4462
868.495	4440
868.625	4668
868.756	4736
868.886	4512
869.017	4607
869.147	4790
869.278	4763
869.408	4683
869.539	4641
869.669	4706
869.799	4622
869.929	4759
870.06	4736
870.19	4927
870.32	4915
870.45	4919
870.58	4987
870.71	5052
870.84	5067
870.97	4923
871.1	4870
871.23	5121
871.36	5128
871.489	4991
871.619	5029
871.749	5113
871.879	5079
872.008	5136
872.138	5033
872.267	4980
872.397	4839
872.526	4797
872.656	4706
872.785	4782
872.915	4927
873.044	4987
873.173	4892
873.303	4946
873.432	4984
873.561	4953
873.69	4896
873.819	4835
873.948	4930
874.077	4824
874.206	4767
874.335	4748
874.464	4889
874.593	5079
874.722	4911
874.851	5102
874.979	5052
875.108	5022
875.237	4862
875.365	4870
875.494	4862
875.623	4946
875.751	4809
875.88	4892
876.008	4991
876.136	5037
876.265	5189
876.393	5318
876.521	5174
876.65	5231
876.778	5140
876.906	5098
877.034	4995
877.162	5018
877.29	5003
877.418	5064
877.546	5033
877.674	5056
877.802	5003
877.93	5003
878.058	4862
878.185	4835
878.313	4949
878.441	4957
878.568	4797
878.696	4797
878.824	4961
878.951	4995
879.079	5151
879.206	5280
879.333	5094
879.461	4976
879.588	5003
879.715	5113
879.842	5178
879.97	4984
880.097	4763
880.224	4797
880.351	4752
880.478	4793
880.605	4782
880.732	4805
880.859	5029
880.986	4805
881.112	4900
881.239	4767
881.366	4656
881.493	4607
881.619	4603
881.746	4668
881.872	4656
881.999	4580
882.125	4664
882.252	4736
882.378	4801
882.505	4965
882.631	4786
882.757	4672
882.883	4687
883.01	4714
883.136	4630
883.262	4550
883.388	4573
883.514	4831
883.64	4858
883.766	4755
883.892	4645
884.018	4653
884.143	4889
884.269	4987
884.395	4714
884.52	4626
884.646	4626
884.772	4554
884.897	4538
885.023	4641
885.148	4801
885.274	4809
885.399	4824
885.524	4702
885.65	4675
885.775	4759
885.9	4729
886.025	4843
886.15	4752
886.275	4736
886.4	4649
886.525	4706
886.65	4603
886.775	4679
886.9	4908
887.025	4987
887.149	4778
887.274	4653
887.399	4573
887.523	4577
887.648	4550
887.773	4577
887.897	4752
888.021	4767
888.146	4694
888.27	4843
888.395	4862
888.519	4809
888.643	4839
888.767	4831
888.891	4683
889.015	4611
889.139	4630
889.263	4599
889.387	4748
889.511	4858
889.635	4774
889.759	4675
889.883	4637
890.006	4759
890.13	4797
890.254	4607
890.377	4714
890.501	4561
890.624	4531
890.748	4618
890.871	4527
890.995	4443
891.118	4371
891.241	4440
891.364	4527
891.488	4668
891.611	4394
891.734	4538
891.857	4588
891.98	4535
892.103	4653
892.226	4577
892.349	4481
892.471	4470
892.594	4550
892.717	4607
892.839	4558
892.962	4599
893.085	4622
893.207	4596
893.33	4386
893.452	4531
893.575	4668
893.697	4584
893.819	4786
893.941	4778
894.064	4763
894.186	4580
894.308	4527
894.43	4755
894.552	4847
894.674	4740
894.796	4519
894.918	4599
895.04	4592
895.161	4668
895.283	4607
895.405	4546
895.526	4668
895.648	4672
895.769	4675
895.891	4714
896.012	4706
896.134	4710
896.255	4630
896.376	4626
896.498	4603
896.619	4694
896.74	4645
896.861	4645
896.982	4934
897.103	5071
897.224	4793
897.345	4736
897.466	4702
897.587	4714
897.708	4858
897.828	4763
897.949	4599
898.07	4535
898.19	4611
898.311	4809
898.431	4702
898.552	4733
898.672	4828
898.792	4786
898.913	4774
899.033	4618
899.153	4470
899.273	4424
899.393	4466
899.513	4519
899.633	4558
899.753	4519
899.873	4523
899.993	4645
900.113	4512
900.232	4565
900.352	4512
900.472	4489
900.591	4405
900.711	4523
900.83	4440
900.95	4603
901.069	4599
901.189	4531
901.308	4402
901.427	4344
901.546	4344
901.665	4470
901.784	4424
901.904	4394
902.023	4318
902.141	4162
902.26	4131
902.379	4291
902.498	4227
902.617	4204
902.735	4379
902.854	4386
902.973	4367
903.091	4204
903.21	4230
903.328	4249
903.446	4249
903.565	4227
903.683	4341
903.801	4265
903.919	4356
904.038	4394
904.156	4284
904.274	4402
904.392	4379
904.51	4421
904.627	4474
904.745	4535
904.863	4596
904.981	4436
905.098	4234
905.216	4367
905.334	4398
905.451	4413
905.569	4413
905.686	4519
905.803	4554
905.921	4360
906.038	4538
906.155	4497
906.272	4405
906.389	4516
906.506	4348
906.623	4344
906.74	4363
906.857	4280
906.974	4333
907.091	4592
907.208	4607
907.324	4573
907.441	4459
907.557	4356
907.674	4333
907.79	4325
907.907	4363
908.023	4504
908.139	4432
908.256	4402
908.372	4474
908.488	4413
908.604	4386
908.72	4295
908.836	4398
908.952	4337
909.068	4394
909.184	4550
909.3	4531
909.415	4554
909.531	4527
909.647	4344
909.762	4348
909.878	4360
909.993	4417
910.108	4402
910.224	4405
910.339	4455
910.454	4371
910.57	4280
910.685	4295
910.8	4611
910.915	4535
911.03	4459
911.145	4295
911.259	4341
911.374	4344
911.489	4310
911.604	4257
911.718	4196
911.833	4150
911.947	4090
912.062	4032
912.176	4200
912.291	4223
912.405	4230
912.519	4493
912.633	4497
912.748	4333
912.862	4306
912.976	4139
913.09	4082
913.204	4154
913.318	4238
913.431	4360
913.545	4356
913.659	4485
913.772	4329
913.886	4234
914	4223
914.113	4367
914.226	4398
914.34	4367
914.453	4291
914.566	4402
914.68	4276
914.793	4360
914.906	4177
915.019	4071
915.132	4097
915.245	4185
915.358	4192
915.47	4253
915.583	4253
915.696	4295
915.809	4417
915.921	4390
916.034	4246
916.146	4280
916.259	4207
916.371	4398
916.483	4383
916.595	4204
916.708	4310
916.82	4284
916.932	4333
917.044	4310
917.156	4325
917.268	4272
917.38	4253
917.491	4192
917.603	4310
917.715	4390
917.826	4470
917.938	4344
918.049	4257
918.161	4394
918.272	4565
918.384	4538
918.495	4421
918.606	4268
918.717	4253
918.828	4337
918.939	4329
919.05	4242
919.161	4257
919.272	4112
919.383	4238
919.494	4447
919.604	4603
919.715	4413
919.826	4379
919.936	4333
920.047	4561
920.157	4504
920.267	4668
920.378	4527
920.488	4459
920.598	4683
920.708	4858
920.818	4740
920.928	4702
921.038	4987
921.148	4885
921.258	4641
921.368	4523
921.477	4478
921.587	4447
921.697	4333
921.806	4554
921.916	4409
922.025	4238
922.134	4234
922.244	4227
922.353	4318
922.462	4143
922.571	4112
922.68	3972
922.789	3953
922.898	4036
923.007	3953
923.116	4067
923.224	4006
923.333	4067
923.442	4013
923.55	3953
923.659	4017
923.767	4112
923.876	3991
923.984	4051
924.092	3987
924.201	4051
924.309	4097
924.417	4120
924.525	4032
924.633	4082
924.741	5022
924.849	3941
924.956	4086
925.064	3907
925.172	3869
925.279	3979
925.387	4063
925.494	4086
925.602	4166
925.709	4143
925.816	3998
925.924	4131
926.031	4192
926.138	4135
926.245	4200
926.352	4078
926.459	4265
926.566	4284
926.673	4147
926.779	4059
926.886	4093
926.993	3926
927.099	3922
927.206	3949
927.312	3968
927.419	4010
927.525	3979
927.631	4063
927.737	3941
927.843	3934
927.95	3846
928.056	3918
928.162	3956
928.267	4071
928.373	4656
928.479	4086
928.585	3823
928.69	3975
928.796	4055
928.901	3945
929.007	3846
929.112	4017
929.218	3979
929.323	3937
929.428	3918
929.533	4097
929.638	3880
929.743	3998
929.848	4025
929.953	3979
930.058	3896
930.163	3770
930.267	3854
930.372	3953
930.477	3808
930.581	4071
930.685	3926
930.79	3842
930.894	3831
930.998	3861
931.103	4021
931.207	3660
931.311	3690
931.415	3682
931.519	3515
931.623	3538
