Data from test_V78500241_2253.txt Node
Date: Fri Mar 25 17:04:40 CST 2022
User: usil
Spectrometer: V785-0024
Trigger mode: 0
Integration Time (sec): 4.000000E-1
Scans to average: 1
Nonlinearity correction enabled: false
Boxcar width: 0
Storing dark spectrum: false
XAxis mode: Wavelengths
Number of Pixels in Spectrum: 1024
>>>>>Begin Spectral Data<<<<<
801.071	8024
801.214	7963
801.356	7913
801.499	7776
801.641	7772
801.783	7772
801.926	8005
802.068	8001
802.211	7993
802.353	8005
802.496	7814
802.638	7868
802.78	7833
802.923	7921
803.065	7849
803.208	7860
803.35	7951
803.492	8069
803.635	8202
803.777	7989
803.919	8027
804.061	8408
804.204	8183
804.346	8024
804.488	8001
804.63	8050
804.773	8012
804.915	8103
805.057	8244
805.199	8153
805.341	8180
805.483	8358
805.626	8115
805.768	8145
805.91	8202
806.052	8153
806.194	8111
806.336	8271
806.478	8096
806.62	8050
806.762	8164
806.904	8199
807.046	8427
807.188	8423
807.33	8332
807.472	8305
807.614	8218
807.756	8157
807.898	8016
808.04	7837
808.182	7875
808.324	7906
808.465	7928
808.607	8027
808.749	8100
808.891	8130
809.033	8423
809.174	8199
809.316	8123
809.458	8084
809.6	8073
809.741	8092
809.883	7989
810.025	8115
810.166	8073
810.308	8001
810.45	7932
810.591	7879
810.733	7746
810.875	7651
811.016	7472
811.158	7430
811.299	7502
811.441	7719
811.582	7674
811.724	7533
811.865	7563
812.007	7624
812.148	7578
812.29	7628
812.431	7715
812.573	7860
812.714	7982
812.855	8161
812.997	8237
813.138	8298
813.279	8149
813.421	7993
813.562	7967
813.703	7845
813.845	7761
813.986	7362
814.127	7274
814.268	7221
814.41	7232
814.551	7266
814.692	7206
814.833	7095
814.974	7126
815.115	7126
815.256	6939
815.397	6977
815.539	7008
815.68	6745
815.821	6768
815.962	6844
816.103	6802
816.244	6703
816.385	6642
816.526	6589
816.666	6509
816.807	6311
816.948	6437
817.089	6448
817.23	6445
817.371	6433
817.512	6426
817.653	6350
817.793	6372
817.934	6369
818.075	6483
818.216	6471
818.356	6426
818.497	6216
818.638	6133
818.778	6167
818.919	6114
819.06	6110
819.2	6327
819.341	6331
819.481	6331
819.622	6563
819.762	6764
819.903	6677
820.043	6578
820.184	6536
820.324	6536
820.465	6745
820.605	6635
820.746	6700
820.886	6517
821.026	6688
821.167	6696
821.307	6795
821.447	6741
821.588	6665
821.728	6650
821.868	6536
822.008	6346
822.149	6304
822.289	6346
822.429	6079
822.569	6114
822.709	6136
822.849	5939
822.99	5954
823.13	5931
823.27	5950
823.41	5748
823.55	5760
823.69	5764
823.83	5745
823.97	5657
824.11	5566
824.25	5516
824.389	5562
824.529	5634
824.669	5478
824.809	5592
824.949	5661
825.089	5585
825.228	5532
825.368	5383
825.508	5311
825.648	5364
825.787	5322
825.927	5376
826.067	5288
826.206	5280
826.346	5349
826.485	5425
826.625	5436
826.765	5543
826.904	5429
827.044	5227
827.183	5197
827.323	5143
827.462	5220
827.601	5124
827.741	5155
827.88	5250
828.02	5124
828.159	5239
828.298	5277
828.437	5379
828.577	5239
828.716	5467
828.855	5322
828.994	5117
829.134	5170
829.273	5193
829.412	5132
829.551	5166
829.69	5128
829.829	5220
829.968	5406
830.107	5273
830.246	5265
830.385	5185
830.524	5109
830.663	5083
830.802	5003
830.941	4885
831.08	4885
831.219	4980
831.357	4976
831.496	5136
831.635	4949
831.774	4862
831.913	4824
832.051	4656
832.19	4710
832.329	4828
832.467	4702
832.606	4683
832.744	4740
832.883	4668
833.022	4725
833.16	4748
833.299	4797
833.437	4835
833.576	4805
833.714	4812
833.852	4870
833.991	4889
834.129	4915
834.267	4965
834.406	4927
834.544	4930
834.682	4961
834.821	4949
834.959	5178
835.097	4999
835.235	5128
835.373	5018
835.511	5117
835.65	5003
835.788	5048
835.926	4881
836.064	4858
836.202	4885
836.34	5162
836.478	5193
836.615	5128
836.753	5201
836.891	5246
837.029	5261
837.167	5174
837.305	5174
837.443	5178
837.58	5018
837.718	5242
837.856	5124
837.993	5151
838.131	5246
838.269	5235
838.406	5170
838.544	5159
838.681	5060
838.819	5006
838.956	4927
839.094	4870
839.231	4999
839.369	5033
839.506	5425
839.643	5242
839.781	5018
839.918	5056
840.055	5113
840.193	5121
840.33	5124
840.467	5132
840.604	5155
840.742	5406
840.879	5109
841.016	5045
841.153	5128
841.29	5376
841.427	5261
841.564	5303
841.701	5284
841.838	5250
841.975	5242
842.112	5258
842.249	5094
842.385	5086
842.522	5303
842.659	5143
842.796	5098
842.933	5201
843.069	5121
843.206	5159
843.343	5318
843.479	5181
843.616	5239
843.752	4987
843.889	4999
844.025	5204
844.162	5048
844.298	5178
844.435	5045
844.571	5121
844.708	5181
844.844	5303
844.98	5353
845.117	5273
845.253	5147
845.389	5071
845.525	5162
845.661	5140
845.798	4987
845.934	5090
846.07	5052
846.206	5216
846.342	5292
846.478	5159
846.614	5022
846.75	4885
846.886	4915
847.022	5121
847.158	5010
847.294	5060
847.429	5083
847.565	5060
847.701	5395
847.837	4801
847.972	4793
848.108	4980
848.244	4934
848.379	4736
848.515	4725
848.65	4744
848.786	4748
848.921	4771
849.057	4885
849.192	4850
849.328	4786
849.463	4831
849.598	4778
849.734	4706
849.869	4668
850.004	4641
850.14	4698
850.275	4607
850.41	4584
850.545	4569
850.68	4592
850.815	4630
850.95	4641
851.085	4843
851.22	4782
851.355	4645
851.49	4634
851.625	4622
851.76	4592
851.895	4592
852.03	4497
852.165	4641
852.299	4683
852.434	4755
852.569	4740
852.703	4786
852.838	4854
852.973	4873
853.107	4847
853.242	4710
853.376	4694
853.511	4550
853.645	4622
853.78	4809
853.914	4706
854.048	4645
854.183	4653
854.317	4668
854.451	4831
854.585	4687
854.72	4596
854.854	4805
854.988	4584
855.122	4664
855.256	4523
855.39	4664
855.524	4755
855.658	4672
855.792	4683
855.926	4733
856.06	4744
856.194	4812
856.327	4653
856.461	4622
856.595	4641
856.729	4615
856.862	4733
856.996	4668
857.13	4706
857.263	4763
857.397	4778
857.53	4634
857.664	4660
857.797	4748
857.931	4767
858.064	4672
858.197	4759
858.331	4630
858.464	4580
858.597	4531
858.731	4561
858.864	4599
858.997	4573
859.13	4634
859.263	4672
859.396	4706
859.529	4558
859.662	4584
859.795	4527
859.928	4622
860.061	4748
860.194	4767
860.327	4588
860.46	4538
860.592	4641
860.725	4733
860.858	4668
860.99	4569
861.123	4481
861.256	4481
861.388	4615
861.521	5345
861.653	4432
861.786	4443
861.918	4455
862.05	4535
862.183	4535
862.315	4603
862.447	4653
862.58	4523
862.712	4390
862.844	4322
862.976	4440
863.108	4386
863.24	4824
863.372	4322
863.504	4432
863.636	4375
863.768	4443
863.9	4443
864.032	4322
864.164	4409
864.296	4455
864.428	4546
864.559	4519
864.691	4523
864.823	4508
864.954	4432
865.086	4485
865.217	4440
865.349	4318
865.48	4440
865.612	4512
865.743	4599
865.875	4455
866.006	4409
866.137	4424
866.269	4466
866.4	4394
866.531	4413
866.662	4432
866.793	4375
866.924	4428
867.055	4493
867.186	4481
867.317	4417
867.448	4383
867.579	4394
867.71	4440
867.841	4325
867.972	4436
868.103	4474
868.233	4455
868.364	4413
868.495	4481
868.625	4687
868.756	4793
868.886	4630
869.017	4641
869.147	4812
869.278	4748
869.408	4702
869.539	4687
869.669	4710
869.799	4710
869.929	4782
870.06	4736
870.19	4968
870.32	4953
870.45	4938
870.58	5090
870.71	5113
870.84	5113
870.97	4961
871.1	4923
871.23	5151
871.36	5132
871.489	5025
871.619	5052
871.749	5117
871.879	5208
872.008	5155
872.138	5075
872.267	5022
872.397	4858
872.526	4854
872.656	4706
872.785	4824
872.915	4995
873.044	5048
873.173	4976
873.303	5022
873.432	4965
873.561	5003
873.69	4927
873.819	4900
873.948	4987
874.077	4820
874.206	4809
874.335	4809
874.464	4980
874.593	5075
874.722	4980
874.851	5090
874.979	5071
875.108	5067
875.237	4938
875.365	4949
875.494	4919
875.623	5056
875.751	4862
875.88	4915
876.008	4995
876.136	5105
876.265	5216
876.393	5376
876.521	5299
876.65	5296
876.778	5170
876.906	5132
877.034	5098
877.162	5041
877.29	4991
877.418	5102
877.546	5079
877.674	5079
877.802	4976
877.93	5094
878.058	4961
878.185	4942
878.313	4938
878.441	4957
878.568	4877
878.696	4919
878.824	4953
878.951	5075
879.079	5147
879.206	5330
879.333	5117
879.461	5033
879.588	5048
879.715	5136
879.842	5197
879.97	5041
880.097	4801
880.224	4748
880.351	4809
880.478	4900
880.605	4831
880.732	4824
880.859	5109
880.986	4927
881.112	4972
881.239	4771
881.366	4702
881.493	4664
881.619	4603
881.746	4641
881.872	4721
881.999	4672
882.125	4714
882.252	4752
882.378	4858
882.505	4968
882.631	4820
882.757	4717
882.883	4729
883.01	4748
883.136	4664
883.262	4626
883.388	4664
883.514	4816
883.64	4866
883.766	4820
883.892	4717
884.018	4744
884.143	4942
884.269	5006
884.395	4706
884.52	4687
884.646	4694
884.772	4599
884.897	4607
885.023	4687
885.148	4850
885.274	4839
885.399	4820
885.524	4710
885.65	4694
885.775	4786
885.9	4736
886.025	4900
886.15	4816
886.275	4717
886.4	4687
886.525	4721
886.65	4675
886.775	4702
886.9	4934
887.025	5090
887.149	4831
887.274	4733
887.399	4611
887.523	4656
887.648	4649
887.773	4634
887.897	4812
888.021	4820
888.146	4744
888.27	4835
888.395	4911
888.519	4805
888.643	4809
888.767	4858
888.891	4702
889.015	4607
889.139	4641
889.263	4710
889.387	4801
889.511	4911
889.635	4816
889.759	4691
889.883	4668
890.006	4740
890.13	4896
890.254	4664
890.377	4687
890.501	4584
890.624	4531
890.748	4641
890.871	4508
890.995	4443
891.118	4413
891.241	4569
891.364	4615
891.488	4691
891.611	4481
891.734	4558
891.857	4641
891.98	4565
892.103	4721
892.226	4645
892.349	4592
892.471	4470
892.594	4550
892.717	4660
892.839	4577
892.962	4641
893.085	4664
893.207	4611
893.33	4451
893.452	4561
893.575	4702
893.697	4630
893.819	4816
893.941	4843
894.064	4809
894.186	4565
894.308	4546
894.43	4786
894.552	4850
894.674	4767
894.796	4565
894.918	4622
895.04	4561
895.161	4774
895.283	4694
895.405	4611
895.526	4664
895.648	4672
895.769	4706
895.891	4752
896.012	4782
896.134	4740
896.255	4714
896.376	4683
896.498	4656
896.619	4694
896.74	4626
896.861	4641
896.982	4987
897.103	5124
897.224	4858
897.345	4744
897.466	4710
897.587	4755
897.708	4843
897.828	4816
897.949	4660
898.07	4573
898.19	4721
898.311	4870
898.431	4694
898.552	4752
898.672	4824
898.792	4862
898.913	4752
899.033	4649
899.153	4599
899.273	4432
899.393	4478
899.513	4577
899.633	4615
899.753	4558
899.873	4538
899.993	4634
900.113	4577
900.232	4577
900.352	4546
900.472	4504
900.591	4394
900.711	4508
900.83	4455
900.95	4618
901.069	4733
901.189	4603
901.308	4371
901.427	4337
901.546	4462
901.665	4500
901.784	4546
901.904	4402
902.023	4352
902.141	4215
902.26	4211
902.379	4329
902.498	4257
902.617	4234
902.735	4337
902.854	4421
902.973	4405
903.091	4200
903.21	4200
903.328	4265
903.446	4329
903.565	4238
903.683	4348
903.801	4314
903.919	4409
904.038	4474
904.156	4329
904.274	4398
904.392	4409
904.51	4443
904.627	4470
904.745	4599
904.863	4656
904.981	4421
905.098	4348
905.216	4379
905.334	4474
905.451	4455
905.569	4405
905.686	4573
905.803	4569
905.921	4398
906.038	4577
906.155	4455
906.272	4394
906.389	4474
906.506	4390
906.623	4386
906.74	4375
906.857	4386
906.974	4375
907.091	4565
907.208	4687
907.324	4630
907.441	4535
907.557	4375
907.674	4367
907.79	4306
907.907	4367
908.023	4527
908.139	4478
908.256	4455
908.372	4489
908.488	4489
908.604	4360
908.72	4360
908.836	4417
908.952	4405
909.068	4436
909.184	4554
909.3	4516
909.415	4630
909.531	4592
909.647	4363
909.762	4413
909.878	4360
909.993	4405
910.108	4409
910.224	4500
910.339	4546
910.454	4459
910.57	4424
910.685	4344
910.8	4664
910.915	4630
911.03	4508
911.145	4329
911.259	4348
911.374	4390
911.489	4329
911.604	4257
911.718	4200
911.833	4211
911.947	4128
912.062	4025
912.176	4219
912.291	4265
912.405	4261
912.519	4516
912.633	4512
912.748	4417
912.862	4348
912.976	4261
913.09	4109
913.204	4177
913.318	4272
913.431	4440
913.545	4329
913.659	4459
913.772	4428
913.886	4272
914	4196
914.113	4405
914.226	4428
914.34	4424
914.453	4227
914.566	4455
914.68	4318
914.793	4375
914.906	4143
915.019	4124
915.132	4105
915.245	4150
915.358	4230
915.47	4242
915.583	4265
915.696	4325
915.809	4394
915.921	4481
916.034	4234
916.146	4261
916.259	4227
916.371	4356
916.483	4360
916.595	4295
916.708	4352
916.82	4344
916.932	4337
917.044	4371
917.156	4322
917.268	4265
917.38	4272
917.491	4280
917.603	4322
917.715	4481
917.826	4451
917.938	4405
918.049	4280
918.161	4363
918.272	4584
918.384	4527
918.495	4466
918.606	4333
918.717	4188
918.828	4325
918.939	4356
919.05	4257
919.161	4367
919.272	4169
919.383	4219
919.494	4485
919.604	4630
919.715	4421
919.826	4375
919.936	4459
920.047	4565
920.157	4497
920.267	4717
920.378	4554
920.488	4538
920.598	4755
920.708	4908
920.818	4706
920.928	4801
921.038	4946
921.148	4896
921.258	4630
921.368	4554
921.477	4527
921.587	4497
921.697	4383
921.806	4577
921.916	4436
922.025	4303
922.134	4238
922.244	4242
922.353	4348
922.462	4154
922.571	4154
922.68	4029
922.789	4013
922.898	4021
923.007	3994
923.116	4120
923.224	4093
923.333	4055
923.442	3998
923.55	3998
923.659	4032
923.767	4166
923.876	3998
923.984	4139
924.092	4017
924.201	4097
924.309	4112
924.417	4135
924.525	4101
924.633	4063
924.741	5117
924.849	3899
924.956	4124
925.064	3972
925.172	3892
925.279	4021
925.387	4090
925.494	4067
925.602	4215
925.709	4169
925.816	4086
925.924	4185
926.031	4253
926.138	4207
926.245	4185
926.352	4150
926.459	4257
926.566	4333
926.673	4192
926.779	4078
926.886	4071
926.993	4002
927.099	3968
927.206	3937
927.312	3941
927.419	4120
927.525	4071
927.631	4093
927.737	3960
927.843	3975
927.95	3857
928.056	3941
928.162	3945
928.267	4051
928.373	4714
928.479	4131
928.585	3869
928.69	4036
928.796	4101
928.901	4002
929.007	3850
929.112	4002
929.218	3979
929.323	3972
929.428	3949
929.533	4135
929.638	3907
929.743	3972
929.848	4032
929.953	3964
930.058	3937
930.163	3789
930.267	3800
930.372	3998
930.477	3850
930.581	4048
930.685	3953
930.79	3888
930.894	3911
930.998	3888
931.103	4010
931.207	3698
931.311	3736
931.415	3644
931.519	3534
931.623	3549
