Data from test_V78500241_1249.txt Node
Date: Fri Mar 25 16:57:41 CST 2022
User: usil
Spectrometer: V785-0024
Trigger mode: 0
Integration Time (sec): 4.000000E-1
Scans to average: 1
Nonlinearity correction enabled: false
Boxcar width: 0
Storing dark spectrum: false
XAxis mode: Wavelengths
Number of Pixels in Spectrum: 1024
>>>>>Begin Spectral Data<<<<<
801.071	8024
801.214	7963
801.356	7883
801.499	7845
801.641	7696
801.783	7871
801.926	7913
802.068	7974
802.211	7940
802.353	7993
802.496	7788
802.638	7879
802.78	7955
802.923	7921
803.065	7917
803.208	7944
803.35	7993
803.492	8092
803.635	8142
803.777	8062
803.919	8081
804.061	8526
804.204	8081
804.346	7997
804.488	7989
804.63	8107
804.773	7974
804.915	8065
805.057	8248
805.199	8240
805.341	8225
805.483	8294
805.626	8142
805.768	8183
805.91	8214
806.052	8183
806.194	8115
806.336	8263
806.478	8096
806.62	8062
806.762	8168
806.904	8290
807.046	8518
807.188	8336
807.33	8259
807.472	8259
807.614	8119
807.756	8046
807.898	8081
808.04	7906
808.182	7921
808.324	7849
808.465	7921
808.607	8100
808.749	8065
808.891	8202
809.033	8324
809.174	8199
809.316	8092
809.458	8024
809.6	8027
809.741	7978
809.883	7955
810.025	8096
810.166	7978
810.308	8054
810.45	8005
810.591	7925
810.733	7674
810.875	7628
811.016	7552
811.158	7491
811.299	7655
811.441	7689
811.582	7727
811.724	7590
811.865	7491
812.007	7499
812.148	7559
812.29	7601
812.431	7734
812.573	7822
812.714	7909
812.855	8081
812.997	8183
813.138	8412
813.279	8187
813.421	8123
813.562	8069
813.703	7841
813.845	7666
813.986	7441
814.127	7247
814.268	7240
814.41	7099
814.551	7084
814.692	7160
814.833	7069
814.974	7038
815.115	7050
815.256	6981
815.397	6856
815.539	6947
815.68	6859
815.821	6818
815.962	6802
816.103	6818
816.244	6692
816.385	6574
816.526	6620
816.666	6517
816.807	6273
816.948	6467
817.089	6513
817.23	6414
817.371	6350
817.512	6315
817.653	6361
817.793	6311
817.934	6395
818.075	6471
818.216	6376
818.356	6376
818.497	6304
818.638	6106
818.778	6148
818.919	6129
819.06	6201
819.2	6338
819.341	6331
819.481	6350
819.622	6429
819.762	6745
819.903	6722
820.043	6559
820.184	6547
820.324	6585
820.465	6681
820.605	6738
820.746	6608
820.886	6506
821.026	6608
821.167	6722
821.307	6787
821.447	6741
821.588	6620
821.728	6445
821.868	6490
822.008	6277
822.149	6357
822.289	6342
822.429	6163
822.569	6034
822.709	6121
822.849	5855
822.99	5840
823.13	5874
823.27	5958
823.41	5847
823.55	5752
823.69	5779
823.83	5760
823.97	5691
824.11	5474
824.25	5532
824.389	5592
824.529	5573
824.669	5501
824.809	5611
824.949	5657
825.089	5604
825.228	5539
825.368	5387
825.508	5315
825.648	5330
825.787	5402
825.927	5395
826.067	5337
826.206	5254
826.346	5357
826.485	5368
826.625	5410
826.765	5520
826.904	5387
827.044	5208
827.183	5178
827.323	5159
827.462	5231
827.601	5178
827.741	5212
827.88	5223
828.02	5128
828.159	5261
828.298	5296
828.437	5307
828.577	5280
828.716	5452
828.855	5398
828.994	5124
829.134	5166
829.273	5162
829.412	5124
829.551	5155
829.69	5140
829.829	5250
829.968	5349
830.107	5269
830.246	5254
830.385	5159
830.524	5132
830.663	5022
830.802	4949
830.941	4881
831.08	4896
831.219	4972
831.357	4968
831.496	5151
831.635	4942
831.774	4828
831.913	4828
832.051	4717
832.19	4694
832.329	4824
832.467	4729
832.606	4618
832.744	4702
832.883	4702
833.022	4683
833.16	4759
833.299	4828
833.437	4908
833.576	4824
833.714	4854
833.852	4839
833.991	4870
834.129	4942
834.267	4961
834.406	4892
834.544	4949
834.682	4934
834.821	4942
834.959	5155
835.097	4946
835.235	5132
835.373	5029
835.511	5079
835.65	5018
835.788	4965
835.926	4904
836.064	4828
836.202	4816
836.34	5155
836.478	5162
836.615	5109
836.753	5185
836.891	5273
837.029	5197
837.167	5185
837.305	5166
837.443	5086
837.58	5064
837.718	5246
837.856	5155
837.993	5128
838.131	5258
838.269	5174
838.406	5185
838.544	5178
838.681	5025
838.819	4957
838.956	4923
839.094	4908
839.231	4911
839.369	5113
839.506	5341
839.643	5288
839.781	5022
839.918	4995
840.055	5067
840.193	5033
840.33	5128
840.467	5113
840.604	5159
840.742	5433
840.879	5109
841.016	5022
841.153	5128
841.29	5364
841.427	5326
841.564	5292
841.701	5330
841.838	5269
841.975	5185
842.112	5250
842.249	5132
842.385	5083
842.522	5296
842.659	5166
842.796	5151
842.933	5193
843.069	5159
843.206	5151
843.343	5273
843.479	5220
843.616	5284
843.752	5025
843.889	5014
844.025	5204
844.162	5022
844.298	5208
844.435	5071
844.571	5045
844.708	5227
844.844	5239
844.98	5307
845.117	5315
845.253	5143
845.389	5071
845.525	5159
845.661	5117
845.798	5033
845.934	5079
846.07	5018
846.206	5174
846.342	5269
846.478	5166
846.614	4965
846.75	4957
846.886	4972
847.022	5117
847.158	5033
847.294	5086
847.429	5075
847.565	5075
847.701	5254
847.837	4873
847.972	4847
848.108	4919
848.244	4953
848.379	4717
848.515	4736
848.65	4694
848.786	4740
848.921	4774
849.057	4828
849.192	4892
849.328	4801
849.463	4835
849.598	4790
849.734	4774
849.869	4653
850.004	4603
850.14	4660
850.275	4645
850.41	4493
850.545	4569
850.68	4607
850.815	4607
850.95	4611
851.085	4870
851.22	4721
851.355	4653
851.49	4611
851.625	4615
851.76	4645
851.895	4542
852.03	4519
852.165	4611
852.299	4733
852.434	4774
852.569	4778
852.703	4763
852.838	4786
852.973	4881
853.107	4877
853.242	4736
853.376	4672
853.511	4527
853.645	4611
853.78	4778
853.914	4653
854.048	4687
854.183	4637
854.317	4664
854.451	4793
854.585	4694
854.72	4626
854.854	4733
854.988	4584
855.122	4588
855.256	4531
855.39	4656
855.524	4774
855.658	4714
855.792	4672
855.926	4698
856.06	4733
856.194	4816
856.327	4679
856.461	4607
856.595	4622
856.729	4626
856.862	4733
856.996	4694
857.13	4717
857.263	4774
857.397	4793
857.53	4645
857.664	4729
857.797	4763
857.931	4797
858.064	4683
858.197	4714
858.331	4626
858.464	4558
858.597	4542
858.731	4599
858.864	4607
858.997	4573
859.13	4611
859.263	4641
859.396	4637
859.529	4596
859.662	4542
859.795	4558
859.928	4599
860.061	4767
860.194	4767
860.327	4645
860.46	4538
860.592	4679
860.725	4733
860.858	4725
860.99	4523
861.123	4527
861.256	4527
861.388	4622
861.521	5246
861.653	4504
861.786	4447
861.918	4447
862.05	4504
862.183	4497
862.315	4558
862.447	4622
862.58	4550
862.712	4383
862.844	4276
862.976	4478
863.108	4421
863.24	4839
863.372	4291
863.504	4424
863.636	4443
863.768	4455
863.9	4421
864.032	4383
864.164	4424
864.296	4489
864.428	4512
864.559	4516
864.691	4516
864.823	4462
864.954	4500
865.086	4489
865.217	4478
865.349	4447
865.48	4436
865.612	4474
865.743	4615
865.875	4466
866.006	4443
866.137	4451
866.269	4432
866.4	4413
866.531	4424
866.662	4386
866.793	4390
866.924	4360
867.055	4493
867.186	4459
867.317	4363
867.448	4371
867.579	4413
867.71	4375
867.841	4363
867.972	4443
868.103	4470
868.233	4421
868.364	4409
868.495	4470
868.625	4622
868.756	4729
868.886	4542
869.017	4634
869.147	4763
869.278	4740
869.408	4577
869.539	4630
869.669	4729
869.799	4698
869.929	4736
870.06	4698
870.19	4908
870.32	4877
870.45	4972
870.58	5029
870.71	5075
870.84	5071
870.97	4892
871.1	4877
871.23	5147
871.36	5079
871.489	5037
871.619	5060
871.749	5113
871.879	5128
872.008	5132
872.138	5029
872.267	4991
872.397	4831
872.526	4774
872.656	4736
872.785	4767
872.915	4965
873.044	4987
873.173	4892
873.303	4972
873.432	4972
873.561	4923
873.69	4934
873.819	4854
873.948	4919
874.077	4755
874.206	4755
874.335	4759
874.464	4915
874.593	5071
874.722	4896
874.851	5079
874.979	5048
875.108	5025
875.237	4862
875.365	4850
875.494	4850
875.623	4953
875.751	4828
875.88	4908
876.008	4999
876.136	5067
876.265	5132
876.393	5280
876.521	5273
876.65	5181
876.778	5174
876.906	5121
877.034	5056
877.162	5098
877.29	4995
877.418	5067
877.546	4999
877.674	5071
877.802	5018
877.93	5029
878.058	4877
878.185	4896
878.313	4949
878.441	5022
878.568	4797
878.696	4831
878.824	4930
878.951	4987
879.079	5109
879.206	5250
879.333	5060
879.461	4953
879.588	4938
879.715	5094
879.842	5181
879.97	5018
880.097	4847
880.224	4729
880.351	4767
880.478	4847
880.605	4801
880.732	4721
880.859	5105
880.986	4870
881.112	4889
881.239	4759
881.366	4698
881.493	4626
881.619	4554
881.746	4630
881.872	4634
881.999	4649
882.125	4645
882.252	4755
882.378	4828
882.505	4946
882.631	4828
882.757	4653
882.883	4691
883.01	4733
883.136	4622
883.262	4611
883.388	4577
883.514	4790
883.64	4881
883.766	4771
883.892	4618
884.018	4702
884.143	4870
884.269	4965
884.395	4675
884.52	4607
884.646	4611
884.772	4550
884.897	4538
885.023	4645
885.148	4771
885.274	4793
885.399	4729
885.524	4675
885.65	4714
885.775	4744
885.9	4706
886.025	4820
886.15	4759
886.275	4755
886.4	4645
886.525	4706
886.65	4660
886.775	4653
886.9	4892
887.025	5006
887.149	4793
887.274	4618
887.399	4569
887.523	4565
887.648	4611
887.773	4550
887.897	4782
888.021	4721
888.146	4656
888.27	4767
888.395	4934
888.519	4805
888.643	4797
888.767	4782
888.891	4641
889.015	4573
889.139	4626
889.263	4615
889.387	4736
889.511	4870
889.635	4786
889.759	4634
889.883	4653
890.006	4706
890.13	4835
890.254	4607
890.377	4588
890.501	4516
890.624	4542
890.748	4645
890.871	4538
890.995	4417
891.118	4417
891.241	4459
891.364	4500
891.488	4615
891.611	4508
891.734	4538
891.857	4546
891.98	4607
892.103	4645
892.226	4596
892.349	4546
892.471	4402
892.594	4516
892.717	4615
892.839	4535
892.962	4588
893.085	4664
893.207	4660
893.33	4478
893.452	4531
893.575	4634
893.697	4615
893.819	4774
893.941	4850
894.064	4744
894.186	4599
894.308	4569
894.43	4755
894.552	4790
894.674	4698
894.796	4596
894.918	4546
895.04	4577
895.161	4653
895.283	4679
895.405	4523
895.526	4611
895.648	4634
895.769	4675
895.891	4683
896.012	4778
896.134	4714
896.255	4653
896.376	4626
896.498	4634
896.619	4672
896.74	4603
896.861	4653
896.982	4942
897.103	5071
897.224	4809
897.345	4702
897.466	4702
897.587	4710
897.708	4866
897.828	4759
897.949	4656
898.07	4554
898.19	4672
898.311	4778
898.431	4584
898.552	4683
898.672	4774
898.792	4797
898.913	4771
899.033	4580
899.153	4504
899.273	4360
899.393	4459
899.513	4519
899.633	4516
899.753	4523
899.873	4493
899.993	4508
900.113	4538
900.232	4611
900.352	4554
900.472	4485
900.591	4413
900.711	4516
900.83	4474
900.95	4626
901.069	4687
901.189	4542
901.308	4383
901.427	4325
901.546	4348
901.665	4466
901.784	4516
901.904	4394
902.023	4329
902.141	4154
902.26	4192
902.379	4341
902.498	4246
902.617	4230
902.735	4360
902.854	4371
902.973	4348
903.091	4177
903.21	4230
903.328	4287
903.446	4261
903.565	4268
903.683	4325
903.801	4261
903.919	4360
904.038	4466
904.156	4310
904.274	4447
904.392	4367
904.51	4432
904.627	4504
904.745	4588
904.863	4622
904.981	4398
905.098	4348
905.216	4375
905.334	4344
905.451	4440
905.569	4417
905.686	4531
905.803	4538
905.921	4402
906.038	4497
906.155	4443
906.272	4333
906.389	4417
906.506	4344
906.623	4394
906.74	4363
906.857	4325
906.974	4363
907.091	4550
907.208	4634
907.324	4634
907.441	4508
907.557	4344
907.674	4325
907.79	4341
907.907	4417
908.023	4485
908.139	4478
908.256	4451
908.372	4466
908.488	4451
908.604	4337
908.72	4284
908.836	4371
908.952	4356
909.068	4432
909.184	4523
909.3	4478
909.415	4561
909.531	4519
909.647	4348
909.762	4352
909.878	4314
909.993	4402
910.108	4417
910.224	4402
910.339	4489
910.454	4379
910.57	4352
910.685	4314
910.8	4630
910.915	4584
911.03	4466
911.145	4318
911.259	4310
911.374	4318
911.489	4276
911.604	4291
911.718	4181
911.833	4227
911.947	4086
912.062	4059
912.176	4192
912.291	4238
912.405	4276
912.519	4421
912.633	4497
912.748	4352
912.862	4265
912.976	4188
913.09	4139
913.204	4147
913.318	4249
913.431	4333
913.545	4390
913.659	4398
913.772	4356
913.886	4196
914	4215
914.113	4394
914.226	4413
914.34	4417
914.453	4230
914.566	4417
914.68	4287
914.793	4299
914.906	4154
915.019	4116
915.132	4082
915.245	4166
915.358	4181
915.47	4230
915.583	4238
915.696	4295
915.809	4413
915.921	4394
916.034	4272
916.146	4207
916.259	4166
916.371	4375
916.483	4325
916.595	4246
916.708	4295
916.82	4333
916.932	4276
917.044	4306
917.156	4306
917.268	4185
917.38	4268
917.491	4246
917.603	4314
917.715	4390
917.826	4443
917.938	4341
918.049	4227
918.161	4390
918.272	4546
918.384	4500
918.495	4409
918.606	4268
918.717	4207
918.828	4322
918.939	4344
919.05	4253
919.161	4295
919.272	4082
919.383	4196
919.494	4409
919.604	4569
919.715	4409
919.826	4333
919.936	4363
920.047	4508
920.157	4474
920.267	4672
920.378	4523
920.488	4531
920.598	4736
920.708	4873
920.818	4755
920.928	4778
921.038	4930
921.148	4968
921.258	4637
921.368	4504
921.477	4497
921.587	4428
921.697	4333
921.806	4527
921.916	4462
922.025	4268
922.134	4268
922.244	4219
922.353	4329
922.462	4173
922.571	4116
922.68	4029
922.789	3930
922.898	3987
923.007	3956
923.116	4128
923.224	4044
923.333	4090
923.442	3972
923.55	3964
923.659	4036
923.767	4112
923.876	4010
923.984	4116
924.092	3968
924.201	4071
924.309	4082
924.417	4150
924.525	4116
924.633	4128
924.741	5109
924.849	3949
924.956	4173
925.064	4025
925.172	3918
925.279	3979
925.387	4063
925.494	4059
925.602	4227
925.709	4249
925.816	4059
925.924	4162
926.031	4230
926.138	4177
926.245	4211
926.352	4112
926.459	4268
926.566	4314
926.673	4162
926.779	4124
926.886	4101
926.993	3983
927.099	4048
927.206	3983
927.312	4021
927.419	4063
927.525	4063
927.631	4074
927.737	4013
927.843	3991
927.95	3876
928.056	4029
928.162	4051
928.267	4093
928.373	4748
928.479	4105
928.585	3975
928.69	4055
928.796	4143
928.901	4002
929.007	3896
929.112	4059
929.218	4036
929.323	4002
929.428	3983
929.533	4166
929.638	3953
929.743	4029
929.848	4093
929.953	4002
930.058	3949
930.163	3831
930.267	3857
930.372	4021
930.477	3884
930.581	4112
930.685	3979
930.79	3846
930.894	3945
930.998	3884
931.103	4074
931.207	3682
931.311	3720
931.415	3694
931.519	3561
931.623	3568
