Data from test_V78500241_1348.txt Node
Date: Fri Mar 25 16:58:22 CST 2022
User: usil
Spectrometer: V785-0024
Trigger mode: 0
Integration Time (sec): 4.000000E-1
Scans to average: 1
Nonlinearity correction enabled: false
Boxcar width: 0
Storing dark spectrum: false
XAxis mode: Wavelengths
Number of Pixels in Spectrum: 1024
>>>>>Begin Spectral Data<<<<<
801.071	8077
801.214	7986
801.356	7871
801.499	7833
801.641	7765
801.783	7807
801.926	8001
802.068	7932
802.211	7974
802.353	7959
802.496	7860
802.638	7837
802.78	7917
802.923	7944
803.065	7887
803.208	7909
803.35	7993
803.492	8043
803.635	8153
803.777	7997
803.919	8103
804.061	8404
804.204	8176
804.346	8069
804.488	8024
804.63	8123
804.773	8027
804.915	8115
805.057	8381
805.199	8168
805.341	8172
805.483	8290
805.626	8221
805.768	8069
805.91	8149
806.052	8187
806.194	8138
806.336	8244
806.478	8161
806.62	8111
806.762	8195
806.904	8347
807.046	8507
807.188	8351
807.33	8286
807.472	8309
807.614	8237
807.756	8126
807.898	7993
808.04	7868
808.182	7932
808.324	7928
808.465	7883
808.607	8134
808.749	8115
808.891	8199
809.033	8298
809.174	8183
809.316	8039
809.458	8062
809.6	7959
809.741	8005
809.883	8005
810.025	8035
810.166	8020
810.308	8069
810.45	7982
810.591	7864
810.733	7772
810.875	7689
811.016	7499
811.158	7525
811.299	7586
811.441	7727
811.582	7746
811.724	7594
811.865	7567
812.007	7575
812.148	7594
812.29	7624
812.431	7772
812.573	7871
812.714	7970
812.855	8126
812.997	8221
813.138	8252
813.279	8168
813.421	8123
813.562	7951
813.703	7890
813.845	7765
813.986	7419
814.127	7324
814.268	7213
814.41	7225
814.551	7175
814.692	7187
814.833	7099
814.974	7084
815.115	7072
815.256	6928
815.397	6890
815.539	6954
815.68	6840
815.821	6757
815.962	6840
816.103	6821
816.244	6692
816.385	6662
816.526	6578
816.666	6521
816.807	6338
816.948	6372
817.089	6448
817.23	6452
817.371	6357
817.512	6395
817.653	6353
817.793	6384
817.934	6357
818.075	6486
818.216	6452
818.356	6410
818.497	6235
818.638	6091
818.778	6167
818.919	6083
819.06	6182
819.2	6338
819.341	6331
819.481	6380
819.622	6559
819.762	6711
819.903	6684
820.043	6627
820.184	6612
820.324	6631
820.465	6726
820.605	6665
820.746	6726
820.886	6479
821.026	6608
821.167	6741
821.307	6814
821.447	6760
821.588	6658
821.728	6601
821.868	6486
822.008	6289
822.149	6384
822.289	6369
822.429	6117
822.569	6034
822.709	6117
822.849	5882
822.99	5908
823.13	5866
823.27	5908
823.41	5790
823.55	5798
823.69	5752
823.83	5813
823.97	5646
824.11	5539
824.25	5436
824.389	5589
824.529	5562
824.669	5512
824.809	5627
824.949	5657
825.089	5573
825.228	5589
825.368	5452
825.508	5318
825.648	5341
825.787	5379
825.927	5353
826.067	5239
826.206	5277
826.346	5364
826.485	5402
826.625	5421
826.765	5516
826.904	5509
827.044	5277
827.183	5197
827.323	5121
827.462	5208
827.601	5159
827.741	5170
827.88	5246
828.02	5105
828.159	5227
828.298	5299
828.437	5353
828.577	5250
828.716	5474
828.855	5277
828.994	5143
829.134	5189
829.273	5197
829.412	5117
829.551	5128
829.69	5159
829.829	5254
829.968	5368
830.107	5288
830.246	5254
830.385	5159
830.524	5109
830.663	5022
830.802	5006
830.941	4854
831.08	4850
831.219	4987
831.357	5003
831.496	5121
831.635	4968
831.774	4831
831.913	4850
832.051	4729
832.19	4698
832.329	4850
832.467	4668
832.606	4660
832.744	4752
832.883	4691
833.022	4675
833.16	4812
833.299	4782
833.437	4801
833.576	4843
833.714	4889
833.852	4835
833.991	4877
834.129	4923
834.267	4953
834.406	4900
834.544	5018
834.682	4991
834.821	4961
834.959	5159
835.097	5025
835.235	5151
835.373	5105
835.511	5067
835.65	5033
835.788	4991
835.926	4927
836.064	4896
836.202	4877
836.34	5201
836.478	5220
836.615	5155
836.753	5113
836.891	5246
837.029	5254
837.167	5265
837.305	5155
837.443	5162
837.58	5075
837.718	5204
837.856	5189
837.993	5132
838.131	5242
838.269	5174
838.406	5170
838.544	5166
838.681	5041
838.819	5014
838.956	4885
839.094	4896
839.231	4987
839.369	5124
839.506	5436
839.643	5315
839.781	5033
839.918	5010
840.055	5090
840.193	5079
840.33	5121
840.467	5117
840.604	5208
840.742	5379
840.879	5098
841.016	5117
841.153	5143
841.29	5417
841.427	5360
841.564	5334
841.701	5357
841.838	5201
841.975	5280
842.112	5216
842.249	5162
842.385	5105
842.522	5239
842.659	5174
842.796	5170
842.933	5185
843.069	5109
843.206	5189
843.343	5311
843.479	5235
843.616	5220
843.752	5060
843.889	5022
844.025	5197
844.162	5060
844.298	5166
844.435	5071
844.571	5022
844.708	5166
844.844	5318
844.98	5368
845.117	5258
845.253	5132
845.389	5090
845.525	5136
845.661	5117
845.798	5033
845.934	5075
846.07	5041
846.206	5220
846.342	5258
846.478	5204
846.614	4987
846.75	4995
846.886	4934
847.022	5109
847.158	5003
847.294	5048
847.429	5102
847.565	5041
847.701	5311
847.837	4870
847.972	4793
848.108	4957
848.244	4915
848.379	4801
848.515	4740
848.65	4691
848.786	4721
848.921	4790
849.057	4866
849.192	4889
849.328	4805
849.463	4801
849.598	4763
849.734	4752
849.869	4698
850.004	4634
850.14	4672
850.275	4611
850.41	4527
850.545	4569
850.68	4565
850.815	4588
850.95	4641
851.085	4866
851.22	4748
851.355	4668
851.49	4588
851.625	4656
851.76	4577
851.895	4565
852.03	4512
852.165	4645
852.299	4710
852.434	4755
852.569	4759
852.703	4767
852.838	4831
852.973	4923
853.107	4892
853.242	4702
853.376	4675
853.511	4550
853.645	4607
853.78	4843
853.914	4714
854.048	4622
854.183	4656
854.317	4694
854.451	4858
854.585	4653
854.72	4622
854.854	4752
854.988	4554
855.122	4603
855.256	4519
855.39	4618
855.524	4793
855.658	4706
855.792	4683
855.926	4710
856.06	4752
856.194	4820
856.327	4706
856.461	4558
856.595	4603
856.729	4618
856.862	4759
856.996	4698
857.13	4710
857.263	4759
857.397	4774
857.53	4622
857.664	4683
857.797	4771
857.931	4717
858.064	4694
858.197	4752
858.331	4592
858.464	4622
858.597	4485
858.731	4637
858.864	4626
858.997	4569
859.13	4634
859.263	4653
859.396	4702
859.529	4611
859.662	4516
859.795	4519
859.928	4584
860.061	4748
860.194	4782
860.327	4561
860.46	4554
860.592	4645
860.725	4744
860.858	4714
860.99	4542
861.123	4493
861.256	4542
861.388	4653
861.521	5322
861.653	4459
861.786	4455
861.918	4402
862.05	4481
862.183	4516
862.315	4592
862.447	4649
862.58	4512
862.712	4390
862.844	4322
862.976	4474
863.108	4455
863.24	4850
863.372	4341
863.504	4417
863.636	4402
863.768	4440
863.9	4417
864.032	4371
864.164	4436
864.296	4474
864.428	4577
864.559	4561
864.691	4443
864.823	4500
864.954	4440
865.086	4516
865.217	4428
865.349	4436
865.48	4402
865.612	4466
865.743	4626
865.875	4402
866.006	4428
866.137	4447
866.269	4424
866.4	4405
866.531	4386
866.662	4344
866.793	4356
866.924	4394
867.055	4485
867.186	4462
867.317	4360
867.448	4379
867.579	4390
867.71	4367
867.841	4356
867.972	4394
868.103	4428
868.233	4455
868.364	4466
868.495	4470
868.625	4710
868.756	4740
868.886	4580
869.017	4668
869.147	4744
869.278	4759
869.408	4668
869.539	4618
869.669	4710
869.799	4637
869.929	4740
870.06	4702
870.19	4953
870.32	4889
870.45	4927
870.58	5014
870.71	5037
870.84	5113
870.97	4972
871.1	4900
871.23	5204
871.36	5117
871.489	5045
871.619	5052
871.749	5086
871.879	5056
872.008	5155
872.138	4984
872.267	4987
872.397	4858
872.526	4771
872.656	4691
872.785	4839
872.915	4949
873.044	5006
873.173	4930
873.303	4980
873.432	4942
873.561	4946
873.69	4839
873.819	4862
873.948	4873
874.077	4793
874.206	4786
874.335	4824
874.464	4915
874.593	4984
874.722	4915
874.851	5117
874.979	5010
875.108	5056
875.237	4900
875.365	4877
875.494	4919
875.623	5056
875.751	4797
875.88	4889
876.008	4934
876.136	5006
876.265	5166
876.393	5258
876.521	5235
876.65	5220
876.778	5174
876.906	5048
877.034	5071
877.162	5025
877.29	4957
877.418	5014
877.546	5022
877.674	5003
877.802	5010
877.93	5022
878.058	4930
878.185	4934
878.313	4984
878.441	5003
878.568	4831
878.696	4854
878.824	4915
878.951	4999
879.079	5128
879.206	5273
879.333	5060
879.461	4949
879.588	4984
879.715	5098
879.842	5208
879.97	5056
880.097	4752
880.224	4774
880.351	4782
880.478	4797
880.605	4790
880.732	4714
880.859	5117
880.986	4930
881.112	4896
881.239	4801
881.366	4637
881.493	4618
881.619	4546
881.746	4592
881.872	4656
881.999	4626
882.125	4664
882.252	4782
882.378	4809
882.505	4911
882.631	4759
882.757	4702
882.883	4744
883.01	4702
883.136	4733
883.262	4611
883.388	4580
883.514	4805
883.64	4839
883.766	4744
883.892	4672
884.018	4702
884.143	4892
884.269	4923
884.395	4706
884.52	4641
884.646	4679
884.772	4550
884.897	4569
885.023	4660
885.148	4763
885.274	4908
885.399	4812
885.524	4706
885.65	4675
885.775	4740
885.9	4698
886.025	4892
886.15	4748
886.275	4725
886.4	4626
886.525	4679
886.65	4710
886.775	4740
886.9	4930
887.025	5006
887.149	4786
887.274	4626
887.399	4580
887.523	4672
887.648	4546
887.773	4569
887.897	4763
888.021	4771
888.146	4683
888.27	4786
888.395	4892
888.519	4797
888.643	4824
888.767	4820
888.891	4660
889.015	4615
889.139	4656
889.263	4592
889.387	4744
889.511	4828
889.635	4839
889.759	4615
889.883	4645
890.006	4736
890.13	4774
890.254	4607
890.377	4649
890.501	4504
890.624	4554
890.748	4660
890.871	4531
890.995	4424
891.118	4375
891.241	4478
891.364	4516
891.488	4664
891.611	4478
891.734	4535
891.857	4615
891.98	4542
892.103	4656
892.226	4542
892.349	4523
892.471	4421
892.594	4554
892.717	4626
892.839	4596
892.962	4596
893.085	4660
893.207	4580
893.33	4447
893.452	4478
893.575	4637
893.697	4550
893.819	4771
893.941	4831
894.064	4778
894.186	4577
894.308	4527
894.43	4733
894.552	4805
894.674	4740
894.796	4565
894.918	4561
895.04	4569
895.161	4691
895.283	4603
895.405	4558
895.526	4596
895.648	4706
895.769	4767
895.891	4687
896.012	4733
896.134	4717
896.255	4668
896.376	4615
896.498	4603
896.619	4645
896.74	4561
896.861	4599
896.982	4896
897.103	5029
897.224	4831
897.345	4740
897.466	4679
897.587	4748
897.708	4908
897.828	4778
897.949	4622
898.07	4550
898.19	4634
898.311	4831
898.431	4607
898.552	4778
898.672	4744
898.792	4755
898.913	4729
899.033	4592
899.153	4512
899.273	4440
899.393	4489
899.513	4474
899.633	4516
899.753	4558
899.873	4493
899.993	4531
900.113	4497
900.232	4607
900.352	4546
900.472	4489
900.591	4413
900.711	4459
900.83	4440
900.95	4588
901.069	4660
901.189	4500
901.308	4333
901.427	4261
901.546	4360
901.665	4455
901.784	4546
901.904	4356
902.023	4337
902.141	4158
902.26	4204
902.379	4276
902.498	4204
902.617	4238
902.735	4329
902.854	4383
902.973	4329
903.091	4192
903.21	4242
903.328	4299
903.446	4215
903.565	4268
903.683	4322
903.801	4268
903.919	4363
904.038	4455
904.156	4306
904.274	4413
904.392	4402
904.51	4424
904.627	4485
904.745	4565
904.863	4634
904.981	4371
905.098	4295
905.216	4344
905.334	4421
905.451	4428
905.569	4447
905.686	4542
905.803	4542
905.921	4451
906.038	4611
906.155	4462
906.272	4375
906.389	4516
906.506	4356
906.623	4375
906.74	4348
906.857	4356
906.974	4424
907.091	4527
907.208	4683
907.324	4618
907.441	4497
907.557	4306
907.674	4352
907.79	4310
907.907	4394
908.023	4470
908.139	4512
908.256	4459
908.372	4466
908.488	4455
908.604	4383
908.72	4306
908.836	4344
908.952	4356
909.068	4413
909.184	4599
909.3	4451
909.415	4546
909.531	4546
909.647	4337
909.762	4363
909.878	4344
909.993	4436
910.108	4379
910.224	4379
910.339	4443
910.454	4386
910.57	4379
910.685	4314
910.8	4634
910.915	4596
911.03	4459
911.145	4344
911.259	4280
911.374	4367
911.489	4265
911.604	4299
911.718	4158
911.833	4154
911.947	4105
912.062	4032
912.176	4238
912.291	4223
912.405	4219
912.519	4466
912.633	4516
912.748	4356
912.862	4348
912.976	4200
913.09	4131
913.204	4150
913.318	4249
913.431	4383
913.545	4310
913.659	4379
913.772	4333
913.886	4227
914	4200
914.113	4352
914.226	4436
914.34	4428
914.453	4238
914.566	4481
914.68	4299
914.793	4325
914.906	4101
915.019	4124
915.132	4036
915.245	4200
915.358	4181
915.47	4227
915.583	4272
915.696	4341
915.809	4394
915.921	4402
916.034	4257
916.146	4249
916.259	4227
916.371	4379
916.483	4383
916.595	4242
916.708	4341
916.82	4303
916.932	4303
917.044	4333
917.156	4363
917.268	4200
917.38	4261
917.491	4295
917.603	4352
917.715	4424
917.826	4459
917.938	4337
918.049	4238
918.161	4344
918.272	4493
918.384	4554
918.495	4459
918.606	4287
918.717	4234
918.828	4333
918.939	4352
919.05	4306
919.161	4287
919.272	4101
919.383	4204
919.494	4413
919.604	4645
919.715	4443
919.826	4344
919.936	4363
920.047	4519
920.157	4497
920.267	4675
920.378	4531
920.488	4497
920.598	4702
920.708	4885
920.818	4771
920.928	4721
921.038	4934
921.148	4900
921.258	4577
921.368	4573
921.477	4519
921.587	4478
921.697	4383
921.806	4508
921.916	4447
922.025	4223
922.134	4230
922.244	4204
922.353	4314
922.462	4158
922.571	4150
922.68	4017
922.789	3975
922.898	4021
923.007	3998
923.116	4116
923.224	4074
923.333	4063
923.442	3998
923.55	3941
923.659	3994
923.767	4097
923.876	4002
923.984	4131
924.092	3979
924.201	4048
924.309	4078
924.417	4120
924.525	4078
924.633	4105
924.741	5048
924.849	3892
924.956	4124
925.064	4006
925.172	3918
925.279	3956
925.387	4036
925.494	4044
925.602	4192
925.709	4147
925.816	3991
925.924	4154
926.031	4211
926.138	4211
926.245	4230
926.352	4074
926.459	4253
926.566	4295
926.673	4158
926.779	4078
926.886	4025
926.993	3941
927.099	3975
927.206	3960
927.312	3907
927.419	4040
927.525	4025
927.631	4112
927.737	3941
927.843	3975
927.95	3812
928.056	3934
928.162	3941
928.267	4059
928.373	4698
928.479	4166
928.585	3884
928.69	4021
928.796	4036
928.901	3979
929.007	3846
929.112	3983
929.218	3953
929.323	3953
929.428	3918
929.533	4093
929.638	3896
929.743	3918
929.848	4051
929.953	3987
930.058	3930
930.163	3812
930.267	3827
930.372	3949
930.477	3812
930.581	4105
930.685	3949
930.79	3835
930.894	3876
930.998	3850
931.103	4063
931.207	3694
931.311	3724
931.415	3690
931.519	3511
931.623	3519
