Data from test_V78500241_2646.txt Node
Date: Fri Mar 25 17:07:24 CST 2022
User: usil
Spectrometer: V785-0024
Trigger mode: 0
Integration Time (sec): 4.000000E-1
Scans to average: 1
Nonlinearity correction enabled: false
Boxcar width: 0
Storing dark spectrum: false
XAxis mode: Wavelengths
Number of Pixels in Spectrum: 1024
>>>>>Begin Spectral Data<<<<<
801.071	8035
801.214	7963
801.356	7913
801.499	7841
801.641	7795
801.783	7803
801.926	7936
802.068	7982
802.211	7944
802.353	7993
802.496	7822
802.638	7932
802.78	7928
802.923	7986
803.065	7932
803.208	7928
803.35	7974
803.492	8081
803.635	8180
803.777	8058
803.919	8134
804.061	8370
804.204	8100
804.346	8020
804.488	7925
804.63	8065
804.773	8001
804.915	8134
805.057	8298
805.199	8180
805.341	8244
805.483	8305
805.626	8282
805.768	8153
805.91	8202
806.052	8172
806.194	8039
806.336	8282
806.478	8187
806.62	8031
806.762	8134
806.904	8221
807.046	8412
807.188	8347
807.33	8290
807.472	8355
807.614	8145
807.756	8149
807.898	8058
808.04	7856
808.182	7868
808.324	7845
808.465	7963
808.607	8130
808.749	8210
808.891	8248
809.033	8347
809.174	8206
809.316	8046
809.458	8073
809.6	8035
809.741	7986
809.883	8016
810.025	8115
810.166	8081
810.308	8012
810.45	7970
810.591	7906
810.733	7666
810.875	7636
811.016	7544
811.158	7510
811.299	7594
811.441	7750
811.582	7670
811.724	7594
811.865	7548
812.007	7616
812.148	7605
812.29	7670
812.431	7734
812.573	7833
812.714	7986
812.855	8134
812.997	8214
813.138	8347
813.279	8164
813.421	8058
813.562	7993
813.703	7875
813.845	7807
813.986	7415
814.127	7289
814.268	7236
814.41	7187
814.551	7187
814.692	7225
814.833	7084
814.974	7110
815.115	7164
815.256	7015
815.397	6943
815.539	7000
815.68	6856
815.821	6791
815.962	6810
816.103	6783
816.244	6662
816.385	6631
816.526	6601
816.666	6494
816.807	6304
816.948	6479
817.089	6467
817.23	6395
817.371	6346
817.512	6346
817.653	6407
817.793	6380
817.934	6414
818.075	6418
818.216	6456
818.356	6376
818.497	6258
818.638	6213
818.778	6216
818.919	6167
819.06	6194
819.2	6292
819.341	6319
819.481	6357
819.622	6574
819.762	6760
819.903	6726
820.043	6585
820.184	6555
820.324	6597
820.465	6715
820.605	6688
820.746	6734
820.886	6525
821.026	6715
821.167	6722
821.307	6848
821.447	6852
821.588	6677
821.728	6623
821.868	6448
822.008	6395
822.149	6410
822.289	6369
822.429	6163
822.569	6182
822.709	6186
822.849	5935
822.99	5931
823.13	5988
823.27	5904
823.41	5790
823.55	5764
823.69	5767
823.83	5821
823.97	5672
824.11	5535
824.25	5558
824.389	5551
824.529	5573
824.669	5528
824.809	5627
824.949	5688
825.089	5665
825.228	5516
825.368	5391
825.508	5307
825.648	5341
825.787	5414
825.927	5402
826.067	5280
826.206	5265
826.346	5383
826.485	5379
826.625	5376
826.765	5547
826.904	5532
827.044	5280
827.183	5299
827.323	5124
827.462	5231
827.601	5143
827.741	5231
827.88	5239
828.02	5159
828.159	5212
828.298	5288
828.437	5387
828.577	5250
828.716	5497
828.855	5341
828.994	5166
829.134	5109
829.273	5239
829.412	5155
829.551	5128
829.69	5181
829.829	5235
829.968	5425
830.107	5254
830.246	5273
830.385	5166
830.524	5136
830.663	5113
830.802	5022
830.941	4854
831.08	4889
831.219	4946
831.357	5003
831.496	5170
831.635	4911
831.774	4866
831.913	4870
832.051	4759
832.19	4736
832.329	4870
832.467	4721
832.606	4683
832.744	4729
832.883	4694
833.022	4752
833.16	4839
833.299	4801
833.437	4793
833.576	4847
833.714	4889
833.852	4850
833.991	4889
834.129	4942
834.267	4942
834.406	4900
834.544	4942
834.682	4976
834.821	4965
834.959	5185
835.097	5006
835.235	5117
835.373	5067
835.511	5090
835.65	5056
835.788	5060
835.926	4885
836.064	4908
836.202	4911
836.34	5170
836.478	5201
836.615	5098
836.753	5235
836.891	5326
837.029	5204
837.167	5140
837.305	5159
837.443	5204
837.58	5052
837.718	5307
837.856	5178
837.993	5132
838.131	5227
838.269	5208
838.406	5204
838.544	5181
838.681	5113
838.819	5048
838.956	4892
839.094	4908
839.231	4995
839.369	5083
839.506	5376
839.643	5242
839.781	5075
839.918	5083
840.055	5166
840.193	5094
840.33	5102
840.467	5170
840.604	5193
840.742	5417
840.879	5067
841.016	5090
841.153	5166
841.29	5326
841.427	5337
841.564	5364
841.701	5337
841.838	5284
841.975	5231
842.112	5277
842.249	5174
842.385	5090
842.522	5360
842.659	5162
842.796	5105
842.933	5227
843.069	5178
843.206	5151
843.343	5277
843.479	5273
843.616	5269
843.752	5033
843.889	5018
844.025	5231
844.162	5010
844.298	5140
844.435	5094
844.571	5018
844.708	5193
844.844	5318
844.98	5315
845.117	5261
845.253	5204
845.389	5045
845.525	5159
845.661	5128
845.798	5022
845.934	5136
846.07	5056
846.206	5189
846.342	5311
846.478	5181
846.614	4995
846.75	4972
846.886	4961
847.022	5117
847.158	5060
847.294	5041
847.429	5098
847.565	5064
847.701	5315
847.837	4862
847.972	4797
848.108	4953
848.244	4904
848.379	4782
848.515	4782
848.65	4740
848.786	4691
848.921	4782
849.057	4881
849.192	4889
849.328	4801
849.463	4877
849.598	4790
849.734	4771
849.869	4668
850.004	4649
850.14	4660
850.275	4580
850.41	4519
850.545	4569
850.68	4588
850.815	4679
850.95	4694
851.085	4873
851.22	4736
851.355	4687
851.49	4611
851.625	4626
851.76	4603
851.895	4554
852.03	4580
852.165	4660
852.299	4733
852.434	4824
852.569	4736
852.703	4782
852.838	4820
852.973	4934
853.107	4908
853.242	4736
853.376	4653
853.511	4565
853.645	4577
853.78	4835
853.914	4714
854.048	4656
854.183	4607
854.317	4683
854.451	4835
854.585	4698
854.72	4660
854.854	4748
854.988	4588
855.122	4653
855.256	4497
855.39	4675
855.524	4812
855.658	4714
855.792	4702
855.926	4721
856.06	4763
856.194	4820
856.327	4675
856.461	4596
856.595	4607
856.729	4660
856.862	4763
856.996	4717
857.13	4721
857.263	4736
857.397	4828
857.53	4687
857.664	4725
857.797	4744
857.931	4755
858.064	4740
858.197	4755
858.331	4683
858.464	4588
858.597	4538
858.731	4622
858.864	4634
858.997	4592
859.13	4660
859.263	4630
859.396	4755
859.529	4550
859.662	4546
859.795	4546
859.928	4592
860.061	4778
860.194	4767
860.327	4622
860.46	4573
860.592	4725
860.725	4710
860.858	4710
860.99	4577
861.123	4485
861.256	4516
861.388	4611
861.521	5436
861.653	4516
861.786	4466
861.918	4485
862.05	4516
862.183	4569
862.315	4618
862.447	4634
862.58	4542
862.712	4398
862.844	4322
862.976	4455
863.108	4462
863.24	4763
863.372	4325
863.504	4447
863.636	4421
863.768	4508
863.9	4466
864.032	4371
864.164	4413
864.296	4459
864.428	4580
864.559	4565
864.691	4493
864.823	4519
864.954	4531
865.086	4504
865.217	4455
865.349	4421
865.48	4447
865.612	4485
865.743	4588
865.875	4462
866.006	4421
866.137	4417
866.269	4451
866.4	4436
866.531	4417
866.662	4417
866.793	4428
866.924	4409
867.055	4504
867.186	4459
867.317	4421
867.448	4428
867.579	4413
867.71	4394
867.841	4383
867.972	4481
868.103	4455
868.233	4459
868.364	4447
868.495	4459
868.625	4656
868.756	4774
868.886	4618
869.017	4656
869.147	4683
869.278	4733
869.408	4641
869.539	4637
869.669	4710
869.799	4607
869.929	4752
870.06	4702
870.19	4927
870.32	4900
870.45	4953
870.58	4972
870.71	5060
870.84	5140
870.97	4923
871.1	4934
871.23	5136
871.36	5121
871.489	4999
871.619	5079
871.749	5094
871.879	5147
872.008	5185
872.138	5037
872.267	5022
872.397	4862
872.526	4835
872.656	4767
872.785	4831
872.915	4984
873.044	5014
873.173	4961
873.303	4984
873.432	4957
873.561	4999
873.69	4873
873.819	4892
873.948	4980
874.077	4850
874.206	4721
874.335	4805
874.464	4961
874.593	5094
874.722	4961
874.851	5113
874.979	5052
875.108	5006
875.237	4858
875.365	4870
875.494	4885
875.623	4942
875.751	4801
875.88	4866
876.008	4987
876.136	5071
876.265	5174
876.393	5353
876.521	5277
876.65	5299
876.778	5147
876.906	5060
877.034	5014
877.162	5060
877.29	5071
877.418	5071
877.546	5060
877.674	5033
877.802	4999
877.93	5010
878.058	4904
878.185	4858
878.313	5048
878.441	4938
878.568	4820
878.696	4877
878.824	4961
878.951	4968
879.079	5170
879.206	5284
879.333	5079
879.461	4968
879.588	5014
879.715	5132
879.842	5216
879.97	4987
880.097	4839
880.224	4733
880.351	4828
880.478	4809
880.605	4793
880.732	4809
880.859	5037
880.986	4847
881.112	4900
881.239	4771
881.366	4634
881.493	4592
881.619	4561
881.746	4641
881.872	4679
881.999	4641
882.125	4679
882.252	4721
882.378	4835
882.505	4987
882.631	4809
882.757	4710
882.883	4687
883.01	4714
883.136	4653
883.262	4584
883.388	4653
883.514	4828
883.64	4862
883.766	4831
883.892	4641
884.018	4706
884.143	4866
884.269	5067
884.395	4668
884.52	4649
884.646	4721
884.772	4630
884.897	4546
885.023	4630
885.148	4771
885.274	4885
885.399	4809
885.524	4744
885.65	4706
885.775	4748
885.9	4717
886.025	4835
886.15	4790
886.275	4755
886.4	4649
886.525	4725
886.65	4656
886.775	4694
886.9	4942
887.025	5014
887.149	4847
887.274	4580
887.399	4630
887.523	4626
887.648	4588
887.773	4592
887.897	4771
888.021	4744
888.146	4656
888.27	4820
888.395	4820
888.519	4793
888.643	4820
888.767	4755
888.891	4679
889.015	4622
889.139	4672
889.263	4618
889.387	4752
889.511	4900
889.635	4793
889.759	4702
889.883	4679
890.006	4721
890.13	4782
890.254	4584
890.377	4698
890.501	4546
890.624	4531
890.748	4626
890.871	4500
890.995	4428
891.118	4371
891.241	4474
891.364	4531
891.488	4634
891.611	4550
891.734	4527
891.857	4554
891.98	4599
892.103	4592
892.226	4580
892.349	4489
892.471	4432
892.594	4550
892.717	4599
892.839	4573
892.962	4599
893.085	4645
893.207	4577
893.33	4451
893.452	4489
893.575	4637
893.697	4599
893.819	4809
893.941	4889
894.064	4790
894.186	4611
894.308	4592
894.43	4759
894.552	4820
894.674	4744
894.796	4588
894.918	4615
895.04	4577
895.161	4736
895.283	4641
895.405	4599
895.526	4615
895.648	4691
895.769	4694
895.891	4698
896.012	4706
896.134	4725
896.255	4664
896.376	4607
896.498	4675
896.619	4679
896.74	4592
896.861	4634
896.982	4923
897.103	5067
897.224	4843
897.345	4771
897.466	4710
897.587	4672
897.708	4877
897.828	4797
897.949	4653
898.07	4550
898.19	4664
898.311	4850
898.431	4679
898.552	4717
898.672	4797
898.792	4759
898.913	4801
899.033	4668
899.153	4527
899.273	4459
899.393	4508
899.513	4523
899.633	4508
899.753	4580
899.873	4535
899.993	4558
900.113	4535
900.232	4599
900.352	4577
900.472	4508
900.591	4417
900.711	4508
900.83	4432
900.95	4592
901.069	4675
901.189	4523
901.308	4405
901.427	4303
901.546	4348
901.665	4409
901.784	4500
901.904	4413
902.023	4333
902.141	4158
902.26	4169
902.379	4348
902.498	4253
902.617	4207
902.735	4352
902.854	4424
902.973	4341
903.091	4200
903.21	4227
903.328	4299
903.446	4265
903.565	4261
903.683	4363
903.801	4238
903.919	4417
904.038	4474
904.156	4306
904.274	4478
904.392	4451
904.51	4466
904.627	4405
904.745	4599
904.863	4630
904.981	4405
905.098	4356
905.216	4367
905.334	4379
905.451	4459
905.569	4424
905.686	4546
905.803	4558
905.921	4379
906.038	4523
906.155	4478
906.272	4413
906.389	4504
906.506	4318
906.623	4363
906.74	4413
906.857	4341
906.974	4402
907.091	4577
907.208	4721
907.324	4645
907.441	4459
907.557	4367
907.674	4379
907.79	4318
907.907	4363
908.023	4459
908.139	4481
908.256	4462
908.372	4512
908.488	4493
908.604	4383
908.72	4287
908.836	4348
908.952	4386
909.068	4432
909.184	4607
909.3	4500
909.415	4603
909.531	4527
909.647	4348
909.762	4363
909.878	4287
909.993	4440
910.108	4417
910.224	4390
910.339	4470
910.454	4443
910.57	4394
910.685	4333
910.8	4649
910.915	4618
911.03	4508
911.145	4295
911.259	4333
911.374	4383
911.489	4238
911.604	4265
911.718	4188
911.833	4204
911.947	4131
912.062	4059
912.176	4234
912.291	4215
912.405	4215
912.519	4474
912.633	4516
912.748	4356
912.862	4295
912.976	4196
913.09	4071
913.204	4207
913.318	4249
913.431	4337
913.545	4375
913.659	4398
913.772	4333
913.886	4284
914	4204
914.113	4337
914.226	4447
914.34	4386
914.453	4230
914.566	4466
914.68	4310
914.793	4348
914.906	4166
915.019	4124
915.132	4063
915.245	4246
915.358	4177
915.47	4253
915.583	4276
915.696	4333
915.809	4398
915.921	4447
916.034	4246
916.146	4257
916.259	4238
916.371	4363
916.483	4383
916.595	4257
916.708	4344
916.82	4322
916.932	4303
917.044	4329
917.156	4322
917.268	4246
917.38	4242
917.491	4249
917.603	4333
917.715	4424
917.826	4459
917.938	4341
918.049	4223
918.161	4398
918.272	4485
918.384	4542
918.495	4440
918.606	4280
918.717	4215
918.828	4348
918.939	4379
919.05	4246
919.161	4348
919.272	4169
919.383	4181
919.494	4428
919.604	4573
919.715	4413
919.826	4341
919.936	4398
920.047	4538
920.157	4535
920.267	4656
920.378	4535
920.488	4516
920.598	4714
920.708	4801
920.818	4740
920.928	4721
921.038	4949
921.148	4854
921.258	4596
921.368	4588
921.477	4481
921.587	4440
921.697	4375
921.806	4569
921.916	4447
922.025	4299
922.134	4268
922.244	4249
922.353	4329
922.462	4185
922.571	4139
922.68	4025
922.789	3907
922.898	4021
923.007	3975
923.116	4078
923.224	4090
923.333	4090
923.442	4044
923.55	3949
923.659	4044
923.767	4055
923.876	3983
923.984	4147
924.092	3975
924.201	4059
924.309	4105
924.417	4090
924.525	4082
924.633	4090
924.741	5041
924.849	3899
924.956	4154
925.064	3960
925.172	3934
925.279	3941
925.387	4055
925.494	4059
925.602	4196
925.709	4204
925.816	3998
925.924	4116
926.031	4196
926.138	4204
926.245	4227
926.352	4078
926.459	4215
926.566	4314
926.673	4158
926.779	4071
926.886	4044
926.993	3998
927.099	3953
927.206	3930
927.312	3911
927.419	4048
927.525	4021
927.631	4105
927.737	3953
927.843	3972
927.95	3869
928.056	3972
928.162	3949
928.267	4025
928.373	4611
928.479	4101
928.585	3907
928.69	3998
928.796	4032
928.901	3945
929.007	3842
929.112	3972
929.218	3968
929.323	3945
929.428	3903
929.533	4131
929.638	3922
929.743	3960
929.848	4025
929.953	3998
930.058	3987
930.163	3762
930.267	3835
930.372	3956
930.477	3804
930.581	4074
930.685	3941
930.79	3838
930.894	3869
930.998	3850
931.103	4071
931.207	3698
931.311	3679
931.415	3652
931.519	3561
931.623	3530
