Data from test_V78500241_197.txt Node
Date: Fri Mar 25 16:50:22 CST 2022
User: usil
Spectrometer: V785-0024
Trigger mode: 0
Integration Time (sec): 4.000000E-1
Scans to average: 1
Nonlinearity correction enabled: false
Boxcar width: 0
Storing dark spectrum: false
XAxis mode: Wavelengths
Number of Pixels in Spectrum: 1024
>>>>>Begin Spectral Data<<<<<
801.071	8081
801.214	7967
801.356	7830
801.499	7826
801.641	7799
801.783	7890
801.926	7978
802.068	8012
802.211	7940
802.353	7982
802.496	7868
802.638	7936
802.78	7932
802.923	7894
803.065	7875
803.208	7860
803.35	7967
803.492	8126
803.635	8168
803.777	7974
803.919	8035
804.061	8351
804.204	8161
804.346	8088
804.488	7982
804.63	8039
804.773	8016
804.915	8062
805.057	8263
805.199	8065
805.341	8183
805.483	8202
805.626	8195
805.768	8145
805.91	8134
806.052	8199
806.194	8069
806.336	8362
806.478	8058
806.62	8062
806.762	8126
806.904	8138
807.046	8438
807.188	8290
807.33	8279
807.472	8290
807.614	8153
807.756	8168
807.898	7970
808.04	7883
808.182	7841
808.324	7879
808.465	7898
808.607	8043
808.749	8123
808.891	8229
809.033	8317
809.174	8168
809.316	8073
809.458	8020
809.6	7936
809.741	8062
809.883	7986
810.025	8027
810.166	8020
810.308	8065
810.45	7871
810.591	7860
810.733	7689
810.875	7681
811.016	7487
811.158	7518
811.299	7647
811.441	7742
811.582	7761
811.724	7533
811.865	7552
812.007	7628
812.148	7636
812.29	7670
812.431	7757
812.573	7860
812.714	8012
812.855	8221
812.997	8221
813.138	8358
813.279	8183
813.421	8046
813.562	8031
813.703	7841
813.845	7803
813.986	7419
814.127	7274
814.268	7312
814.41	7251
814.551	7171
814.692	7202
814.833	7145
814.974	7232
815.115	7179
815.256	6966
815.397	6939
815.539	6966
815.68	6848
815.821	6825
815.962	6894
816.103	6810
816.244	6768
816.385	6662
816.526	6669
816.666	6506
816.807	6323
816.948	6441
817.089	6460
817.23	6452
817.371	6369
817.512	6388
817.653	6395
817.793	6372
817.934	6331
818.075	6467
818.216	6410
818.356	6448
818.497	6175
818.638	6114
818.778	6110
818.919	6129
819.06	6087
819.2	6300
819.341	6300
819.481	6327
819.622	6502
819.762	6707
819.903	6673
820.043	6597
820.184	6620
820.324	6635
820.465	6681
820.605	6681
820.746	6597
820.886	6498
821.026	6677
821.167	6726
821.307	6757
821.447	6745
821.588	6707
821.728	6574
821.868	6448
822.008	6292
822.149	6331
822.289	6334
822.429	6133
822.569	6102
822.709	6129
822.849	5908
822.99	5908
823.13	5904
823.27	5885
823.41	5748
823.55	5771
823.69	5786
823.83	5817
823.97	5642
824.11	5532
824.25	5509
824.389	5608
824.529	5611
824.669	5539
824.809	5646
824.949	5672
825.089	5623
825.228	5547
825.368	5402
825.508	5311
825.648	5353
825.787	5379
825.927	5360
826.067	5250
826.206	5284
826.346	5364
826.485	5414
826.625	5433
826.765	5577
826.904	5452
827.044	5277
827.183	5223
827.323	5166
827.462	5273
827.601	5212
827.741	5162
827.88	5216
828.02	5121
828.159	5193
828.298	5277
828.437	5391
828.577	5261
828.716	5444
828.855	5307
828.994	5181
829.134	5124
829.273	5155
829.412	5128
829.551	5170
829.69	5193
829.829	5235
829.968	5376
830.107	5246
830.246	5212
830.385	5181
830.524	5201
830.663	5109
830.802	5003
830.941	4862
831.08	4908
831.219	4938
831.357	5006
831.496	5204
831.635	4942
831.774	4820
831.913	4858
832.051	4755
832.19	4744
832.329	4797
832.467	4679
832.606	4618
832.744	4721
832.883	4706
833.022	4744
833.16	4759
833.299	4778
833.437	4771
833.576	4820
833.714	4850
833.852	4854
833.991	4850
834.129	4930
834.267	4934
834.406	4908
834.544	5006
834.682	4953
834.821	4942
834.959	5132
835.097	5018
835.235	5128
835.373	5079
835.511	5124
835.65	4999
835.788	4995
835.926	4919
836.064	4858
836.202	4946
836.34	5178
836.478	5292
836.615	5086
836.753	5239
836.891	5284
837.029	5277
837.167	5189
837.305	5162
837.443	5170
837.58	5098
837.718	5284
837.856	5162
837.993	5132
838.131	5265
838.269	5197
838.406	5242
838.544	5189
838.681	5029
838.819	4991
838.956	4889
839.094	4873
839.231	4987
839.369	5079
839.506	5429
839.643	5235
839.781	5071
839.918	5018
840.055	5121
840.193	5109
840.33	5155
840.467	5193
840.604	5159
840.742	5433
840.879	5041
841.016	5109
841.153	5155
841.29	5349
841.427	5292
841.564	5277
841.701	5311
841.838	5296
841.975	5261
842.112	5258
842.249	5124
842.385	5052
842.522	5341
842.659	5223
842.796	5105
842.933	5216
843.069	5090
843.206	5151
843.343	5292
843.479	5261
843.616	5254
843.752	5048
843.889	5052
844.025	5212
844.162	5045
844.298	5201
844.435	5113
844.571	5048
844.708	5193
844.844	5322
844.98	5341
845.117	5315
845.253	5105
845.389	5083
845.525	5151
845.661	5143
845.798	4980
845.934	5147
846.07	5102
846.206	5178
846.342	5254
846.478	5197
846.614	4980
846.75	4965
846.886	4938
847.022	5143
847.158	5022
847.294	5037
847.429	5124
847.565	5048
847.701	5307
847.837	4896
847.972	4831
848.108	4927
848.244	4942
848.379	4793
848.515	4748
848.65	4744
848.786	4774
848.921	4752
849.057	4942
849.192	4911
849.328	4816
849.463	4839
849.598	4839
849.734	4767
849.869	4717
850.004	4611
850.14	4645
850.275	4588
850.41	4516
850.545	4538
850.68	4660
850.815	4634
850.95	4660
851.085	4839
851.22	4797
851.355	4656
851.49	4607
851.625	4668
851.76	4694
851.895	4588
852.03	4565
852.165	4664
852.299	4679
852.434	4790
852.569	4763
852.703	4778
852.838	4778
852.973	4957
853.107	4934
853.242	4767
853.376	4675
853.511	4489
853.645	4630
853.78	4812
853.914	4687
854.048	4630
854.183	4645
854.317	4694
854.451	4866
854.585	4656
854.72	4618
854.854	4774
854.988	4588
855.122	4626
855.256	4542
855.39	4694
855.524	4786
855.658	4698
855.792	4694
855.926	4774
856.06	4706
856.194	4801
856.327	4653
856.461	4637
856.595	4626
856.729	4599
856.862	4725
856.996	4702
857.13	4687
857.263	4752
857.397	4786
857.53	4622
857.664	4740
857.797	4733
857.931	4755
858.064	4664
858.197	4736
858.331	4634
858.464	4641
858.597	4531
858.731	4622
858.864	4630
858.997	4615
859.13	4687
859.263	4645
859.396	4706
859.529	4577
859.662	4527
859.795	4565
859.928	4706
860.061	4763
860.194	4763
860.327	4634
860.46	4618
860.592	4729
860.725	4710
860.858	4717
860.99	4607
861.123	4500
861.256	4531
861.388	4626
861.521	5417
861.653	4462
861.786	4447
861.918	4413
862.05	4542
862.183	4523
862.315	4599
862.447	4672
862.58	4561
862.712	4386
862.844	4299
862.976	4470
863.108	4455
863.24	4877
863.372	4341
863.504	4455
863.636	4436
863.768	4462
863.9	4443
864.032	4337
864.164	4413
864.296	4455
864.428	4577
864.559	4603
864.691	4538
864.823	4542
864.954	4538
865.086	4558
865.217	4462
865.349	4428
865.48	4455
865.612	4478
865.743	4653
865.875	4432
866.006	4417
866.137	4512
866.269	4455
866.4	4451
866.531	4413
866.662	4398
866.793	4367
866.924	4417
867.055	4493
867.186	4405
867.317	4417
867.448	4394
867.579	4379
867.71	4402
867.841	4405
867.972	4474
868.103	4440
868.233	4443
868.364	4497
868.495	4462
868.625	4672
868.756	4801
868.886	4607
869.017	4637
869.147	4771
869.278	4763
869.408	4668
869.539	4672
869.669	4714
869.799	4694
869.929	4786
870.06	4736
870.19	4949
870.32	4938
870.45	4984
870.58	5018
870.71	5117
870.84	5117
870.97	4972
871.1	4911
871.23	5132
871.36	5178
871.489	5025
871.619	5109
871.749	5060
871.879	5140
872.008	5197
872.138	5037
872.267	5006
872.397	4816
872.526	4805
872.656	4763
872.785	4839
872.915	4949
873.044	4984
873.173	4934
873.303	4965
873.432	4961
873.561	4961
873.69	4843
873.819	4847
873.948	4896
874.077	4812
874.206	4736
874.335	4797
874.464	4942
874.593	5075
874.722	4946
874.851	5147
874.979	5045
875.108	5056
875.237	4908
875.365	4927
875.494	4942
875.623	4980
875.751	4839
875.88	4873
876.008	4984
876.136	4987
876.265	5220
876.393	5349
876.521	5216
876.65	5208
876.778	5162
876.906	5056
877.034	4987
877.162	5071
877.29	5003
877.418	5094
877.546	5094
877.674	5037
877.802	5037
877.93	5033
878.058	4953
878.185	4927
878.313	4911
878.441	4961
878.568	4752
878.696	4858
878.824	4953
878.951	5003
879.079	5113
879.206	5337
879.333	5090
879.461	5014
879.588	5025
879.715	5124
879.842	5250
879.97	5025
880.097	4847
880.224	4767
880.351	4877
880.478	4854
880.605	4812
880.732	4809
880.859	5086
880.986	4889
881.112	4942
881.239	4809
881.366	4668
881.493	4599
881.619	4626
881.746	4683
881.872	4675
881.999	4675
882.125	4710
882.252	4748
882.378	4805
882.505	4942
882.631	4812
882.757	4721
882.883	4706
883.01	4790
883.136	4675
883.262	4641
883.388	4592
883.514	4850
883.64	4896
883.766	4839
883.892	4702
884.018	4740
884.143	4911
884.269	5029
884.395	4679
884.52	4675
884.646	4660
884.772	4618
884.897	4603
885.023	4626
885.148	4740
885.274	4866
885.399	4793
885.524	4691
885.65	4706
885.775	4774
885.9	4698
886.025	4824
886.15	4809
886.275	4691
886.4	4668
886.525	4706
886.65	4687
886.775	4694
886.9	4889
887.025	5071
887.149	4816
887.274	4683
887.399	4596
887.523	4611
887.648	4634
887.773	4615
887.897	4733
888.021	4790
888.146	4706
888.27	4820
888.395	4961
888.519	4805
888.643	4812
888.767	4847
888.891	4679
889.015	4611
889.139	4687
889.263	4607
889.387	4778
889.511	4862
889.635	4812
889.759	4641
889.883	4653
890.006	4691
890.13	4870
890.254	4637
890.377	4721
890.501	4573
890.624	4538
890.748	4618
890.871	4542
890.995	4436
891.118	4363
891.241	4538
891.364	4561
891.488	4637
891.611	4485
891.734	4538
891.857	4649
891.98	4569
892.103	4622
892.226	4618
892.349	4535
892.471	4413
892.594	4558
892.717	4615
892.839	4592
892.962	4622
893.085	4694
893.207	4561
893.33	4447
893.452	4535
893.575	4691
893.697	4607
893.819	4763
893.941	4870
894.064	4767
894.186	4596
894.308	4569
894.43	4767
894.552	4908
894.674	4782
894.796	4542
894.918	4618
895.04	4592
895.161	4706
895.283	4698
895.405	4580
895.526	4618
895.648	4714
895.769	4672
895.891	4706
896.012	4805
896.134	4748
896.255	4672
896.376	4637
896.498	4607
896.619	4691
896.74	4687
896.861	4653
896.982	4908
897.103	5086
897.224	4824
897.345	4733
897.466	4679
897.587	4736
897.708	4847
897.828	4809
897.949	4660
898.07	4554
898.19	4622
898.311	4828
898.431	4664
898.552	4733
898.672	4854
898.792	4835
898.913	4736
899.033	4668
899.153	4504
899.273	4390
899.393	4481
899.513	4538
899.633	4569
899.753	4580
899.873	4565
899.993	4596
900.113	4493
900.232	4577
900.352	4558
900.472	4470
900.591	4413
900.711	4497
900.83	4455
900.95	4615
901.069	4702
901.189	4508
901.308	4371
901.427	4337
901.546	4417
901.665	4440
901.784	4500
901.904	4417
902.023	4356
902.141	4185
902.26	4238
902.379	4352
902.498	4261
902.617	4246
902.735	4402
902.854	4432
902.973	4367
903.091	4230
903.21	4207
903.328	4314
903.446	4268
903.565	4246
903.683	4390
903.801	4325
903.919	4436
904.038	4459
904.156	4329
904.274	4421
904.392	4398
904.51	4443
904.627	4466
904.745	4599
904.863	4634
904.981	4428
905.098	4310
905.216	4318
905.334	4466
905.451	4428
905.569	4443
905.686	4554
905.803	4622
905.921	4474
906.038	4542
906.155	4474
906.272	4379
906.389	4504
906.506	4356
906.623	4367
906.74	4428
906.857	4329
906.974	4375
907.091	4596
907.208	4679
907.324	4584
907.441	4470
907.557	4344
907.674	4325
907.79	4291
907.907	4405
908.023	4512
908.139	4478
908.256	4462
908.372	4470
908.488	4462
908.604	4379
908.72	4352
908.836	4329
908.952	4383
909.068	4379
909.184	4592
909.3	4447
909.415	4588
909.531	4580
909.647	4325
909.762	4367
909.878	4337
909.993	4402
910.108	4485
910.224	4379
910.339	4500
910.454	4440
910.57	4314
910.685	4314
910.8	4645
910.915	4535
911.03	4535
911.145	4371
911.259	4383
911.374	4363
911.489	4295
911.604	4287
911.718	4185
911.833	4181
911.947	4128
912.062	4093
912.176	4227
912.291	4230
912.405	4238
912.519	4455
912.633	4512
912.748	4352
912.862	4325
912.976	4200
913.09	4093
913.204	4185
913.318	4253
913.431	4386
913.545	4383
913.659	4390
913.772	4424
913.886	4303
914	4207
914.113	4398
914.226	4447
914.34	4417
914.453	4230
914.566	4462
914.68	4310
914.793	4356
914.906	4166
915.019	4139
915.132	4071
915.245	4196
915.358	4257
915.47	4238
915.583	4295
915.696	4272
915.809	4383
915.921	4417
916.034	4284
916.146	4268
916.259	4234
916.371	4428
916.483	4363
916.595	4291
916.708	4310
916.82	4337
916.932	4360
917.044	4318
917.156	4318
917.268	4169
917.38	4257
917.491	4249
917.603	4383
917.715	4421
917.826	4432
917.938	4386
918.049	4223
918.161	4424
918.272	4565
918.384	4550
918.495	4493
918.606	4333
918.717	4284
918.828	4310
918.939	4344
919.05	4257
919.161	4322
919.272	4124
919.383	4276
919.494	4470
919.604	4664
919.715	4413
919.826	4386
919.936	4421
920.047	4554
920.157	4531
920.267	4714
920.378	4599
920.488	4504
920.598	4725
920.708	4927
920.818	4771
920.928	4740
921.038	4938
921.148	4934
921.258	4618
921.368	4512
921.477	4516
921.587	4497
921.697	4394
921.806	4561
921.916	4466
922.025	4261
922.134	4287
922.244	4238
922.353	4299
922.462	4215
922.571	4162
922.68	3991
922.789	3994
922.898	4051
923.007	3968
923.116	4093
923.224	4036
923.333	4124
923.442	3979
923.55	3998
923.659	4036
923.767	4074
923.876	4021
923.984	4147
924.092	3987
924.201	4063
924.309	4071
924.417	4169
924.525	4093
924.633	4135
924.741	4885
924.849	3945
924.956	4131
925.064	3956
925.172	3922
925.279	3949
925.387	4086
925.494	4101
925.602	4177
925.709	4166
925.816	4055
925.924	4124
926.031	4211
926.138	4131
926.245	4196
926.352	4044
926.459	4261
926.566	4329
926.673	4169
926.779	4074
926.886	4071
926.993	4051
927.099	3964
927.206	3922
927.312	3945
927.419	4090
927.525	4021
927.631	4124
927.737	3983
927.843	3949
927.95	3831
928.056	3953
928.162	3991
928.267	4051
928.373	4717
928.479	4166
928.585	3899
928.69	4036
928.796	4059
928.901	3968
929.007	3876
929.112	4002
929.218	3968
929.323	3941
929.428	3941
929.533	4105
929.638	3960
929.743	3987
929.848	4051
929.953	3987
930.058	3960
930.163	3781
930.267	3797
930.372	4051
930.477	3850
930.581	4128
930.685	3956
930.79	3846
930.894	3865
930.998	3850
931.103	4063
931.207	3743
931.311	3762
931.415	3698
931.519	3580
931.623	3576
