Data from test_V78500241_307.txt Node
Date: Fri Mar 25 16:51:08 CST 2022
User: usil
Spectrometer: V785-0024
Trigger mode: 0
Integration Time (sec): 4.000000E-1
Scans to average: 1
Nonlinearity correction enabled: false
Boxcar width: 0
Storing dark spectrum: false
XAxis mode: Wavelengths
Number of Pixels in Spectrum: 1024
>>>>>Begin Spectral Data<<<<<
801.071	8096
801.214	8043
801.356	7909
801.499	7826
801.641	7868
801.783	7852
801.926	8020
802.068	7940
802.211	7947
802.353	7936
802.496	7833
802.638	7967
802.78	7917
802.923	7963
803.065	7925
803.208	7818
803.35	7947
803.492	8043
803.635	8092
803.777	7940
803.919	8157
804.061	8450
804.204	8149
804.346	8062
804.488	7955
804.63	8103
804.773	7970
804.915	8069
805.057	8298
805.199	8111
805.341	8248
805.483	8271
805.626	8138
805.768	8107
805.91	8145
806.052	8164
806.194	8039
806.336	8263
806.478	8168
806.62	8065
806.762	8176
806.904	8252
807.046	8473
807.188	8389
807.33	8328
807.472	8328
807.614	8130
807.756	8172
807.898	8001
808.04	7833
808.182	7856
808.324	7928
808.465	8012
808.607	8073
808.749	8081
808.891	8256
809.033	8294
809.174	8138
809.316	8065
809.458	8062
809.6	8016
809.741	8039
809.883	8016
810.025	8130
810.166	8123
810.308	8031
810.45	7982
810.591	7871
810.733	7723
810.875	7651
811.016	7480
811.158	7510
811.299	7639
811.441	7784
811.582	7681
811.724	7533
811.865	7601
812.007	7594
812.148	7624
812.29	7670
812.431	7765
812.573	7890
812.714	8008
812.855	8119
812.997	8191
813.138	8290
813.279	8115
813.421	7997
813.562	8065
813.703	7818
813.845	7765
813.986	7430
814.127	7305
814.268	7236
814.41	7190
814.551	7187
814.692	7126
814.833	7072
814.974	7076
815.115	7164
815.256	6894
815.397	6920
815.539	6966
815.68	6802
815.821	6779
815.962	6814
816.103	6821
816.244	6707
816.385	6608
816.526	6635
816.666	6544
816.807	6342
816.948	6448
817.089	6414
817.23	6475
817.371	6418
817.512	6350
817.653	6388
817.793	6380
817.934	6380
818.075	6437
818.216	6483
818.356	6418
818.497	6175
818.638	6068
818.778	6186
818.919	6133
819.06	6083
819.2	6308
819.341	6304
819.481	6384
819.622	6467
819.762	6783
819.903	6692
820.043	6578
820.184	6574
820.324	6578
820.465	6646
820.605	6665
820.746	6696
820.886	6536
821.026	6623
821.167	6749
821.307	6753
821.447	6779
821.588	6620
821.728	6566
821.868	6467
822.008	6308
822.149	6331
822.289	6391
822.429	6209
822.569	6053
822.709	6117
822.849	5920
822.99	5840
823.13	5927
823.27	5923
823.41	5821
823.55	5817
823.69	5737
823.83	5821
823.97	5649
824.11	5562
824.25	5497
824.389	5570
824.529	5585
824.669	5497
824.809	5630
824.949	5630
825.089	5608
825.228	5524
825.368	5421
825.508	5372
825.648	5318
825.787	5364
825.927	5406
826.067	5334
826.206	5292
826.346	5395
826.485	5395
826.625	5433
826.765	5570
826.904	5433
827.044	5258
827.183	5231
827.323	5086
827.462	5235
827.601	5220
827.741	5147
827.88	5220
828.02	5140
828.159	5204
828.298	5296
828.437	5341
828.577	5322
828.716	5478
828.855	5311
828.994	5162
829.134	5162
829.273	5185
829.412	5181
829.551	5151
829.69	5193
829.829	5254
829.968	5368
830.107	5193
830.246	5254
830.385	5159
830.524	5105
830.663	5083
830.802	4949
830.941	4896
831.08	4892
831.219	4991
831.357	4968
831.496	5223
831.635	4927
831.774	4835
831.913	4904
832.051	4771
832.19	4767
832.329	4831
832.467	4679
832.606	4615
832.744	4744
832.883	4698
833.022	4733
833.16	4828
833.299	4790
833.437	4805
833.576	4828
833.714	4873
833.852	4847
833.991	4847
834.129	4908
834.267	4915
834.406	4915
834.544	4949
834.682	4938
834.821	4961
834.959	5136
835.097	4984
835.235	5159
835.373	5064
835.511	5098
835.65	5029
835.788	4984
835.926	4896
836.064	4835
836.202	4957
836.34	5185
836.478	5220
836.615	5064
836.753	5197
836.891	5284
837.029	5212
837.167	5250
837.305	5143
837.443	5151
837.58	5105
837.718	5204
837.856	5170
837.993	5166
838.131	5254
838.269	5261
838.406	5185
838.544	5159
838.681	5094
838.819	5033
838.956	4892
839.094	4870
839.231	4972
839.369	5056
839.506	5417
839.643	5258
839.781	5037
839.918	5006
840.055	5124
840.193	5105
840.33	5117
840.467	5128
840.604	5193
840.742	5391
840.879	5052
841.016	5098
841.153	5147
841.29	5341
841.427	5353
841.564	5349
841.701	5406
841.838	5280
841.975	5288
842.112	5277
842.249	5117
842.385	5037
842.522	5330
842.659	5174
842.796	5170
842.933	5204
843.069	5124
843.206	5189
843.343	5311
843.479	5231
843.616	5273
843.752	5029
843.889	4999
844.025	5265
844.162	5045
844.298	5201
844.435	5121
844.571	5037
844.708	5201
844.844	5280
844.98	5326
845.117	5265
845.253	5124
845.389	5029
845.525	5132
845.661	5128
845.798	5010
845.934	5174
846.07	5056
846.206	5181
846.342	5315
846.478	5109
846.614	5045
846.75	4961
846.886	4919
847.022	5121
847.158	5025
847.294	5025
847.429	5109
847.565	5067
847.701	5277
847.837	4873
847.972	4797
848.108	4934
848.244	4919
848.379	4793
848.515	4736
848.65	4710
848.786	4717
848.921	4809
849.057	4850
849.192	4911
849.328	4809
849.463	4816
849.598	4752
849.734	4744
849.869	4725
850.004	4653
850.14	4656
850.275	4561
850.41	4542
850.545	4516
850.68	4618
850.815	4611
850.95	4603
851.085	4828
851.22	4721
851.355	4664
851.49	4596
851.625	4664
851.76	4630
851.895	4573
852.03	4550
852.165	4592
852.299	4717
852.434	4801
852.569	4740
852.703	4797
852.838	4839
852.973	4873
853.107	4858
853.242	4733
853.376	4656
853.511	4584
853.645	4596
853.78	4824
853.914	4683
854.048	4653
854.183	4622
854.317	4710
854.451	4828
854.585	4630
854.72	4672
854.854	4755
854.988	4599
855.122	4664
855.256	4519
855.39	4660
855.524	4793
855.658	4774
855.792	4672
855.926	4740
856.06	4786
856.194	4805
856.327	4736
856.461	4637
856.595	4694
856.729	4656
856.862	4816
856.996	4675
857.13	4752
857.263	4824
857.397	4801
857.53	4691
857.664	4763
857.797	4786
857.931	4820
858.064	4668
858.197	4702
858.331	4679
858.464	4649
858.597	4565
858.731	4687
858.864	4668
858.997	4634
859.13	4717
859.263	4721
859.396	4687
859.529	4634
859.662	4637
859.795	4584
859.928	4672
860.061	4744
860.194	4797
860.327	4645
860.46	4630
860.592	4767
860.725	4778
860.858	4812
860.99	4634
861.123	4580
861.256	4580
861.388	4630
861.521	5341
861.653	4550
861.786	4512
861.918	4538
862.05	4542
862.183	4622
862.315	4683
862.447	4733
862.58	4641
862.712	4466
862.844	4367
862.976	4519
863.108	4531
863.24	4953
863.372	4390
863.504	4462
863.636	4421
863.768	4519
863.9	4497
864.032	4447
864.164	4436
864.296	4542
864.428	4599
864.559	4577
864.691	4634
864.823	4588
864.954	4538
865.086	4546
865.217	4516
865.349	4436
865.48	4466
865.612	4523
865.743	4683
865.875	4512
866.006	4451
866.137	4443
866.269	4470
866.4	4428
866.531	4497
866.662	4481
866.793	4451
866.924	4462
867.055	4550
867.186	4504
867.317	4428
867.448	4402
867.579	4424
867.71	4440
867.841	4421
867.972	4485
868.103	4531
868.233	4535
868.364	4493
868.495	4535
868.625	4736
868.756	4824
868.886	4561
869.017	4649
869.147	4858
869.278	4786
869.408	4702
869.539	4694
869.669	4744
869.799	4694
869.929	4809
870.06	4805
870.19	5003
870.32	4980
870.45	4946
870.58	5018
870.71	5079
870.84	5098
870.97	4953
871.1	4930
871.23	5197
871.36	5109
871.489	5079
871.619	5109
871.749	5090
871.879	5185
872.008	5193
872.138	5094
872.267	5041
872.397	4820
872.526	4862
872.656	4752
872.785	4816
872.915	5029
873.044	5064
873.173	4965
873.303	5010
873.432	5003
873.561	5006
873.69	4889
873.819	4927
873.948	4911
874.077	4866
874.206	4816
874.335	4870
874.464	5010
874.593	5079
874.722	4980
874.851	5128
874.979	5113
875.108	5098
875.237	5014
875.365	4923
875.494	4915
875.623	4991
875.751	4839
875.88	4900
876.008	4991
876.136	5067
876.265	5303
876.393	5368
876.521	5254
876.65	5261
876.778	5216
876.906	5159
877.034	5048
877.162	5102
877.29	5033
877.418	5090
877.546	5094
877.674	5090
877.802	5056
877.93	5064
878.058	4927
878.185	4923
878.313	4987
878.441	4984
878.568	4847
878.696	4938
878.824	4991
878.951	5060
879.079	5147
879.206	5303
879.333	5162
879.461	5048
879.588	5029
879.715	5162
879.842	5246
879.97	5045
880.097	4847
880.224	4782
880.351	4824
880.478	4892
880.605	4801
880.732	4850
880.859	5083
880.986	4885
881.112	4968
881.239	4816
881.366	4687
881.493	4637
881.619	4649
881.746	4660
881.872	4698
881.999	4691
882.125	4721
882.252	4816
882.378	4843
882.505	4965
882.631	4831
882.757	4714
882.883	4736
883.01	4744
883.136	4691
883.262	4641
883.388	4679
883.514	4877
883.64	4889
883.766	4831
883.892	4694
884.018	4759
884.143	4885
884.269	5048
884.395	4736
884.52	4668
884.646	4687
884.772	4607
884.897	4634
885.023	4694
885.148	4793
885.274	4881
885.399	4805
885.524	4736
885.65	4675
885.775	4771
885.9	4782
886.025	4900
886.15	4839
886.275	4710
886.4	4740
886.525	4752
886.65	4683
886.775	4725
886.9	4957
887.025	5094
887.149	4847
887.274	4698
887.399	4645
887.523	4672
887.648	4634
887.773	4607
887.897	4812
888.021	4850
888.146	4744
888.27	4923
888.395	4934
888.519	4854
888.643	4892
888.767	4873
888.891	4706
889.015	4653
889.139	4725
889.263	4660
889.387	4816
889.511	4885
889.635	4835
889.759	4683
889.883	4664
890.006	4710
890.13	4847
890.254	4615
890.377	4717
890.501	4580
890.624	4538
890.748	4694
890.871	4573
890.995	4493
891.118	4455
891.241	4523
891.364	4554
891.488	4653
891.611	4535
891.734	4569
891.857	4645
891.98	4565
892.103	4630
892.226	4607
892.349	4558
892.471	4455
892.594	4573
892.717	4653
892.839	4580
892.962	4653
893.085	4672
893.207	4672
893.33	4512
893.452	4603
893.575	4664
893.697	4637
893.819	4797
893.941	4862
894.064	4763
894.186	4580
894.308	4573
894.43	4755
894.552	4809
894.674	4763
894.796	4573
894.918	4607
895.04	4660
895.161	4733
895.283	4687
895.405	4607
895.526	4668
895.648	4710
895.769	4740
895.891	4691
896.012	4744
896.134	4771
896.255	4729
896.376	4668
896.498	4672
896.619	4778
896.74	4679
896.861	4679
896.982	4968
897.103	5102
897.224	4847
897.345	4793
897.466	4736
897.587	4797
897.708	4889
897.828	4801
897.949	4698
898.07	4630
898.19	4634
898.311	4854
898.431	4729
898.552	4782
898.672	4847
898.792	4828
898.913	4793
899.033	4706
899.153	4512
899.273	4512
899.393	4508
899.513	4565
899.633	4538
899.753	4542
899.873	4554
899.993	4580
900.113	4569
900.232	4588
900.352	4546
900.472	4527
900.591	4485
900.711	4531
900.83	4462
900.95	4630
901.069	4675
901.189	4588
901.308	4421
901.427	4352
901.546	4405
901.665	4546
901.784	4527
901.904	4424
902.023	4333
902.141	4188
902.26	4196
902.379	4299
902.498	4265
902.617	4318
902.735	4390
902.854	4394
902.973	4375
903.091	4261
903.21	4280
903.328	4318
903.446	4303
903.565	4318
903.683	4383
903.801	4268
903.919	4466
904.038	4470
904.156	4363
904.274	4504
904.392	4424
904.51	4481
904.627	4516
904.745	4618
904.863	4687
904.981	4402
905.098	4352
905.216	4367
905.334	4455
905.451	4455
905.569	4489
905.686	4584
905.803	4592
905.921	4470
906.038	4611
906.155	4516
906.272	4455
906.389	4519
906.506	4371
906.623	4413
906.74	4405
906.857	4363
906.974	4402
907.091	4588
907.208	4740
907.324	4561
907.441	4478
907.557	4356
907.674	4375
907.79	4341
907.907	4462
908.023	4535
908.139	4489
908.256	4470
908.372	4462
908.488	4466
908.604	4371
908.72	4375
908.836	4375
908.952	4367
909.068	4417
909.184	4592
909.3	4512
909.415	4622
909.531	4588
909.647	4394
909.762	4409
909.878	4363
909.993	4432
910.108	4428
910.224	4402
910.339	4493
910.454	4405
910.57	4394
910.685	4383
910.8	4660
910.915	4622
911.03	4512
911.145	4383
911.259	4386
911.374	4360
911.489	4344
911.604	4291
911.718	4192
911.833	4238
911.947	4101
912.062	4032
912.176	4188
912.291	4280
912.405	4291
912.519	4512
912.633	4554
912.748	4409
912.862	4371
912.976	4230
913.09	4105
913.204	4200
913.318	4257
913.431	4379
913.545	4348
913.659	4466
913.772	4329
913.886	4280
914	4246
914.113	4402
914.226	4459
914.34	4443
914.453	4242
914.566	4451
914.68	4348
914.793	4333
914.906	4143
915.019	4188
915.132	4090
915.245	4230
915.358	4211
915.47	4276
915.583	4287
915.696	4341
915.809	4402
915.921	4428
916.034	4287
916.146	4246
916.259	4280
916.371	4402
916.483	4318
916.595	4303
916.708	4367
916.82	4348
916.932	4348
917.044	4360
917.156	4363
917.268	4234
917.38	4268
917.491	4291
917.603	4337
917.715	4421
917.826	4436
917.938	4405
918.049	4284
918.161	4481
918.272	4554
918.384	4546
918.495	4478
918.606	4348
918.717	4284
918.828	4329
918.939	4432
919.05	4306
919.161	4360
919.272	4116
919.383	4223
919.494	4443
919.604	4573
919.715	4424
919.826	4398
919.936	4383
920.047	4519
920.157	4546
920.267	4729
920.378	4573
920.488	4508
920.598	4748
920.708	4968
920.818	4759
920.928	4725
921.038	4965
921.148	4930
921.258	4618
921.368	4535
921.477	4519
921.587	4485
921.697	4383
921.806	4592
921.916	4455
922.025	4272
922.134	4303
922.244	4253
922.353	4329
922.462	4196
922.571	4143
922.68	3991
922.789	4006
922.898	4051
923.007	3998
923.116	4139
923.224	4055
923.333	4086
923.442	3991
923.55	3983
923.659	4044
923.767	4139
923.876	4032
923.984	4131
924.092	3987
924.201	4082
924.309	4059
924.417	4128
924.525	4063
924.633	4154
924.741	5086
924.849	3941
924.956	4185
925.064	3998
925.172	3937
925.279	3991
925.387	4086
925.494	4097
925.602	4265
925.709	4204
925.816	4090
925.924	4177
926.031	4280
926.138	4173
926.245	4265
926.352	4147
926.459	4295
926.566	4352
926.673	4215
926.779	4128
926.886	4131
926.993	4051
927.099	4010
927.206	4036
927.312	3960
927.419	4078
927.525	4082
927.631	4158
927.737	4017
927.843	4013
927.95	3922
928.056	3991
928.162	4067
928.267	4082
928.373	4714
928.479	4173
928.585	3899
928.69	4051
928.796	4143
928.901	4055
929.007	3907
929.112	4013
929.218	4029
929.323	3987
929.428	3975
929.533	4147
929.638	3941
929.743	4017
929.848	4112
929.953	4036
930.058	3983
930.163	3816
930.267	3918
930.372	4017
930.477	3865
930.581	4147
930.685	3994
930.79	3850
930.894	3930
930.998	3926
931.103	4090
931.207	3755
931.311	3766
931.415	3751
931.519	3519
931.623	3603
