Data from test_V78500241_640.txt Node
Date: Fri Mar 25 16:53:27 CST 2022
User: usil
Spectrometer: V785-0024
Trigger mode: 0
Integration Time (sec): 4.000000E-1
Scans to average: 1
Nonlinearity correction enabled: false
Boxcar width: 0
Storing dark spectrum: false
XAxis mode: Wavelengths
Number of Pixels in Spectrum: 1024
>>>>>Begin Spectral Data<<<<<
801.071	8088
801.214	7940
801.356	7856
801.499	7940
801.641	7734
801.783	7822
801.926	7982
802.068	7986
802.211	8031
802.353	7982
802.496	7860
802.638	7921
802.78	7906
802.923	7852
803.065	7913
803.208	7822
803.35	8008
803.492	8073
803.635	8176
803.777	8092
803.919	8149
804.061	8389
804.204	8164
804.346	8115
804.488	8001
804.63	8134
804.773	8046
804.915	8100
805.057	8279
805.199	8229
805.341	8221
805.483	8313
805.626	8237
805.768	8142
805.91	8142
806.052	8210
806.194	8134
806.336	8309
806.478	8107
806.62	8050
806.762	8164
806.904	8301
807.046	8480
807.188	8412
807.33	8320
807.472	8381
807.614	8183
807.756	8157
807.898	8054
808.04	7845
808.182	7879
808.324	7887
808.465	7894
808.607	8103
808.749	8115
808.891	8149
809.033	8233
809.174	8168
809.316	8005
809.458	8134
809.6	7993
809.741	8039
809.883	8054
810.025	8058
810.166	8043
810.308	8065
810.45	8016
810.591	7936
810.733	7715
810.875	7704
811.016	7590
811.158	7457
811.299	7624
811.441	7761
811.582	7674
811.724	7544
811.865	7499
812.007	7613
812.148	7537
812.29	7666
812.431	7715
812.573	7852
812.714	7974
812.855	8111
812.997	8317
813.138	8347
813.279	8248
813.421	8157
813.562	8035
813.703	7875
813.845	7818
813.986	7540
814.127	7354
814.268	7282
814.41	7202
814.551	7149
814.692	7152
814.833	7057
814.974	7038
815.115	7110
815.256	6970
815.397	6939
815.539	6962
815.68	6848
815.821	6818
815.962	6878
816.103	6859
816.244	6760
816.385	6601
816.526	6601
816.666	6486
816.807	6277
816.948	6410
817.089	6422
817.23	6467
817.371	6422
817.512	6384
817.653	6418
817.793	6331
817.934	6429
818.075	6479
818.216	6448
818.356	6403
818.497	6273
818.638	6110
818.778	6178
818.919	6167
819.06	6106
819.2	6315
819.341	6395
819.481	6369
819.622	6528
819.762	6665
819.903	6677
820.043	6544
820.184	6582
820.324	6532
820.465	6642
820.605	6688
820.746	6574
820.886	6525
821.026	6681
821.167	6681
821.307	6745
821.447	6745
821.588	6669
821.728	6559
821.868	6483
822.008	6308
822.149	6380
822.289	6308
822.429	6106
822.569	6098
822.709	6102
822.849	5866
822.99	5901
823.13	5874
823.27	5923
823.41	5802
823.55	5786
823.69	5722
823.83	5844
823.97	5627
824.11	5524
824.25	5509
824.389	5589
824.529	5619
824.669	5532
824.809	5634
824.949	5634
825.089	5600
825.228	5547
825.368	5421
825.508	5330
825.648	5284
825.787	5360
825.927	5379
826.067	5315
826.206	5284
826.346	5387
826.485	5433
826.625	5433
826.765	5581
826.904	5474
827.044	5216
827.183	5280
827.323	5109
827.462	5235
827.601	5159
827.741	5235
827.88	5239
828.02	5128
828.159	5220
828.298	5261
828.437	5341
828.577	5258
828.716	5505
828.855	5311
828.994	5197
829.134	5159
829.273	5223
829.412	5174
829.551	5113
829.69	5216
829.829	5277
829.968	5383
830.107	5231
830.246	5265
830.385	5185
830.524	5140
830.663	5079
830.802	4968
830.941	4908
831.08	4946
831.219	4930
831.357	4987
831.496	5151
831.635	4923
831.774	4828
831.913	4812
832.051	4725
832.19	4759
832.329	4809
832.467	4733
832.606	4622
832.744	4733
832.883	4679
833.022	4733
833.16	4824
833.299	4877
833.437	4809
833.576	4801
833.714	4866
833.852	4896
833.991	4870
834.129	4984
834.267	4923
834.406	4915
834.544	4949
834.682	4999
834.821	5029
834.959	5159
835.097	5014
835.235	5223
835.373	5041
835.511	5075
835.65	5022
835.788	5037
835.926	4866
836.064	4835
836.202	4946
836.34	5174
836.478	5239
836.615	5132
836.753	5231
836.891	5315
837.029	5246
837.167	5178
837.305	5155
837.443	5128
837.58	5052
837.718	5235
837.856	5117
837.993	5136
838.131	5242
838.269	5151
838.406	5220
838.544	5193
838.681	5018
838.819	5022
838.956	4831
839.094	4938
839.231	4987
839.369	5060
839.506	5410
839.643	5334
839.781	5064
839.918	5037
840.055	5094
840.193	5105
840.33	5117
840.467	5109
840.604	5216
840.742	5444
840.879	5079
841.016	5102
841.153	5162
841.29	5417
841.427	5337
841.564	5315
841.701	5357
841.838	5273
841.975	5269
842.112	5299
842.249	5140
842.385	5083
842.522	5315
842.659	5185
842.796	5189
842.933	5174
843.069	5098
843.206	5174
843.343	5265
843.479	5246
843.616	5265
843.752	5033
843.889	4999
844.025	5189
844.162	5025
844.298	5216
844.435	5090
844.571	5006
844.708	5174
844.844	5284
844.98	5357
845.117	5261
845.253	5109
845.389	5109
845.525	5170
845.661	5121
845.798	5060
845.934	5136
846.07	5041
846.206	5166
846.342	5334
846.478	5162
846.614	5010
846.75	5018
846.886	4938
847.022	5136
847.158	5018
847.294	5102
847.429	5029
847.565	5052
847.701	5311
847.837	4824
847.972	4824
848.108	4965
848.244	4957
848.379	4778
848.515	4740
848.65	4714
848.786	4725
848.921	4767
849.057	4885
849.192	4892
849.328	4759
849.463	4885
849.598	4824
849.734	4786
849.869	4675
850.004	4596
850.14	4630
850.275	4626
850.41	4550
850.545	4535
850.68	4558
850.815	4645
850.95	4668
851.085	4839
851.22	4771
851.355	4664
851.49	4645
851.625	4596
851.76	4641
851.895	4497
852.03	4519
852.165	4622
852.299	4706
852.434	4790
852.569	4763
852.703	4736
852.838	4839
852.973	4915
853.107	4877
853.242	4736
853.376	4645
853.511	4542
853.645	4611
853.78	4771
853.914	4660
854.048	4653
854.183	4618
854.317	4714
854.451	4843
854.585	4668
854.72	4649
854.854	4725
854.988	4588
855.122	4641
855.256	4516
855.39	4664
855.524	4748
855.658	4714
855.792	4714
855.926	4740
856.06	4767
856.194	4755
856.327	4672
856.461	4622
856.595	4592
856.729	4618
856.862	4755
856.996	4641
857.13	4721
857.263	4786
857.397	4763
857.53	4687
857.664	4748
857.797	4740
857.931	4786
858.064	4675
858.197	4805
858.331	4637
858.464	4626
858.597	4542
858.731	4672
858.864	4607
858.997	4596
859.13	4687
859.263	4672
859.396	4706
859.529	4573
859.662	4535
859.795	4512
859.928	4611
860.061	4816
860.194	4782
860.327	4580
860.46	4596
860.592	4736
860.725	4774
860.858	4672
860.99	4535
861.123	4485
861.256	4531
861.388	4626
861.521	5284
861.653	4478
861.786	4500
861.918	4474
862.05	4500
862.183	4504
862.315	4637
862.447	4694
862.58	4508
862.712	4375
862.844	4379
862.976	4481
863.108	4462
863.24	4854
863.372	4348
863.504	4443
863.636	4390
863.768	4493
863.9	4409
864.032	4344
864.164	4402
864.296	4497
864.428	4538
864.559	4603
864.691	4512
864.823	4523
864.954	4485
865.086	4489
865.217	4428
865.349	4386
865.48	4470
865.612	4512
865.743	4683
865.875	4455
866.006	4405
866.137	4500
866.269	4485
866.4	4398
866.531	4394
866.662	4360
866.793	4402
866.924	4421
867.055	4531
867.186	4485
867.317	4383
867.448	4405
867.579	4421
867.71	4360
867.841	4352
867.972	4474
868.103	4447
868.233	4489
868.364	4436
868.495	4485
868.625	4679
868.756	4698
868.886	4527
869.017	4599
869.147	4782
869.278	4790
869.408	4672
869.539	4622
869.669	4733
869.799	4664
869.929	4736
870.06	4706
870.19	5006
870.32	4919
870.45	4934
870.58	4995
870.71	5045
870.84	5090
870.97	4942
871.1	4942
871.23	5140
871.36	5121
871.489	5041
871.619	5067
871.749	5075
871.879	5143
872.008	5159
872.138	5025
872.267	5010
872.397	4866
872.526	4786
872.656	4744
872.785	4843
872.915	4961
873.044	5041
873.173	4968
873.303	4995
873.432	4961
873.561	4946
873.69	4862
873.819	4870
873.948	4915
874.077	4831
874.206	4733
874.335	4797
874.464	4889
874.593	5048
874.722	4908
874.851	5075
874.979	5105
875.108	5025
875.237	4938
875.365	4900
875.494	4870
875.623	4968
875.751	4816
875.88	4870
876.008	4995
876.136	5041
876.265	5220
876.393	5322
876.521	5307
876.65	5216
876.778	5113
876.906	5056
877.034	4991
877.162	5041
877.29	4991
877.418	5067
877.546	4999
877.674	5067
877.802	5105
877.93	5037
878.058	4984
878.185	4847
878.313	4987
878.441	4972
878.568	4805
878.696	4854
878.824	4915
878.951	5006
879.079	5147
879.206	5296
879.333	5056
879.461	4980
879.588	5006
879.715	5083
879.842	5193
879.97	5060
880.097	4786
880.224	4759
880.351	4835
880.478	4801
880.605	4797
880.732	4763
880.859	5140
880.986	4900
881.112	4919
881.239	4767
881.366	4645
881.493	4580
881.619	4599
881.746	4622
881.872	4615
881.999	4675
882.125	4694
882.252	4759
882.378	4850
882.505	4953
882.631	4767
882.757	4675
882.883	4721
883.01	4736
883.136	4664
883.262	4599
883.388	4656
883.514	4854
883.64	4847
883.766	4786
883.892	4645
884.018	4725
884.143	4862
884.269	5010
884.395	4603
884.52	4634
884.646	4630
884.772	4550
884.897	4542
885.023	4618
885.148	4733
885.274	4843
885.399	4820
885.524	4714
885.65	4702
885.775	4755
885.9	4714
886.025	4862
886.15	4767
886.275	4714
886.4	4694
886.525	4759
886.65	4694
886.775	4668
886.9	4881
887.025	5052
887.149	4755
887.274	4694
887.399	4592
887.523	4580
887.648	4607
887.773	4603
887.897	4763
888.021	4793
888.146	4660
888.27	4831
888.395	4889
888.519	4778
888.643	4843
888.767	4797
888.891	4691
889.015	4592
889.139	4679
889.263	4584
889.387	4763
889.511	4881
889.635	4782
889.759	4653
889.883	4645
890.006	4717
890.13	4843
890.254	4599
890.377	4714
890.501	4542
890.624	4489
890.748	4710
890.871	4474
890.995	4455
891.118	4421
891.241	4523
891.364	4554
891.488	4641
891.611	4512
891.734	4519
891.857	4634
891.98	4577
892.103	4603
892.226	4622
892.349	4535
892.471	4459
892.594	4519
892.717	4569
892.839	4573
892.962	4561
893.085	4675
893.207	4615
893.33	4466
893.452	4512
893.575	4706
893.697	4626
893.819	4805
893.941	4824
894.064	4759
894.186	4618
894.308	4538
894.43	4725
894.552	4790
894.674	4710
894.796	4565
894.918	4603
895.04	4588
895.161	4706
895.283	4626
895.405	4599
895.526	4622
895.648	4710
895.769	4702
895.891	4687
896.012	4744
896.134	4679
896.255	4679
896.376	4649
896.498	4653
896.619	4698
896.74	4550
896.861	4660
896.982	4987
897.103	5029
897.224	4816
897.345	4752
897.466	4664
897.587	4725
897.708	4839
897.828	4790
897.949	4618
898.07	4607
898.19	4645
898.311	4805
898.431	4694
898.552	4714
898.672	4786
898.792	4831
898.913	4778
899.033	4615
899.153	4550
899.273	4440
899.393	4447
899.513	4512
899.633	4474
899.753	4554
899.873	4478
899.993	4588
900.113	4504
900.232	4607
900.352	4516
900.472	4493
900.591	4428
900.711	4451
900.83	4459
900.95	4618
901.069	4622
901.189	4550
901.308	4394
901.427	4341
901.546	4417
901.665	4481
901.784	4531
901.904	4348
902.023	4303
902.141	4192
902.26	4169
902.379	4306
902.498	4242
902.617	4204
902.735	4390
902.854	4367
902.973	4352
903.091	4249
903.21	4219
903.328	4291
903.446	4268
903.565	4215
903.683	4341
903.801	4253
903.919	4428
904.038	4421
904.156	4299
904.274	4428
904.392	4428
904.51	4421
904.627	4519
904.745	4592
904.863	4641
904.981	4398
905.098	4322
905.216	4344
905.334	4424
905.451	4428
905.569	4447
905.686	4558
905.803	4588
905.921	4417
906.038	4596
906.155	4508
906.272	4394
906.389	4481
906.506	4295
906.623	4375
906.74	4398
906.857	4249
906.974	4363
907.091	4504
907.208	4683
907.324	4607
907.441	4455
907.557	4356
907.674	4303
907.79	4322
907.907	4379
908.023	4519
908.139	4493
908.256	4451
908.372	4478
908.488	4500
908.604	4337
908.72	4329
908.836	4394
908.952	4360
909.068	4398
909.184	4580
909.3	4413
909.415	4584
909.531	4508
909.647	4348
909.762	4348
909.878	4299
909.993	4424
910.108	4383
910.224	4459
910.339	4440
910.454	4424
910.57	4333
910.685	4325
910.8	4634
910.915	4607
911.03	4500
911.145	4314
911.259	4356
911.374	4360
911.489	4303
911.604	4314
911.718	4181
911.833	4200
911.947	4071
912.062	4032
912.176	4196
912.291	4246
912.405	4272
912.519	4436
912.633	4466
912.748	4363
912.862	4310
912.976	4223
913.09	4071
913.204	4188
913.318	4261
913.431	4371
913.545	4379
913.659	4440
913.772	4344
913.886	4268
914	4261
914.113	4402
914.226	4432
914.34	4417
914.453	4272
914.566	4459
914.68	4299
914.793	4333
914.906	4169
915.019	4135
915.132	4055
915.245	4188
915.358	4204
915.47	4207
915.583	4219
915.696	4280
915.809	4398
915.921	4413
916.034	4272
916.146	4261
916.259	4249
916.371	4383
916.483	4371
916.595	4306
916.708	4284
916.82	4344
916.932	4348
917.044	4348
917.156	4322
917.268	4200
917.38	4253
917.491	4272
917.603	4375
917.715	4383
917.826	4424
917.938	4329
918.049	4238
918.161	4375
918.272	4523
918.384	4519
918.495	4447
918.606	4280
918.717	4188
918.828	4325
918.939	4367
919.05	4272
919.161	4386
919.272	4074
919.383	4238
919.494	4451
919.604	4645
919.715	4443
919.826	4333
919.936	4371
920.047	4542
920.157	4478
920.267	4679
920.378	4603
920.488	4531
920.598	4725
920.708	4850
920.818	4759
920.928	4790
921.038	4915
921.148	4866
921.258	4641
921.368	4546
921.477	4459
921.587	4447
921.697	4394
921.806	4550
921.916	4436
922.025	4284
922.134	4284
922.244	4234
922.353	4253
922.462	4143
922.571	4143
922.68	3998
922.789	4010
922.898	4067
923.007	3987
923.116	4055
923.224	4082
923.333	4086
923.442	3991
923.55	3956
923.659	4078
923.767	4059
923.876	4006
923.984	4124
924.092	4040
924.201	4071
924.309	4051
924.417	4086
924.525	4051
924.633	4101
924.741	5022
924.849	3937
924.956	4124
925.064	3941
925.172	3918
925.279	3934
925.387	4063
925.494	4067
925.602	4246
925.709	4169
925.816	4029
925.924	4097
926.031	4215
926.138	4169
926.245	4196
926.352	4067
926.459	4272
926.566	4306
926.673	4162
926.779	4101
926.886	4090
926.993	3998
927.099	3964
927.206	3911
927.312	3972
927.419	4097
927.525	4032
927.631	4097
927.737	4025
927.843	3937
927.95	3793
928.056	3960
928.162	4002
928.267	4040
928.373	4664
928.479	4109
928.585	3888
928.69	4017
928.796	4048
928.901	3983
929.007	3892
929.112	4013
929.218	4006
929.323	3972
929.428	3964
929.533	4093
929.638	3896
929.743	3998
929.848	4059
929.953	4010
930.058	3937
930.163	3736
930.267	3793
930.372	4017
930.477	3808
930.581	4078
930.685	3945
930.79	3793
930.894	3892
930.998	3831
931.103	4048
931.207	3701
931.311	3701
931.415	3717
931.519	3519
931.623	3542
