Data from test_V78500241_2843.txt Node
Date: Fri Mar 25 17:08:46 CST 2022
User: usil
Spectrometer: V785-0024
Trigger mode: 0
Integration Time (sec): 4.000000E-1
Scans to average: 1
Nonlinearity correction enabled: false
Boxcar width: 0
Storing dark spectrum: false
XAxis mode: Wavelengths
Number of Pixels in Spectrum: 1024
>>>>>Begin Spectral Data<<<<<
801.071	8008
801.214	7978
801.356	7909
801.499	7875
801.641	7792
801.783	7830
801.926	7982
802.068	7989
802.211	7978
802.353	7989
802.496	7822
802.638	7967
802.78	7944
802.923	7928
803.065	7841
803.208	7772
803.35	7921
803.492	8081
803.635	8088
803.777	8005
803.919	8183
804.061	8465
804.204	8119
804.346	8077
804.488	7978
804.63	8031
804.773	7951
804.915	8031
805.057	8301
805.199	8130
805.341	8202
805.483	8256
805.626	8221
805.768	8142
805.91	8183
806.052	8229
806.194	8081
806.336	8320
806.478	8142
806.62	8039
806.762	8111
806.904	8244
807.046	8511
807.188	8374
807.33	8328
807.472	8404
807.614	8271
807.756	8187
807.898	8088
808.04	7837
808.182	7818
808.324	7906
808.465	7890
808.607	8073
808.749	8157
808.891	8206
809.033	8370
809.174	8214
809.316	8054
809.458	7989
809.6	7913
809.741	7978
809.883	8054
810.025	8138
810.166	8043
810.308	8012
810.45	7944
810.591	7879
810.733	7666
810.875	7643
811.016	7529
811.158	7480
811.299	7601
811.441	7715
811.582	7696
811.724	7613
811.865	7571
812.007	7594
812.148	7582
812.29	7613
812.431	7757
812.573	7887
812.714	7955
812.855	8081
812.997	8225
813.138	8256
813.279	8111
813.421	8130
813.562	8008
813.703	7841
813.845	7795
813.986	7438
814.127	7320
814.268	7198
814.41	7225
814.551	7171
814.692	7175
814.833	7061
814.974	7118
815.115	7137
815.256	6928
815.397	6882
815.539	6924
815.68	6829
815.821	6764
815.962	6798
816.103	6802
816.244	6703
816.385	6665
816.526	6623
816.666	6525
816.807	6281
816.948	6483
817.089	6441
817.23	6426
817.371	6285
817.512	6380
817.653	6353
817.793	6311
817.934	6429
818.075	6471
818.216	6391
818.356	6388
818.497	6273
818.638	6136
818.778	6136
818.919	6136
819.06	6110
819.2	6273
819.341	6296
819.481	6331
819.622	6490
819.762	6749
819.903	6711
820.043	6574
820.184	6620
820.324	6566
820.465	6677
820.605	6608
820.746	6639
820.886	6475
821.026	6734
821.167	6719
821.307	6734
821.447	6795
821.588	6642
821.728	6593
821.868	6437
822.008	6315
822.149	6403
822.289	6365
822.429	6159
822.569	6102
822.709	6060
822.849	5950
822.99	5939
823.13	5908
823.27	5901
823.41	5783
823.55	5824
823.69	5748
823.83	5726
823.97	5608
824.11	5512
824.25	5493
824.389	5532
824.529	5600
824.669	5554
824.809	5611
824.949	5714
825.089	5566
825.228	5566
825.368	5330
825.508	5387
825.648	5357
825.787	5318
825.927	5379
826.067	5254
826.206	5258
826.346	5379
826.485	5395
826.625	5360
826.765	5528
826.904	5486
827.044	5193
827.183	5227
827.323	5185
827.462	5246
827.601	5208
827.741	5197
827.88	5235
828.02	5113
828.159	5258
828.298	5318
828.437	5372
828.577	5280
828.716	5467
828.855	5330
828.994	5159
829.134	5178
829.273	5208
829.412	5166
829.551	5140
829.69	5166
829.829	5258
829.968	5360
830.107	5265
830.246	5368
830.385	5239
830.524	5143
830.663	5041
830.802	5010
830.941	4911
831.08	4877
831.219	4995
831.357	4991
831.496	5140
831.635	4968
831.774	4854
831.913	4892
832.051	4740
832.19	4797
832.329	4881
832.467	4736
832.606	4679
832.744	4763
832.883	4755
833.022	4748
833.16	4847
833.299	4820
833.437	4862
833.576	4908
833.714	4885
833.852	4850
833.991	4915
834.129	4957
834.267	4972
834.406	4923
834.544	5060
834.682	5052
834.821	4980
834.959	5189
835.097	5083
835.235	5185
835.373	5181
835.511	5166
835.65	5079
835.788	5056
835.926	4904
836.064	4889
836.202	4934
836.34	5181
836.478	5254
836.615	5193
836.753	5239
836.891	5261
837.029	5239
837.167	5261
837.305	5250
837.443	5109
837.58	5174
837.718	5288
837.856	5277
837.993	5155
838.131	5299
838.269	5254
838.406	5220
838.544	5246
838.681	5079
838.819	5060
838.956	4900
839.094	4953
839.231	5045
839.369	5124
839.506	5455
839.643	5326
839.781	5166
839.918	5006
840.055	5155
840.193	5124
840.33	5132
840.467	5155
840.604	5204
840.742	5467
840.879	5174
841.016	5136
841.153	5189
841.29	5414
841.427	5357
841.564	5429
841.701	5410
841.838	5269
841.975	5273
842.112	5288
842.249	5147
842.385	5151
842.522	5334
842.659	5223
842.796	5155
842.933	5242
843.069	5159
843.206	5151
843.343	5280
843.479	5299
843.616	5322
843.752	5079
843.889	5022
844.025	5204
844.162	5048
844.298	5208
844.435	5132
844.571	5056
844.708	5227
844.844	5322
844.98	5299
845.117	5318
845.253	5189
845.389	5151
845.525	5189
845.661	5132
845.798	5003
845.934	5136
846.07	5052
846.206	5242
846.342	5292
846.478	5201
846.614	5083
846.75	4961
846.886	4999
847.022	5128
847.158	5060
847.294	5083
847.429	5117
847.565	5071
847.701	5322
847.837	4900
847.972	4858
848.108	4999
848.244	4942
848.379	4790
848.515	4812
848.65	4714
848.786	4748
848.921	4809
849.057	4889
849.192	4942
849.328	4892
849.463	4877
849.598	4854
849.734	4744
849.869	4740
850.004	4660
850.14	4641
850.275	4656
850.41	4550
850.545	4561
850.68	4611
850.815	4596
850.95	4683
851.085	4847
851.22	4778
851.355	4733
851.49	4580
851.625	4634
851.76	4675
851.895	4622
852.03	4542
852.165	4702
852.299	4721
852.434	4850
852.569	4740
852.703	4797
852.838	4858
852.973	4949
853.107	4987
853.242	4774
853.376	4717
853.511	4573
853.645	4641
853.78	4809
853.914	4733
854.048	4736
854.183	4615
854.317	4714
854.451	4892
854.585	4736
854.72	4637
854.854	4797
854.988	4649
855.122	4679
855.256	4554
855.39	4668
855.524	4805
855.658	4755
855.792	4752
855.926	4805
856.06	4854
856.194	4809
856.327	4782
856.461	4637
856.595	4691
856.729	4668
856.862	4782
856.996	4740
857.13	4797
857.263	4847
857.397	4824
857.53	4694
857.664	4729
857.797	4812
857.931	4839
858.064	4721
858.197	4752
858.331	4717
858.464	4660
858.597	4531
858.731	4687
858.864	4687
858.997	4622
859.13	4710
859.263	4717
859.396	4702
859.529	4592
859.662	4634
859.795	4611
859.928	4653
860.061	4790
860.194	4797
860.327	4645
860.46	4573
860.592	4706
860.725	4763
860.858	4767
860.99	4596
861.123	4554
861.256	4516
861.388	4630
861.521	5452
861.653	4535
861.786	4459
861.918	4500
862.05	4569
862.183	4599
862.315	4645
862.447	4706
862.58	4584
862.712	4402
862.844	4329
862.976	4516
863.108	4497
863.24	4790
863.372	4379
863.504	4455
863.636	4432
863.768	4580
863.9	4428
864.032	4421
864.164	4398
864.296	4493
864.428	4592
864.559	4603
864.691	4599
864.823	4561
864.954	4523
865.086	4550
865.217	4478
865.349	4489
865.48	4497
865.612	4531
865.743	4702
865.875	4500
866.006	4428
866.137	4462
866.269	4474
866.4	4508
866.531	4470
866.662	4402
866.793	4459
866.924	4436
867.055	4519
867.186	4455
867.317	4436
867.448	4371
867.579	4455
867.71	4432
867.841	4413
867.972	4466
868.103	4504
868.233	4474
868.364	4466
868.495	4512
868.625	4721
868.756	4805
868.886	4607
869.017	4664
869.147	4828
869.278	4771
869.408	4725
869.539	4607
869.669	4698
869.799	4702
869.929	4835
870.06	4755
870.19	4976
870.32	4930
870.45	4972
870.58	5060
870.71	5102
870.84	5155
870.97	4957
871.1	4927
871.23	5170
871.36	5212
871.489	5067
871.619	5132
871.749	5079
871.879	5162
872.008	5166
872.138	5071
872.267	5010
872.397	4839
872.526	4812
872.656	4733
872.785	4858
872.915	5003
873.044	5071
873.173	4968
873.303	4991
873.432	5003
873.561	4976
873.69	4892
873.819	4835
873.948	4927
874.077	4831
874.206	4774
874.335	4835
874.464	4953
874.593	5079
874.722	4980
874.851	5128
874.979	5010
875.108	5029
875.237	4961
875.365	4900
875.494	4850
875.623	4995
875.751	4866
875.88	4942
876.008	4984
876.136	5067
876.265	5208
876.393	5383
876.521	5318
876.65	5254
876.778	5185
876.906	5113
877.034	5029
877.162	5094
877.29	5033
877.418	5041
877.546	5033
877.674	5083
877.802	5033
877.93	5025
878.058	4938
878.185	4877
878.313	4976
878.441	4957
878.568	4809
878.696	4949
878.824	5018
878.951	5041
879.079	5159
879.206	5288
879.333	5105
879.461	4999
879.588	5041
879.715	5147
879.842	5212
879.97	5025
880.097	4824
880.224	4820
880.351	4854
880.478	4870
880.605	4812
880.732	4812
880.859	5102
880.986	4892
881.112	4953
881.239	4805
881.366	4717
881.493	4637
881.619	4645
881.746	4653
881.872	4664
881.999	4660
882.125	4721
882.252	4839
882.378	4866
882.505	5018
882.631	4809
882.757	4679
882.883	4752
883.01	4755
883.136	4683
883.262	4611
883.388	4672
883.514	4862
883.64	4866
883.766	4809
883.892	4710
884.018	4763
884.143	4908
884.269	4999
884.395	4668
884.52	4683
884.646	4649
884.772	4592
884.897	4535
885.023	4603
885.148	4748
885.274	4847
885.399	4820
885.524	4767
885.65	4710
885.775	4816
885.9	4698
886.025	4850
886.15	4820
886.275	4691
886.4	4687
886.525	4706
886.65	4668
886.775	4675
886.9	4965
887.025	5029
887.149	4824
887.274	4725
887.399	4584
887.523	4577
887.648	4637
887.773	4615
887.897	4763
888.021	4831
888.146	4698
888.27	4877
888.395	4900
888.519	4816
888.643	4866
888.767	4812
888.891	4736
889.015	4641
889.139	4717
889.263	4656
889.387	4771
889.511	4927
889.635	4774
889.759	4653
889.883	4664
890.006	4759
890.13	4820
890.254	4615
890.377	4679
890.501	4588
890.624	4527
890.748	4656
890.871	4546
890.995	4394
891.118	4432
891.241	4546
891.364	4527
891.488	4656
891.611	4550
891.734	4519
891.857	4637
891.98	4565
892.103	4679
892.226	4611
892.349	4481
892.471	4428
892.594	4542
892.717	4618
892.839	4596
892.962	4626
893.085	4672
893.207	4607
893.33	4489
893.452	4508
893.575	4736
893.697	4580
893.819	4831
893.941	4877
894.064	4786
894.186	4599
894.308	4573
894.43	4744
894.552	4839
894.674	4744
894.796	4615
894.918	4607
895.04	4546
895.161	4736
895.283	4691
895.405	4615
895.526	4702
895.648	4702
895.769	4702
895.891	4744
896.012	4767
896.134	4717
896.255	4656
896.376	4656
896.498	4577
896.619	4687
896.74	4634
896.861	4603
896.982	4896
897.103	5079
897.224	4793
897.345	4759
897.466	4653
897.587	4721
897.708	4923
897.828	4828
897.949	4641
898.07	4569
898.19	4687
898.311	4824
898.431	4694
898.552	4698
898.672	4805
898.792	4774
898.913	4752
899.033	4622
899.153	4577
899.273	4474
899.393	4497
899.513	4512
899.633	4550
899.753	4599
899.873	4561
899.993	4573
900.113	4577
900.232	4626
900.352	4531
900.472	4538
900.591	4360
900.711	4470
900.83	4432
900.95	4615
901.069	4672
901.189	4565
901.308	4417
901.427	4322
901.546	4398
901.665	4447
901.784	4538
901.904	4402
902.023	4280
902.141	4223
902.26	4169
902.379	4337
902.498	4280
902.617	4211
902.735	4333
902.854	4371
902.973	4363
903.091	4192
903.21	4246
903.328	4344
903.446	4253
903.565	4200
903.683	4352
903.801	4303
903.919	4394
904.038	4474
904.156	4341
904.274	4459
904.392	4451
904.51	4421
904.627	4474
904.745	4596
904.863	4618
904.981	4405
905.098	4356
905.216	4398
905.334	4432
905.451	4478
905.569	4417
905.686	4599
905.803	4618
905.921	4440
906.038	4577
906.155	4538
906.272	4413
906.389	4493
906.506	4337
906.623	4375
906.74	4436
906.857	4318
906.974	4390
907.091	4599
907.208	4721
907.324	4596
907.441	4535
907.557	4417
907.674	4405
907.79	4394
907.907	4443
908.023	4516
908.139	4531
908.256	4478
908.372	4508
908.488	4516
908.604	4386
908.72	4337
908.836	4413
908.952	4447
909.068	4447
909.184	4626
909.3	4558
909.415	4618
909.531	4592
909.647	4424
909.762	4341
909.878	4443
909.993	4519
910.108	4451
910.224	4455
910.339	4508
910.454	4417
910.57	4424
910.685	4352
910.8	4668
910.915	4634
911.03	4542
911.145	4371
911.259	4356
911.374	4405
911.489	4352
911.604	4314
911.718	4253
911.833	4303
911.947	4173
912.062	4086
912.176	4234
912.291	4318
912.405	4344
912.519	4516
912.633	4561
912.748	4398
912.862	4352
912.976	4227
913.09	4162
913.204	4207
913.318	4276
913.431	4398
913.545	4390
913.659	4489
913.772	4436
913.886	4265
914	4348
914.113	4417
914.226	4466
914.34	4481
914.453	4318
914.566	4474
914.68	4352
914.793	4386
914.906	4158
915.019	4177
915.132	4158
915.245	4276
915.358	4284
915.47	4253
915.583	4291
915.696	4303
915.809	4451
915.921	4459
916.034	4310
916.146	4238
916.259	4257
916.371	4413
916.483	4386
916.595	4303
916.708	4352
916.82	4371
916.932	4325
917.044	4383
917.156	4375
917.268	4257
917.38	4337
917.491	4314
917.603	4386
917.715	4451
917.826	4474
917.938	4398
918.049	4310
918.161	4424
918.272	4603
918.384	4558
918.495	4436
918.606	4329
918.717	4272
918.828	4402
918.939	4432
919.05	4280
919.161	4405
919.272	4185
919.383	4257
919.494	4497
919.604	4679
919.715	4417
919.826	4409
919.936	4451
920.047	4554
920.157	4516
920.267	4767
920.378	4607
920.488	4546
920.598	4736
920.708	4908
920.818	4752
920.928	4820
921.038	4957
921.148	4961
921.258	4698
921.368	4599
921.477	4516
921.587	4504
921.697	4383
921.806	4584
921.916	4493
922.025	4333
922.134	4322
922.244	4253
922.353	4352
922.462	4253
922.571	4150
922.68	4086
922.789	4040
922.898	4067
923.007	3994
923.116	4177
923.224	4093
923.333	4173
923.442	4002
923.55	4029
923.659	4067
923.767	4166
923.876	4029
923.984	4177
924.092	4036
924.201	4051
924.309	4097
924.417	4128
924.525	4112
924.633	4128
924.741	4934
924.849	3930
924.956	4181
925.064	4010
925.172	3972
925.279	3964
925.387	4101
925.494	4112
925.602	4246
925.709	4211
925.816	4109
925.924	4097
926.031	4295
926.138	4204
926.245	4253
926.352	4116
926.459	4299
926.566	4299
926.673	4253
926.779	4120
926.886	4135
926.993	4051
927.099	3994
927.206	3987
927.312	3975
927.419	4101
927.525	4067
927.631	4116
927.737	3994
927.843	3979
927.95	3911
928.056	3994
928.162	4029
928.267	4090
928.373	4634
928.479	4131
928.585	3926
928.69	4059
928.796	4112
928.901	4021
929.007	3918
929.112	4109
929.218	4032
929.323	3949
929.428	3945
929.533	4154
929.638	3964
929.743	3968
929.848	4093
929.953	4059
930.058	3968
930.163	3816
930.267	3884
930.372	4021
930.477	3880
930.581	4131
930.685	3968
930.79	3884
930.894	3888
930.998	3903
931.103	4051
931.207	3740
931.311	3743
931.415	3690
931.519	3557
931.623	3610
