Data from test_V78500241_1561.txt Node
Date: Fri Mar 25 16:59:51 CST 2022
User: usil
Spectrometer: V785-0024
Trigger mode: 0
Integration Time (sec): 4.000000E-1
Scans to average: 1
Nonlinearity correction enabled: false
Boxcar width: 0
Storing dark spectrum: false
XAxis mode: Wavelengths
Number of Pixels in Spectrum: 1024
>>>>>Begin Spectral Data<<<<<
801.071	7959
801.214	7974
801.356	7887
801.499	7864
801.641	7761
801.783	7746
801.926	7959
802.068	7894
802.211	7970
802.353	8001
802.496	7822
802.638	7864
802.78	7879
802.923	7917
803.065	7852
803.208	7833
803.35	7894
803.492	8115
803.635	8100
803.777	8024
803.919	8103
804.061	8484
804.204	8164
804.346	8046
804.488	7989
804.63	8043
804.773	8031
804.915	8103
805.057	8294
805.199	8218
805.341	8107
805.483	8263
805.626	8199
805.768	8027
805.91	8237
806.052	8229
806.194	8145
806.336	8256
806.478	8062
806.62	7986
806.762	8115
806.904	8248
807.046	8492
807.188	8362
807.33	8275
807.472	8282
807.614	8115
807.756	8130
807.898	7951
808.04	7807
808.182	7871
808.324	7879
808.465	7925
808.607	8088
808.749	8100
808.891	8168
809.033	8267
809.174	8225
809.316	8024
809.458	8073
809.6	7970
809.741	8035
809.883	8024
810.025	8100
810.166	8050
810.308	8008
810.45	8027
810.591	7837
810.733	7734
810.875	7693
811.016	7533
811.158	7487
811.299	7540
811.441	7662
811.582	7613
811.724	7590
811.865	7586
812.007	7582
812.148	7601
812.29	7586
812.431	7803
812.573	7849
812.714	8005
812.855	8107
812.997	8195
813.138	8313
813.279	8161
813.421	8058
813.562	7951
813.703	7841
813.845	7693
813.986	7506
814.127	7190
814.268	7213
814.41	7175
814.551	7164
814.692	7225
814.833	7069
814.974	7099
815.115	7084
815.256	6939
815.397	6932
815.539	6958
815.68	6810
815.821	6753
815.962	6787
816.103	6821
816.244	6734
816.385	6642
816.526	6585
816.666	6471
816.807	6372
816.948	6429
817.089	6456
817.23	6426
817.371	6365
817.512	6395
817.653	6422
817.793	6319
817.934	6391
818.075	6407
818.216	6448
818.356	6376
818.497	6243
818.638	6117
818.778	6129
818.919	6140
819.06	6136
819.2	6327
819.341	6327
819.481	6319
819.622	6502
819.762	6696
819.903	6692
820.043	6620
820.184	6608
820.324	6570
820.465	6700
820.605	6692
820.746	6593
820.886	6506
821.026	6627
821.167	6722
821.307	6791
821.447	6726
821.588	6688
821.728	6582
821.868	6483
822.008	6308
822.149	6369
822.289	6323
822.429	6114
822.569	6091
822.709	6098
822.849	5920
822.99	5908
823.13	5897
823.27	5984
823.41	5836
823.55	5790
823.69	5745
823.83	5840
823.97	5661
824.11	5486
824.25	5478
824.389	5562
824.529	5570
824.669	5509
824.809	5680
824.949	5600
825.089	5600
825.228	5551
825.368	5353
825.508	5299
825.648	5315
825.787	5360
825.927	5326
826.067	5280
826.206	5261
826.346	5379
826.485	5383
826.625	5448
826.765	5528
826.904	5471
827.044	5231
827.183	5193
827.323	5105
827.462	5242
827.601	5136
827.741	5189
827.88	5174
828.02	5128
828.159	5223
828.298	5269
828.437	5421
828.577	5242
828.716	5539
828.855	5330
828.994	5201
829.134	5121
829.273	5128
829.412	5102
829.551	5132
829.69	5132
829.829	5223
829.968	5334
830.107	5303
830.246	5246
830.385	5132
830.524	5140
830.663	5048
830.802	4965
830.941	4896
831.08	4873
831.219	4991
831.357	4957
831.496	5189
831.635	4904
831.774	4793
831.913	4801
832.051	4717
832.19	4733
832.329	4767
832.467	4679
832.606	4607
832.744	4736
832.883	4721
833.022	4736
833.16	4782
833.299	4763
833.437	4816
833.576	4786
833.714	4831
833.852	4824
833.991	4850
834.129	4953
834.267	4938
834.406	4889
834.544	4942
834.682	4976
834.821	4949
834.959	5166
835.097	4984
835.235	5113
835.373	5075
835.511	5102
835.65	5045
835.788	5010
835.926	4862
836.064	4885
836.202	4900
836.34	5113
836.478	5250
836.615	5102
836.753	5151
836.891	5284
837.029	5239
837.167	5166
837.305	5162
837.443	5140
837.58	5033
837.718	5265
837.856	5143
837.993	5132
838.131	5216
838.269	5227
838.406	5216
838.544	5201
838.681	5048
838.819	4995
838.956	4919
839.094	4919
839.231	4976
839.369	5052
839.506	5417
839.643	5280
839.781	5048
839.918	4987
840.055	5098
840.193	5067
840.33	5090
840.467	5132
840.604	5174
840.742	5406
840.879	5029
841.016	5090
841.153	5132
841.29	5372
841.427	5326
841.564	5277
841.701	5334
841.838	5239
841.975	5201
842.112	5261
842.249	5174
842.385	5117
842.522	5311
842.659	5140
842.796	5170
842.933	5201
843.069	5159
843.206	5124
843.343	5303
843.479	5261
843.616	5242
843.752	5029
843.889	4984
844.025	5250
844.162	4984
844.298	5197
844.435	5052
844.571	5022
844.708	5181
844.844	5307
844.98	5330
845.117	5303
845.253	5071
845.389	5033
845.525	5151
845.661	5128
845.798	5006
845.934	5102
846.07	5064
846.206	5204
846.342	5296
846.478	5166
846.614	5052
846.75	4927
846.886	4915
847.022	5105
847.158	5029
847.294	5067
847.429	5075
847.565	5010
847.701	5311
847.837	4820
847.972	4755
848.108	4904
848.244	4938
848.379	4771
848.515	4710
848.65	4691
848.786	4714
848.921	4740
849.057	4850
849.192	4870
849.328	4801
849.463	4850
849.598	4812
849.734	4721
849.869	4710
850.004	4580
850.14	4664
850.275	4649
850.41	4493
850.545	4561
850.68	4615
850.815	4599
850.95	4603
851.085	4824
851.22	4752
851.355	4656
851.49	4588
851.625	4626
851.76	4668
851.895	4542
852.03	4523
852.165	4618
852.299	4733
852.434	4725
852.569	4767
852.703	4729
852.838	4908
852.973	4949
853.107	4923
853.242	4744
853.376	4630
853.511	4489
853.645	4664
853.78	4759
853.914	4687
854.048	4675
854.183	4645
854.317	4729
854.451	4820
854.585	4683
854.72	4615
854.854	4752
854.988	4584
855.122	4599
855.256	4523
855.39	4645
855.524	4767
855.658	4702
855.792	4683
855.926	4740
856.06	4733
856.194	4725
856.327	4653
856.461	4603
856.595	4645
856.729	4637
856.862	4733
856.996	4717
857.13	4729
857.263	4759
857.397	4778
857.53	4626
857.664	4702
857.797	4782
857.931	4786
858.064	4702
858.197	4767
858.331	4626
858.464	4637
858.597	4516
858.731	4618
858.864	4622
858.997	4618
859.13	4611
859.263	4668
859.396	4645
859.529	4573
859.662	4550
859.795	4569
859.928	4611
860.061	4736
860.194	4755
860.327	4634
860.46	4573
860.592	4679
860.725	4687
860.858	4687
860.99	4561
861.123	4523
861.256	4538
861.388	4630
861.521	5216
861.653	4489
861.786	4432
861.918	4455
862.05	4504
862.183	4554
862.315	4603
862.447	4645
862.58	4516
862.712	4394
862.844	4322
862.976	4519
863.108	4500
863.24	4767
863.372	4337
863.504	4394
863.636	4413
863.768	4512
863.9	4424
864.032	4360
864.164	4337
864.296	4436
864.428	4561
864.559	4546
864.691	4561
864.823	4470
864.954	4523
865.086	4481
865.217	4478
865.349	4432
865.48	4466
865.612	4531
865.743	4611
865.875	4466
866.006	4398
866.137	4497
866.269	4447
866.4	4398
866.531	4379
866.662	4379
866.793	4360
866.924	4405
867.055	4485
867.186	4379
867.317	4409
867.448	4379
867.579	4394
867.71	4417
867.841	4363
867.972	4443
868.103	4440
868.233	4451
868.364	4424
868.495	4459
868.625	4637
868.756	4717
868.886	4481
869.017	4569
869.147	4755
869.278	4774
869.408	4653
869.539	4618
869.669	4702
869.799	4668
869.929	4767
870.06	4721
870.19	4919
870.32	4938
870.45	4911
870.58	5018
870.71	5079
870.84	5121
870.97	4980
871.1	4873
871.23	5166
871.36	5178
871.489	5014
871.619	5056
871.749	5064
871.879	5079
872.008	5166
872.138	5064
872.267	4980
872.397	4858
872.526	4839
872.656	4721
872.785	4801
872.915	4984
873.044	5018
873.173	4934
873.303	4957
873.432	4927
873.561	4908
873.69	4870
873.819	4850
873.948	4953
874.077	4862
874.206	4721
874.335	4816
874.464	4885
874.593	5010
874.722	4919
874.851	5067
874.979	5052
875.108	5052
875.237	4854
875.365	4828
875.494	4915
875.623	4972
875.751	4820
875.88	4862
876.008	4965
876.136	5025
876.265	5170
876.393	5307
876.521	5216
876.65	5132
876.778	5147
876.906	5041
877.034	5014
877.162	5056
877.29	4957
877.418	5025
877.546	5006
877.674	5045
877.802	4968
877.93	4976
878.058	4904
878.185	4889
878.313	4957
878.441	4938
878.568	4755
878.696	4850
878.824	4976
878.951	4995
879.079	5132
879.206	5261
879.333	5090
879.461	4976
879.588	4976
879.715	5098
879.842	5178
879.97	4965
880.097	4763
880.224	4736
880.351	4801
880.478	4816
880.605	4801
880.732	4797
880.859	5094
880.986	4900
881.112	4911
881.239	4771
881.366	4668
881.493	4645
881.619	4592
881.746	4637
881.872	4656
881.999	4679
882.125	4687
882.252	4809
882.378	4816
882.505	4953
882.631	4812
882.757	4645
882.883	4736
883.01	4702
883.136	4656
883.262	4607
883.388	4577
883.514	4816
883.64	4900
883.766	4778
883.892	4656
884.018	4694
884.143	4885
884.269	5018
884.395	4664
884.52	4554
884.646	4645
884.772	4615
884.897	4580
885.023	4675
885.148	4778
885.274	4828
885.399	4809
885.524	4706
885.65	4641
885.775	4774
885.9	4755
886.025	4839
886.15	4767
886.275	4683
886.4	4637
886.525	4710
886.65	4691
886.775	4641
886.9	4889
887.025	5022
887.149	4828
887.274	4626
887.399	4592
887.523	4603
887.648	4550
887.773	4523
887.897	4733
888.021	4805
888.146	4698
888.27	4786
888.395	4900
888.519	4805
888.643	4782
888.767	4797
888.891	4725
889.015	4596
889.139	4630
889.263	4584
889.387	4748
889.511	4858
889.635	4801
889.759	4607
889.883	4683
890.006	4710
890.13	4797
890.254	4596
890.377	4615
890.501	4519
890.624	4512
890.748	4637
890.871	4462
890.995	4379
891.118	4394
891.241	4497
891.364	4516
891.488	4622
891.611	4462
891.734	4554
891.857	4558
891.98	4538
892.103	4660
892.226	4569
892.349	4493
892.471	4436
892.594	4535
892.717	4561
892.839	4558
892.962	4573
893.085	4653
893.207	4603
893.33	4493
893.452	4523
893.575	4618
893.697	4615
893.819	4774
893.941	4854
894.064	4725
894.186	4554
894.308	4538
894.43	4710
894.552	4831
894.674	4752
894.796	4531
894.918	4592
895.04	4592
895.161	4645
895.283	4683
895.405	4558
895.526	4626
895.648	4656
895.769	4679
895.891	4694
896.012	4717
896.134	4702
896.255	4653
896.376	4679
896.498	4588
896.619	4698
896.74	4603
896.861	4637
896.982	4961
897.103	5086
897.224	4862
897.345	4774
897.466	4668
897.587	4725
897.708	4858
897.828	4755
897.949	4679
898.07	4538
898.19	4637
898.311	4790
898.431	4599
898.552	4740
898.672	4809
898.792	4744
898.913	4729
899.033	4649
899.153	4512
899.273	4432
899.393	4474
899.513	4497
899.633	4500
899.753	4527
899.873	4512
899.993	4596
900.113	4508
900.232	4558
900.352	4546
900.472	4466
900.591	4394
900.711	4466
900.83	4413
900.95	4626
901.069	4710
901.189	4565
901.308	4383
901.427	4295
901.546	4409
901.665	4447
901.784	4478
901.904	4386
902.023	4375
902.141	4196
902.26	4166
902.379	4314
902.498	4234
902.617	4188
902.735	4360
902.854	4398
902.973	4356
903.091	4211
903.21	4230
903.328	4280
903.446	4242
903.565	4265
903.683	4341
903.801	4200
903.919	4375
904.038	4451
904.156	4325
904.274	4390
904.392	4383
904.51	4421
904.627	4500
904.745	4554
904.863	4630
904.981	4367
905.098	4303
905.216	4379
905.334	4405
905.451	4512
905.569	4440
905.686	4497
905.803	4512
905.921	4424
906.038	4561
906.155	4466
906.272	4409
906.389	4447
906.506	4295
906.623	4367
906.74	4417
906.857	4337
906.974	4383
907.091	4565
907.208	4653
907.324	4592
907.441	4512
907.557	4310
907.674	4325
907.79	4284
907.907	4352
908.023	4478
908.139	4489
908.256	4462
908.372	4447
908.488	4413
908.604	4371
908.72	4329
908.836	4394
908.952	4360
909.068	4443
909.184	4527
909.3	4455
909.415	4603
909.531	4538
909.647	4367
909.762	4363
909.878	4383
909.993	4405
910.108	4417
910.224	4386
910.339	4474
910.454	4402
910.57	4360
910.685	4295
910.8	4641
910.915	4584
911.03	4466
911.145	4295
911.259	4276
911.374	4360
911.489	4268
911.604	4280
911.718	4112
911.833	4211
911.947	4071
912.062	4021
912.176	4211
912.291	4249
912.405	4238
912.519	4405
912.633	4481
912.748	4352
912.862	4352
912.976	4261
913.09	4124
913.204	4173
913.318	4238
913.431	4390
913.545	4379
913.659	4390
913.772	4367
913.886	4257
914	4223
914.113	4375
914.226	4390
914.34	4375
914.453	4238
914.566	4371
914.68	4295
914.793	4287
914.906	4192
915.019	4116
915.132	4040
915.245	4162
915.358	4188
915.47	4246
915.583	4268
915.696	4272
915.809	4375
915.921	4413
916.034	4265
916.146	4249
916.259	4238
916.371	4386
916.483	4306
916.595	4223
916.708	4306
916.82	4344
916.932	4337
917.044	4341
917.156	4272
917.268	4230
917.38	4287
917.491	4276
917.603	4310
917.715	4424
917.826	4466
917.938	4310
918.049	4227
918.161	4424
918.272	4535
918.384	4542
918.495	4447
918.606	4295
918.717	4223
918.828	4329
918.939	4329
919.05	4238
919.161	4337
919.272	4147
919.383	4215
919.494	4459
919.604	4611
919.715	4455
919.826	4356
919.936	4371
920.047	4485
920.157	4485
920.267	4664
920.378	4523
920.488	4447
920.598	4656
920.708	4885
920.818	4809
920.928	4752
921.038	4957
921.148	4930
921.258	4599
921.368	4531
921.477	4516
921.587	4485
921.697	4363
921.806	4523
921.916	4371
922.025	4280
922.134	4272
922.244	4261
922.353	4303
922.462	4158
922.571	4131
922.68	3994
922.789	3979
922.898	4002
923.007	3972
923.116	4109
923.224	4097
923.333	4093
923.442	4021
923.55	3934
923.659	3975
923.767	4093
923.876	3991
923.984	4131
924.092	3949
924.201	4086
924.309	4105
924.417	4131
924.525	4093
924.633	4143
924.741	5014
924.849	3903
924.956	4131
925.064	3949
925.172	3869
925.279	3960
925.387	4067
925.494	4093
925.602	4192
925.709	4150
925.816	4059
925.924	4139
926.031	4158
926.138	4188
926.245	4223
926.352	4135
926.459	4234
926.566	4337
926.673	4162
926.779	4059
926.886	4101
926.993	3991
927.099	3949
927.206	3987
927.312	3907
927.419	4036
927.525	4051
927.631	4116
927.737	3934
927.843	3930
927.95	3831
928.056	3934
928.162	3987
928.267	4082
928.373	4565
928.479	4093
928.585	3892
928.69	3994
928.796	4082
928.901	3956
929.007	3861
929.112	3983
929.218	3956
929.323	3953
929.428	3960
929.533	4112
929.638	3869
929.743	3983
929.848	4029
929.953	3983
930.058	3922
930.163	3762
930.267	3800
930.372	3956
930.477	3785
930.581	4124
930.685	3953
930.79	3808
930.894	3865
930.998	3850
931.103	4021
931.207	3743
931.311	3698
931.415	3682
931.519	3500
931.623	3561
