Data from test_V78500241_2363.txt Node
Date: Fri Mar 25 17:05:25 CST 2022
User: usil
Spectrometer: V785-0024
Trigger mode: 0
Integration Time (sec): 4.000000E-1
Scans to average: 1
Nonlinearity correction enabled: false
Boxcar width: 0
Storing dark spectrum: false
XAxis mode: Wavelengths
Number of Pixels in Spectrum: 1024
>>>>>Begin Spectral Data<<<<<
801.071	8027
801.214	7921
801.356	7902
801.499	7837
801.641	7818
801.783	7879
801.926	7947
802.068	7925
802.211	7982
802.353	8031
802.496	7837
802.638	7864
802.78	7925
802.923	7883
803.065	7864
803.208	7955
803.35	8001
803.492	8111
803.635	8172
803.777	8008
803.919	8164
804.061	8446
804.204	8161
804.346	8081
804.488	7978
804.63	8092
804.773	8054
804.915	8145
805.057	8374
805.199	8161
805.341	8180
805.483	8229
805.626	8229
805.768	8161
805.91	8191
806.052	8244
806.194	8161
806.336	8320
806.478	8062
806.62	8107
806.762	8130
806.904	8282
807.046	8446
807.188	8389
807.33	8320
807.472	8336
807.614	8153
807.756	8176
807.898	8027
808.04	7898
808.182	7894
808.324	7887
808.465	7925
808.607	8084
808.749	8149
808.891	8187
809.033	8256
809.174	8263
809.316	8096
809.458	8092
809.6	8027
809.741	8065
809.883	8050
810.025	8138
810.166	8043
810.308	8046
810.45	7978
810.591	7917
810.733	7784
810.875	7685
811.016	7552
811.158	7533
811.299	7594
811.441	7689
811.582	7655
811.724	7590
811.865	7518
812.007	7628
812.148	7624
812.29	7662
812.431	7734
812.573	7856
812.714	7997
812.855	8172
812.997	8187
813.138	8195
813.279	8164
813.421	8096
813.562	7997
813.703	7875
813.845	7731
813.986	7430
814.127	7266
814.268	7202
814.41	7213
814.551	7232
814.692	7278
814.833	7110
814.974	7126
815.115	7198
815.256	6981
815.397	6920
815.539	6928
815.68	6791
815.821	6776
815.962	6890
816.103	6844
816.244	6738
816.385	6662
816.526	6601
816.666	6471
816.807	6350
816.948	6452
817.089	6502
817.23	6441
817.371	6376
817.512	6380
817.653	6407
817.793	6342
817.934	6426
818.075	6486
818.216	6437
818.356	6422
818.497	6300
818.638	6144
818.778	6148
818.919	6106
819.06	6247
819.2	6319
819.341	6281
819.481	6380
819.622	6585
819.762	6715
819.903	6757
820.043	6681
820.184	6563
820.324	6582
820.465	6703
820.605	6700
820.746	6703
820.886	6544
821.026	6650
821.167	6749
821.307	6825
821.447	6825
821.588	6662
821.728	6612
821.868	6532
822.008	6376
822.149	6353
822.289	6369
822.429	6178
822.569	6068
822.709	6152
822.849	5939
822.99	5889
823.13	5946
823.27	5923
823.41	5836
823.55	5756
823.69	5771
823.83	5794
823.97	5623
824.11	5535
824.25	5486
824.389	5585
824.529	5611
824.669	5501
824.809	5684
824.949	5668
825.089	5630
825.228	5562
825.368	5410
825.508	5337
825.648	5357
825.787	5406
825.927	5376
826.067	5322
826.206	5299
826.346	5452
826.485	5387
826.625	5387
826.765	5611
826.904	5490
827.044	5277
827.183	5185
827.323	5166
827.462	5242
827.601	5235
827.741	5227
827.88	5239
828.02	5121
828.159	5246
828.298	5315
828.437	5357
828.577	5315
828.716	5471
828.855	5322
828.994	5132
829.134	5174
829.273	5201
829.412	5090
829.551	5105
829.69	5197
829.829	5296
829.968	5425
830.107	5223
830.246	5280
830.385	5223
830.524	5113
830.663	5079
830.802	4980
830.941	4900
831.08	4923
831.219	4987
831.357	4972
831.496	5147
831.635	4904
831.774	4850
831.913	4870
832.051	4691
832.19	4797
832.329	4847
832.467	4721
832.606	4656
832.744	4687
832.883	4763
833.022	4759
833.16	4805
833.299	4866
833.437	4828
833.576	4831
833.714	4866
833.852	4828
833.991	4877
834.129	4984
834.267	4968
834.406	4896
834.544	4953
834.682	4938
834.821	4946
834.959	5113
835.097	4942
835.235	5166
835.373	5094
835.511	5128
835.65	5098
835.788	5006
835.926	4892
836.064	4854
836.202	4946
836.34	5140
836.478	5201
836.615	5113
836.753	5258
836.891	5277
837.029	5242
837.167	5227
837.305	5128
837.443	5121
837.58	5067
837.718	5246
837.856	5178
837.993	5204
838.131	5223
838.269	5121
838.406	5201
838.544	5220
838.681	5045
838.819	4976
838.956	4885
839.094	4919
839.231	4965
839.369	5098
839.506	5429
839.643	5246
839.781	5060
839.918	5071
840.055	5132
840.193	5162
840.33	5079
840.467	5151
840.604	5212
840.742	5414
840.879	5083
841.016	5140
841.153	5166
841.29	5372
841.427	5372
841.564	5322
841.701	5368
841.838	5277
841.975	5231
842.112	5220
842.249	5090
842.385	5117
842.522	5345
842.659	5159
842.796	5140
842.933	5151
843.069	5128
843.206	5204
843.343	5265
843.479	5277
843.616	5269
843.752	5029
843.889	5045
844.025	5212
844.162	4995
844.298	5166
844.435	5048
844.571	5022
844.708	5201
844.844	5296
844.98	5307
845.117	5277
845.253	5147
845.389	5045
845.525	5216
845.661	5197
845.798	5006
845.934	5124
846.07	5083
846.206	5231
846.342	5246
846.478	5155
846.614	5014
846.75	5003
846.886	4927
847.022	5151
847.158	5052
847.294	5083
847.429	5105
847.565	5052
847.701	5315
847.837	4866
847.972	4790
848.108	4972
848.244	4911
848.379	4774
848.515	4733
848.65	4721
848.786	4774
848.921	4778
849.057	4839
849.192	4915
849.328	4786
849.463	4854
849.598	4782
849.734	4805
849.869	4714
850.004	4637
850.14	4672
850.275	4626
850.41	4554
850.545	4565
850.68	4596
850.815	4656
850.95	4611
851.085	4812
851.22	4767
851.355	4675
851.49	4584
851.625	4618
851.76	4656
851.895	4588
852.03	4523
852.165	4664
852.299	4729
852.434	4767
852.569	4717
852.703	4763
852.838	4816
852.973	4946
853.107	4896
853.242	4778
853.376	4645
853.511	4573
853.645	4653
853.78	4839
853.914	4637
854.048	4660
854.183	4611
854.317	4721
854.451	4786
854.585	4675
854.72	4656
854.854	4771
854.988	4615
855.122	4645
855.256	4538
855.39	4672
855.524	4793
855.658	4721
855.792	4702
855.926	4710
856.06	4729
856.194	4831
856.327	4706
856.461	4588
856.595	4649
856.729	4626
856.862	4767
856.996	4645
857.13	4714
857.263	4816
857.397	4771
857.53	4683
857.664	4759
857.797	4740
857.931	4714
858.064	4691
858.197	4702
858.331	4645
858.464	4630
858.597	4542
858.731	4580
858.864	4596
858.997	4538
859.13	4645
859.263	4611
859.396	4687
859.529	4607
859.662	4580
859.795	4527
859.928	4637
860.061	4782
860.194	4740
860.327	4637
860.46	4615
860.592	4736
860.725	4744
860.858	4733
860.99	4561
861.123	4527
861.256	4546
861.388	4630
861.521	5330
861.653	4459
861.786	4512
861.918	4485
862.05	4504
862.183	4554
862.315	4634
862.447	4656
862.58	4554
862.712	4379
862.844	4352
862.976	4474
863.108	4443
863.24	4911
863.372	4371
863.504	4428
863.636	4367
863.768	4481
863.9	4462
864.032	4405
864.164	4402
864.296	4474
864.428	4554
864.559	4599
864.691	4523
864.823	4565
864.954	4516
865.086	4485
865.217	4443
865.349	4409
865.48	4462
865.612	4531
865.743	4626
865.875	4451
866.006	4432
866.137	4436
866.269	4474
866.4	4409
866.531	4405
866.662	4398
866.793	4432
866.924	4421
867.055	4459
867.186	4466
867.317	4413
867.448	4413
867.579	4379
867.71	4383
867.841	4409
867.972	4443
868.103	4409
868.233	4443
868.364	4421
868.495	4478
868.625	4653
868.756	4778
868.886	4569
869.017	4599
869.147	4721
869.278	4771
869.408	4687
869.539	4656
869.669	4733
869.799	4626
869.929	4736
870.06	4694
870.19	4980
870.32	4934
870.45	4949
870.58	5018
870.71	5121
870.84	5086
870.97	4930
871.1	4904
871.23	5113
871.36	5105
871.489	5014
871.619	5060
871.749	5045
871.879	5124
872.008	5216
872.138	5037
872.267	4961
872.397	4881
872.526	4839
872.656	4721
872.785	4744
872.915	4942
873.044	5025
873.173	4908
873.303	4938
873.432	4949
873.561	4949
873.69	4877
873.819	4805
873.948	4946
874.077	4793
874.206	4790
874.335	4797
874.464	4942
874.593	5105
874.722	4957
874.851	5102
874.979	5064
875.108	5018
875.237	4904
875.365	4889
875.494	4866
875.623	4972
875.751	4835
875.88	4881
876.008	4991
876.136	5037
876.265	5231
876.393	5349
876.521	5258
876.65	5288
876.778	5185
876.906	5094
877.034	4991
877.162	5109
877.29	5037
877.418	5060
877.546	5025
877.674	5041
877.802	5018
877.93	5048
878.058	4987
878.185	4885
878.313	4946
878.441	4968
878.568	4828
878.696	4862
878.824	4961
878.951	5010
879.079	5079
879.206	5277
879.333	5105
879.461	4968
879.588	5006
879.715	5094
879.842	5242
879.97	5014
880.097	4767
880.224	4755
880.351	4786
880.478	4809
880.605	4862
880.732	4759
880.859	5033
880.986	4870
881.112	4873
881.239	4752
881.366	4664
881.493	4634
881.619	4603
881.746	4577
881.872	4691
881.999	4672
882.125	4660
882.252	4759
882.378	4850
882.505	4987
882.631	4835
882.757	4668
882.883	4748
883.01	4771
883.136	4656
883.262	4607
883.388	4573
883.514	4774
883.64	4858
883.766	4759
883.892	4622
884.018	4660
884.143	4892
884.269	5056
884.395	4664
884.52	4603
884.646	4656
884.772	4596
884.897	4538
885.023	4729
885.148	4763
885.274	4885
885.399	4809
885.524	4698
885.65	4736
885.775	4702
885.9	4668
886.025	4850
886.15	4797
886.275	4691
886.4	4599
886.525	4702
886.65	4702
886.775	4656
886.9	4915
887.025	5064
887.149	4793
887.274	4618
887.399	4569
887.523	4592
887.648	4554
887.773	4592
887.897	4736
888.021	4790
888.146	4656
888.27	4790
888.395	4968
888.519	4820
888.643	4801
888.767	4854
888.891	4702
889.015	4630
889.139	4714
889.263	4592
889.387	4778
889.511	4862
889.635	4793
889.759	4637
889.883	4653
890.006	4717
890.13	4778
890.254	4634
890.377	4630
890.501	4561
890.624	4538
890.748	4618
890.871	4531
890.995	4447
891.118	4379
891.241	4527
891.364	4519
891.488	4618
891.611	4489
891.734	4546
891.857	4596
891.98	4569
892.103	4637
892.226	4592
892.349	4512
892.471	4421
892.594	4516
892.717	4592
892.839	4626
892.962	4565
893.085	4634
893.207	4588
893.33	4481
893.452	4516
893.575	4641
893.697	4561
893.819	4786
893.941	4847
894.064	4774
894.186	4607
894.308	4531
894.43	4740
894.552	4820
894.674	4717
894.796	4603
894.918	4611
895.04	4588
895.161	4717
895.283	4630
895.405	4569
895.526	4615
895.648	4729
895.769	4664
895.891	4717
896.012	4733
896.134	4790
896.255	4694
896.376	4626
896.498	4588
896.619	4672
896.74	4558
896.861	4683
896.982	4957
897.103	5079
897.224	4835
897.345	4759
897.466	4641
897.587	4702
897.708	4828
897.828	4771
897.949	4668
898.07	4607
898.19	4653
898.311	4866
898.431	4683
898.552	4748
898.672	4839
898.792	4763
898.913	4721
899.033	4641
899.153	4485
899.273	4405
899.393	4481
899.513	4489
899.633	4542
899.753	4538
899.873	4512
899.993	4565
900.113	4527
900.232	4573
900.352	4577
900.472	4538
900.591	4405
900.711	4508
900.83	4451
900.95	4626
901.069	4675
901.189	4592
901.308	4352
901.427	4299
901.546	4383
901.665	4485
901.784	4500
901.904	4386
902.023	4360
902.141	4185
902.26	4204
902.379	4299
902.498	4230
902.617	4219
902.735	4402
902.854	4390
902.973	4375
903.091	4230
903.21	4253
903.328	4318
903.446	4287
903.565	4265
903.683	4360
903.801	4249
903.919	4428
904.038	4440
904.156	4329
904.274	4462
904.392	4405
904.51	4394
904.627	4474
904.745	4588
904.863	4645
904.981	4348
905.098	4322
905.216	4386
905.334	4428
905.451	4443
905.569	4455
905.686	4516
905.803	4569
905.921	4405
906.038	4630
906.155	4474
906.272	4394
906.389	4474
906.506	4329
906.623	4402
906.74	4421
906.857	4299
906.974	4363
907.091	4569
907.208	4721
907.324	4618
907.441	4474
907.557	4348
907.674	4322
907.79	4318
907.907	4379
908.023	4512
908.139	4451
908.256	4424
908.372	4428
908.488	4485
908.604	4375
908.72	4329
908.836	4363
908.952	4337
909.068	4443
909.184	4611
909.3	4470
909.415	4546
909.531	4592
909.647	4329
909.762	4367
909.878	4322
909.993	4455
910.108	4432
910.224	4417
910.339	4466
910.454	4398
910.57	4325
910.685	4303
910.8	4675
910.915	4607
911.03	4497
911.145	4333
911.259	4363
911.374	4375
911.489	4280
911.604	4268
911.718	4177
911.833	4200
911.947	4074
912.062	4032
912.176	4230
912.291	4276
912.405	4227
912.519	4451
912.633	4527
912.748	4405
912.862	4318
912.976	4207
913.09	4105
913.204	4139
913.318	4257
913.431	4394
913.545	4356
913.659	4440
913.772	4367
913.886	4196
914	4215
914.113	4394
914.226	4474
914.34	4386
914.453	4246
914.566	4371
914.68	4265
914.793	4318
914.906	4166
915.019	4112
915.132	4013
915.245	4166
915.358	4253
915.47	4261
915.583	4284
915.696	4348
915.809	4386
915.921	4459
916.034	4284
916.146	4249
916.259	4227
916.371	4310
916.483	4375
916.595	4310
916.708	4314
916.82	4322
916.932	4348
917.044	4337
917.156	4337
917.268	4223
917.38	4280
917.491	4291
917.603	4356
917.715	4424
917.826	4455
917.938	4398
918.049	4223
918.161	4398
918.272	4542
918.384	4592
918.495	4504
918.606	4306
918.717	4238
918.828	4314
918.939	4356
919.05	4246
919.161	4341
919.272	4143
919.383	4200
919.494	4409
919.604	4615
919.715	4447
919.826	4318
919.936	4360
920.047	4523
920.157	4447
920.267	4729
920.378	4535
920.488	4455
920.598	4702
920.708	4896
920.818	4763
920.928	4771
921.038	4919
921.148	4900
921.258	4618
921.368	4565
921.477	4474
921.587	4421
921.697	4337
921.806	4542
921.916	4421
922.025	4230
922.134	4249
922.244	4196
922.353	4306
922.462	4143
922.571	4116
922.68	4021
922.789	3968
922.898	4051
923.007	4010
923.116	4090
923.224	4048
923.333	4097
923.442	4002
923.55	3937
923.659	4013
923.767	4105
923.876	3987
923.984	4120
924.092	3994
924.201	4067
924.309	4112
924.417	4090
924.525	4017
924.633	4143
924.741	5064
924.849	3918
924.956	4147
925.064	3953
925.172	3880
925.279	3937
925.387	4048
925.494	4074
925.602	4185
925.709	4135
925.816	4048
925.924	4109
926.031	4196
926.138	4150
926.245	4177
926.352	4082
926.459	4253
926.566	4291
926.673	4101
926.779	4086
926.886	4078
926.993	3994
927.099	3972
927.206	3949
927.312	3975
927.419	4051
927.525	4017
927.631	4097
927.737	3945
927.843	3953
927.95	3827
928.056	3922
928.162	3994
928.267	4082
928.373	4554
928.479	4128
928.585	3873
928.69	4063
928.796	4059
928.901	3975
929.007	3842
929.112	3979
929.218	3964
929.323	3937
929.428	3945
929.533	4090
929.638	3915
929.743	3956
929.848	4055
929.953	4002
930.058	3949
930.163	3736
930.267	3827
930.372	3949
930.477	3816
930.581	4071
930.685	3930
930.79	3789
930.894	3918
930.998	3869
931.103	4040
931.207	3713
931.311	3656
931.415	3671
931.519	3496
931.623	3568
