Data from test_V78500241_1680.txt Node
Date: Fri Mar 25 17:00:41 CST 2022
User: usil
Spectrometer: V785-0024
Trigger mode: 0
Integration Time (sec): 4.000000E-1
Scans to average: 1
Nonlinearity correction enabled: false
Boxcar width: 0
Storing dark spectrum: false
XAxis mode: Wavelengths
Number of Pixels in Spectrum: 1024
>>>>>Begin Spectral Data<<<<<
801.071	8012
801.214	7986
801.356	7883
801.499	7894
801.641	7772
801.783	7830
801.926	7936
802.068	7913
802.211	7944
802.353	7986
802.496	7833
802.638	7906
802.78	7898
802.923	7921
803.065	7879
803.208	7849
803.35	7940
803.492	8065
803.635	8244
803.777	7997
803.919	8138
804.061	8393
804.204	8077
804.346	8043
804.488	8001
804.63	8126
804.773	8058
804.915	8149
805.057	8248
805.199	8199
805.341	8149
805.483	8237
805.626	8161
805.768	8126
805.91	8206
806.052	8206
806.194	8142
806.336	8317
806.478	8092
806.62	8058
806.762	8172
806.904	8240
807.046	8469
807.188	8419
807.33	8362
807.472	8313
807.614	8153
807.756	8115
807.898	8027
808.04	7830
808.182	7795
808.324	7875
808.465	7932
808.607	8107
808.749	8058
808.891	8218
809.033	8279
809.174	8240
809.316	8077
809.458	8088
809.6	8039
809.741	8065
809.883	7993
810.025	8046
810.166	8077
810.308	8020
810.45	8031
810.591	7818
810.733	7731
810.875	7624
811.016	7468
811.158	7483
811.299	7677
811.441	7704
811.582	7696
811.724	7601
811.865	7544
812.007	7552
812.148	7567
812.29	7609
812.431	7719
812.573	7864
812.714	7974
812.855	8027
812.997	8176
813.138	8279
813.279	8187
813.421	8107
813.562	7967
813.703	7856
813.845	7708
813.986	7476
814.127	7266
814.268	7175
814.41	7137
814.551	7221
814.692	7232
814.833	7076
814.974	7091
815.115	7137
815.256	7000
815.397	6882
815.539	6973
815.68	6738
815.821	6791
815.962	6856
816.103	6867
816.244	6715
816.385	6620
816.526	6604
816.666	6471
816.807	6353
816.948	6437
817.089	6490
817.23	6471
817.371	6369
817.512	6315
817.653	6414
817.793	6350
817.934	6361
818.075	6445
818.216	6384
818.356	6365
818.497	6247
818.638	6064
818.778	6106
818.919	6049
819.06	6152
819.2	6308
819.341	6361
819.481	6346
819.622	6483
819.762	6692
819.903	6681
820.043	6525
820.184	6566
820.324	6532
820.465	6726
820.605	6677
820.746	6669
820.886	6513
821.026	6658
821.167	6627
821.307	6818
821.447	6772
821.588	6650
821.728	6532
821.868	6407
822.008	6292
822.149	6353
822.289	6319
822.429	6182
822.569	6057
822.709	6152
822.849	5859
822.99	5882
823.13	5889
823.27	5901
823.41	5764
823.55	5813
823.69	5764
823.83	5756
823.97	5634
824.11	5573
824.25	5474
824.389	5547
824.529	5570
824.669	5505
824.809	5604
824.949	5695
825.089	5653
825.228	5509
825.368	5395
825.508	5303
825.648	5330
825.787	5372
825.927	5337
826.067	5261
826.206	5273
826.346	5368
826.485	5410
826.625	5410
826.765	5520
826.904	5444
827.044	5261
827.183	5132
827.323	5140
827.462	5201
827.601	5143
827.741	5162
827.88	5227
828.02	5083
828.159	5227
828.298	5284
828.437	5364
828.577	5307
828.716	5539
828.855	5311
828.994	5140
829.134	5128
829.273	5143
829.412	5124
829.551	5105
829.69	5162
829.829	5227
829.968	5334
830.107	5273
830.246	5269
830.385	5159
830.524	5178
830.663	5010
830.802	4953
830.941	4877
831.08	4843
831.219	4976
831.357	4938
831.496	5181
831.635	4900
831.774	4839
831.913	4866
832.051	4748
832.19	4691
832.329	4793
832.467	4702
832.606	4645
832.744	4733
832.883	4706
833.022	4626
833.16	4767
833.299	4752
833.437	4839
833.576	4805
833.714	4854
833.852	4839
833.991	4858
834.129	4911
834.267	4980
834.406	4904
834.544	4965
834.682	5025
834.821	4961
834.959	5098
835.097	5014
835.235	5201
835.373	5060
835.511	5075
835.65	5018
835.788	4995
835.926	4915
836.064	4843
836.202	4908
836.34	5128
836.478	5231
836.615	5136
836.753	5250
836.891	5239
837.029	5227
837.167	5231
837.305	5189
837.443	5132
837.58	5048
837.718	5269
837.856	5151
837.993	5162
838.131	5223
838.269	5201
838.406	5197
838.544	5189
838.681	5033
838.819	4984
838.956	4923
839.094	4873
839.231	4949
839.369	5067
839.506	5395
839.643	5284
839.781	5071
839.918	4980
840.055	5117
840.193	5090
840.33	5033
840.467	5143
840.604	5159
840.742	5452
840.879	5064
841.016	5083
841.153	5109
841.29	5334
841.427	5303
841.564	5246
841.701	5326
841.838	5258
841.975	5216
842.112	5265
842.249	5143
842.385	5113
842.522	5292
842.659	5147
842.796	5109
842.933	5166
843.069	5086
843.206	5174
843.343	5261
843.479	5239
843.616	5277
843.752	4991
843.889	5010
844.025	5189
844.162	4999
844.298	5223
844.435	5098
844.571	5006
844.708	5174
844.844	5311
844.98	5292
845.117	5296
845.253	5132
845.389	5105
845.525	5113
845.661	5136
845.798	5018
845.934	5113
846.07	5079
846.206	5189
846.342	5258
846.478	5151
846.614	5037
846.75	4980
846.886	4965
847.022	5136
847.158	5018
847.294	5025
847.429	5075
847.565	5064
847.701	5315
847.837	4847
847.972	4797
848.108	4930
848.244	4892
848.379	4809
848.515	4744
848.65	4683
848.786	4683
848.921	4790
849.057	4885
849.192	4896
849.328	4778
849.463	4824
849.598	4790
849.734	4763
849.869	4668
850.004	4637
850.14	4634
850.275	4599
850.41	4546
850.545	4558
850.68	4599
850.815	4569
850.95	4603
851.085	4831
851.22	4748
851.355	4694
851.49	4607
851.625	4611
851.76	4588
851.895	4523
852.03	4565
852.165	4580
852.299	4691
852.434	4767
852.569	4721
852.703	4706
852.838	4862
852.973	4923
853.107	4866
853.242	4733
853.376	4637
853.511	4603
853.645	4618
853.78	4824
853.914	4668
854.048	4710
854.183	4664
854.317	4683
854.451	4809
854.585	4672
854.72	4653
854.854	4752
854.988	4607
855.122	4634
855.256	4523
855.39	4645
855.524	4786
855.658	4683
855.792	4706
855.926	4736
856.06	4759
856.194	4790
856.327	4714
856.461	4565
856.595	4622
856.729	4634
856.862	4740
856.996	4664
857.13	4733
857.263	4714
857.397	4809
857.53	4656
857.664	4721
857.797	4771
857.931	4744
858.064	4687
858.197	4687
858.331	4672
858.464	4649
858.597	4550
858.731	4622
858.864	4630
858.997	4615
859.13	4675
859.263	4679
859.396	4660
859.529	4577
859.662	4569
859.795	4497
859.928	4596
860.061	4755
860.194	4706
860.327	4649
860.46	4554
860.592	4714
860.725	4706
860.858	4717
860.99	4535
861.123	4500
861.256	4462
861.388	4607
861.521	5448
861.653	4428
861.786	4459
861.918	4424
862.05	4478
862.183	4535
862.315	4573
862.447	4645
862.58	4508
862.712	4379
862.844	4306
862.976	4432
863.108	4447
863.24	4816
863.372	4371
863.504	4424
863.636	4421
863.768	4459
863.9	4375
864.032	4314
864.164	4371
864.296	4424
864.428	4512
864.559	4535
864.691	4535
864.823	4573
864.954	4451
865.086	4512
865.217	4466
865.349	4409
865.48	4489
865.612	4474
865.743	4592
865.875	4447
866.006	4459
866.137	4447
866.269	4424
866.4	4459
866.531	4436
866.662	4360
866.793	4394
866.924	4432
867.055	4481
867.186	4390
867.317	4383
867.448	4363
867.579	4424
867.71	4390
867.841	4344
867.972	4451
868.103	4478
868.233	4432
868.364	4459
868.495	4417
868.625	4668
868.756	4729
868.886	4577
869.017	4615
869.147	4752
869.278	4786
869.408	4683
869.539	4615
869.669	4641
869.799	4634
869.929	4679
870.06	4729
870.19	4953
870.32	4892
870.45	4919
870.58	5014
870.71	5102
870.84	5102
870.97	4930
871.1	4843
871.23	5155
871.36	5105
871.489	5056
871.619	5071
871.749	5064
871.879	5109
872.008	5189
872.138	5033
872.267	4991
872.397	4847
872.526	4767
872.656	4729
872.785	4759
872.915	4927
873.044	5083
873.173	4904
873.303	4984
873.432	4889
873.561	4961
873.69	4915
873.819	4862
873.948	4862
874.077	4771
874.206	4774
874.335	4748
874.464	4896
874.593	5117
874.722	4991
874.851	5079
874.979	5033
875.108	5048
875.237	4900
875.365	4908
875.494	4870
875.623	4934
875.751	4812
875.88	4915
876.008	4946
876.136	5037
876.265	5242
876.393	5292
876.521	5254
876.65	5208
876.778	5102
876.906	5079
877.034	5029
877.162	4995
877.29	4972
877.418	5064
877.546	5022
877.674	5064
877.802	5018
877.93	5071
878.058	4911
878.185	4843
878.313	4942
878.441	4938
878.568	4774
878.696	4812
878.824	4934
878.951	5022
879.079	5132
879.206	5235
879.333	5121
879.461	4957
879.588	4991
879.715	5037
879.842	5227
879.97	4949
880.097	4786
880.224	4748
880.351	4805
880.478	4839
880.605	4801
880.732	4782
880.859	5067
880.986	4892
881.112	4870
881.239	4782
881.366	4702
881.493	4558
881.619	4596
881.746	4607
881.872	4584
881.999	4660
882.125	4668
882.252	4721
882.378	4812
882.505	4946
882.631	4725
882.757	4653
882.883	4740
883.01	4721
883.136	4653
883.262	4599
883.388	4611
883.514	4812
883.64	4835
883.766	4790
883.892	4656
884.018	4702
884.143	4854
884.269	5010
884.395	4687
884.52	4588
884.646	4596
884.772	4592
884.897	4550
885.023	4649
885.148	4774
885.274	4797
885.399	4809
885.524	4733
885.65	4691
885.775	4752
885.9	4714
886.025	4831
886.15	4786
886.275	4691
886.4	4626
886.525	4755
886.65	4664
886.775	4714
886.9	4889
887.025	5025
887.149	4752
887.274	4634
887.399	4630
887.523	4607
887.648	4561
887.773	4584
887.897	4729
888.021	4801
888.146	4672
888.27	4816
888.395	4904
888.519	4744
888.643	4820
888.767	4824
888.891	4634
889.015	4584
889.139	4656
889.263	4584
889.387	4721
889.511	4881
889.635	4805
889.759	4653
889.883	4611
890.006	4702
890.13	4839
890.254	4607
890.377	4691
890.501	4565
890.624	4542
890.748	4618
890.871	4535
890.995	4447
891.118	4386
891.241	4573
891.364	4535
891.488	4653
891.611	4519
891.734	4542
891.857	4580
891.98	4565
892.103	4615
892.226	4546
892.349	4504
892.471	4390
892.594	4584
892.717	4596
892.839	4565
892.962	4622
893.085	4668
893.207	4603
893.33	4436
893.452	4546
893.575	4630
893.697	4580
893.819	4801
893.941	4828
894.064	4759
894.186	4542
894.308	4599
894.43	4694
894.552	4790
894.674	4729
894.796	4531
894.918	4615
895.04	4569
895.161	4744
895.283	4698
895.405	4603
895.526	4611
895.648	4687
895.769	4706
895.891	4740
896.012	4694
896.134	4763
896.255	4664
896.376	4649
896.498	4577
896.619	4660
896.74	4565
896.861	4656
896.982	4949
897.103	5083
897.224	4835
897.345	4702
897.466	4687
897.587	4668
897.708	4881
897.828	4763
897.949	4687
898.07	4546
898.19	4653
898.311	4797
898.431	4687
898.552	4733
898.672	4820
898.792	4786
898.913	4725
899.033	4607
899.153	4516
899.273	4413
899.393	4459
899.513	4523
899.633	4508
899.753	4519
899.873	4523
899.993	4626
900.113	4542
900.232	4569
900.352	4542
900.472	4481
900.591	4394
900.711	4478
900.83	4405
900.95	4599
901.069	4637
901.189	4561
901.308	4314
901.427	4348
901.546	4363
901.665	4466
901.784	4497
901.904	4325
902.023	4265
902.141	4177
902.26	4158
902.379	4322
902.498	4230
902.617	4227
902.735	4341
902.854	4402
902.973	4322
903.091	4257
903.21	4196
903.328	4291
903.446	4276
903.565	4280
903.683	4325
903.801	4299
903.919	4386
904.038	4417
904.156	4272
904.274	4386
904.392	4405
904.51	4432
904.627	4474
904.745	4527
904.863	4611
904.981	4421
905.098	4325
905.216	4314
905.334	4371
905.451	4489
905.569	4462
905.686	4550
905.803	4508
905.921	4436
906.038	4577
906.155	4489
906.272	4402
906.389	4497
906.506	4310
906.623	4398
906.74	4386
906.857	4280
906.974	4383
907.091	4527
907.208	4645
907.324	4573
907.441	4512
907.557	4310
907.674	4367
907.79	4310
907.907	4360
908.023	4470
908.139	4508
908.256	4436
908.372	4470
908.488	4428
908.604	4363
908.72	4318
908.836	4367
908.952	4390
909.068	4436
909.184	4550
909.3	4485
909.415	4546
909.531	4577
909.647	4352
909.762	4383
909.878	4360
909.993	4436
910.108	4405
910.224	4421
910.339	4436
910.454	4386
910.57	4363
910.685	4295
910.8	4637
910.915	4561
911.03	4466
911.145	4295
911.259	4280
911.374	4405
911.489	4287
911.604	4261
911.718	4166
911.833	4204
911.947	4074
912.062	4032
912.176	4200
912.291	4181
912.405	4246
912.519	4466
912.633	4489
912.748	4348
912.862	4295
912.976	4211
913.09	4120
913.204	4147
913.318	4211
913.431	4398
913.545	4386
913.659	4436
913.772	4424
913.886	4272
914	4177
914.113	4348
914.226	4424
914.34	4409
914.453	4185
914.566	4417
914.68	4299
914.793	4284
914.906	4116
915.019	4124
915.132	4025
915.245	4188
915.358	4200
915.47	4166
915.583	4257
915.696	4257
915.809	4440
915.921	4440
916.034	4253
916.146	4234
916.259	4230
916.371	4375
916.483	4383
916.595	4219
916.708	4314
916.82	4306
916.932	4314
917.044	4272
917.156	4295
917.268	4272
917.38	4223
917.491	4287
917.603	4341
917.715	4421
917.826	4432
917.938	4360
918.049	4230
918.161	4417
918.272	4538
918.384	4519
918.495	4493
918.606	4306
918.717	4196
918.828	4344
918.939	4402
919.05	4238
919.161	4318
919.272	4135
919.383	4223
919.494	4455
919.604	4592
919.715	4474
919.826	4329
919.936	4447
920.047	4493
920.157	4531
920.267	4714
920.378	4561
920.488	4500
920.598	4653
920.708	4847
920.818	4733
920.928	4698
921.038	4908
921.148	4877
921.258	4637
921.368	4573
921.477	4512
921.587	4436
921.697	4318
921.806	4546
921.916	4455
922.025	4261
922.134	4276
922.244	4181
922.353	4341
922.462	4185
922.571	4135
922.68	3998
922.789	3972
922.898	4017
923.007	4002
923.116	4105
923.224	4071
923.333	4051
923.442	3953
923.55	3956
923.659	4036
923.767	4101
923.876	4002
923.984	4063
924.092	4006
924.201	4074
924.309	4128
924.417	4090
924.525	4051
924.633	4059
924.741	4881
924.849	3896
924.956	4128
925.064	3945
925.172	3915
925.279	3979
925.387	4078
925.494	4063
925.602	4211
925.709	4162
925.816	4017
925.924	4154
926.031	4234
926.138	4211
926.245	4169
926.352	4109
926.459	4211
926.566	4337
926.673	4112
926.779	4032
926.886	4067
926.993	3960
927.099	3968
927.206	3949
927.312	3953
927.419	4048
927.525	4010
927.631	4093
927.737	3960
927.843	3960
927.95	3827
928.056	3945
928.162	3956
928.267	4044
928.373	4691
928.479	4078
928.585	3800
928.69	4036
928.796	4040
928.901	4010
929.007	3850
929.112	4010
929.218	3945
929.323	3918
929.428	3945
929.533	4097
929.638	3884
929.743	3941
929.848	4006
929.953	3979
930.058	3899
930.163	3770
930.267	3842
930.372	3968
930.477	3762
930.581	4063
930.685	3880
930.79	3793
930.894	3869
930.998	3884
931.103	4071
931.207	3709
931.311	3667
931.415	3698
931.519	3488
931.623	3519
