Data from test_V78500241_1035.txt Node
Date: Fri Mar 25 16:56:11 CST 2022
User: usil
Spectrometer: V785-0024
Trigger mode: 0
Integration Time (sec): 4.000000E-1
Scans to average: 1
Nonlinearity correction enabled: false
Boxcar width: 0
Storing dark spectrum: false
XAxis mode: Wavelengths
Number of Pixels in Spectrum: 1024
>>>>>Begin Spectral Data<<<<<
801.071	8130
801.214	8058
801.356	7955
801.499	7951
801.641	7841
801.783	7799
801.926	7959
802.068	7967
802.211	7974
802.353	7955
802.496	7887
802.638	7902
802.78	7993
802.923	7955
803.065	7944
803.208	7940
803.35	7970
803.492	8157
803.635	8218
803.777	8126
803.919	8153
804.061	8457
804.204	8206
804.346	8081
804.488	7974
804.63	8168
804.773	8043
804.915	8111
805.057	8309
805.199	8233
805.341	8298
805.483	8301
805.626	8176
805.768	8172
805.91	8237
806.052	8187
806.194	8081
806.336	8370
806.478	8187
806.62	8062
806.762	8164
806.904	8301
807.046	8446
807.188	8374
807.33	8358
807.472	8313
807.614	8153
807.756	8138
807.898	8069
808.04	7947
808.182	7940
808.324	7849
808.465	7944
808.607	8065
808.749	8077
808.891	8259
809.033	8317
809.174	8153
809.316	8115
809.458	8092
809.6	8043
809.741	8024
809.883	8069
810.025	8126
810.166	8035
810.308	8081
810.45	7997
810.591	7868
810.733	7795
810.875	7677
811.016	7480
811.158	7559
811.299	7616
811.441	7792
811.582	7753
811.724	7594
811.865	7571
812.007	7559
812.148	7559
812.29	7689
812.431	7784
812.573	7955
812.714	8050
812.855	8187
812.997	8218
813.138	8313
813.279	8183
813.421	8145
813.562	8031
813.703	7856
813.845	7830
813.986	7483
814.127	7247
814.268	7255
814.41	7194
814.551	7133
814.692	7240
814.833	7057
814.974	7076
815.115	7103
815.256	7004
815.397	6924
815.539	6993
815.68	6837
815.821	6791
815.962	6935
816.103	6890
816.244	6772
816.385	6642
816.526	6673
816.666	6528
816.807	6285
816.948	6445
817.089	6513
817.23	6445
817.371	6391
817.512	6376
817.653	6460
817.793	6410
817.934	6490
818.075	6460
818.216	6437
818.356	6395
818.497	6277
818.638	6121
818.778	6205
818.919	6155
819.06	6190
819.2	6334
819.341	6311
819.481	6380
819.622	6521
819.762	6783
819.903	6734
820.043	6646
820.184	6627
820.324	6597
820.465	6654
820.605	6684
820.746	6646
820.886	6509
821.026	6692
821.167	6707
821.307	6856
821.447	6749
821.588	6700
821.728	6650
821.868	6517
822.008	6300
822.149	6376
822.289	6338
822.429	6144
822.569	6140
822.709	6106
822.849	5878
822.99	5912
823.13	5954
823.27	5923
823.41	5866
823.55	5809
823.69	5821
823.83	5828
823.97	5691
824.11	5509
824.25	5566
824.389	5581
824.529	5592
824.669	5539
824.809	5665
824.949	5703
825.089	5680
825.228	5528
825.368	5414
825.508	5326
825.648	5349
825.787	5410
825.927	5383
826.067	5368
826.206	5288
826.346	5353
826.485	5463
826.625	5417
826.765	5623
826.904	5554
827.044	5239
827.183	5239
827.323	5166
827.462	5288
827.601	5181
827.741	5216
827.88	5220
828.02	5117
828.159	5250
828.298	5364
828.437	5417
828.577	5284
828.716	5493
828.855	5345
828.994	5189
829.134	5147
829.273	5220
829.412	5109
829.551	5140
829.69	5174
829.829	5227
829.968	5368
830.107	5269
830.246	5261
830.385	5136
830.524	5147
830.663	5105
830.802	4980
830.941	4934
831.08	4889
831.219	4930
831.357	4984
831.496	5197
831.635	4927
831.774	4873
831.913	4866
832.051	4702
832.19	4805
832.329	4873
832.467	4729
832.606	4668
832.744	4767
832.883	4729
833.022	4740
833.16	4801
833.299	4820
833.437	4812
833.576	4919
833.714	4877
833.852	4877
833.991	4934
834.129	4980
834.267	4968
834.406	4957
834.544	5003
834.682	4965
834.821	4995
834.959	5159
835.097	5037
835.235	5136
835.373	5041
835.511	5170
835.65	5064
835.788	5064
835.926	4881
836.064	4889
836.202	4919
836.34	5162
836.478	5181
836.615	5113
836.753	5208
836.891	5292
837.029	5231
837.167	5201
837.305	5178
837.443	5143
837.58	5136
837.718	5261
837.856	5193
837.993	5170
838.131	5242
838.269	5242
838.406	5242
838.544	5174
838.681	5071
838.819	5018
838.956	4927
839.094	4942
839.231	5006
839.369	5098
839.506	5391
839.643	5258
839.781	5075
839.918	4999
840.055	5132
840.193	5109
840.33	5117
840.467	5098
840.604	5193
840.742	5467
840.879	5098
841.016	5128
841.153	5162
841.29	5360
841.427	5353
841.564	5334
841.701	5364
841.838	5299
841.975	5269
842.112	5250
842.249	5143
842.385	5166
842.522	5368
842.659	5204
842.796	5178
842.933	5246
843.069	5143
843.206	5170
843.343	5258
843.479	5212
843.616	5254
843.752	5109
843.889	4980
844.025	5269
844.162	5064
844.298	5181
844.435	5128
844.571	5075
844.708	5197
844.844	5307
844.98	5341
845.117	5299
845.253	5162
845.389	5102
845.525	5155
845.661	5212
845.798	5018
845.934	5159
846.07	5048
846.206	5159
846.342	5284
846.478	5185
846.614	5071
846.75	5025
846.886	4961
847.022	5159
847.158	5052
847.294	5071
847.429	5109
847.565	5113
847.701	5311
847.837	4908
847.972	4801
848.108	4995
848.244	4904
848.379	4790
848.515	4736
848.65	4706
848.786	4752
848.921	4782
849.057	4961
849.192	4896
849.328	4805
849.463	4885
849.598	4778
849.734	4759
849.869	4721
850.004	4615
850.14	4592
850.275	4611
850.41	4561
850.545	4603
850.68	4660
850.815	4645
850.95	4634
851.085	4843
851.22	4790
851.355	4729
851.49	4645
851.625	4622
851.76	4672
851.895	4558
852.03	4558
852.165	4698
852.299	4721
852.434	4771
852.569	4744
852.703	4812
852.838	4843
852.973	4930
853.107	4889
853.242	4691
853.376	4653
853.511	4569
853.645	4603
853.78	4831
853.914	4710
854.048	4683
854.183	4675
854.317	4706
854.451	4877
854.585	4653
854.72	4626
854.854	4733
854.988	4577
855.122	4645
855.256	4592
855.39	4634
855.524	4820
855.658	4698
855.792	4691
855.926	4683
856.06	4733
856.194	4774
856.327	4771
856.461	4592
856.595	4599
856.729	4611
856.862	4748
856.996	4710
857.13	4721
857.263	4755
857.397	4763
857.53	4653
857.664	4729
857.797	4763
857.931	4797
858.064	4698
858.197	4714
858.331	4641
858.464	4588
858.597	4569
858.731	4596
858.864	4565
858.997	4634
859.13	4668
859.263	4641
859.396	4694
859.529	4577
859.662	4565
859.795	4542
859.928	4649
860.061	4778
860.194	4797
860.327	4603
860.46	4611
860.592	4691
860.725	4778
860.858	4763
860.99	4546
861.123	4466
861.256	4561
861.388	4653
861.521	5307
861.653	4508
861.786	4512
861.918	4447
862.05	4561
862.183	4512
862.315	4664
862.447	4573
862.58	4542
862.712	4394
862.844	4318
862.976	4527
863.108	4478
863.24	4908
863.372	4322
863.504	4443
863.636	4386
863.768	4493
863.9	4424
864.032	4394
864.164	4443
864.296	4500
864.428	4519
864.559	4546
864.691	4535
864.823	4580
864.954	4523
865.086	4474
865.217	4417
865.349	4390
865.48	4481
865.612	4474
865.743	4611
865.875	4493
866.006	4383
866.137	4459
866.269	4440
866.4	4443
866.531	4394
866.662	4447
866.793	4402
866.924	4413
867.055	4478
867.186	4447
867.317	4440
867.448	4383
867.579	4375
867.71	4398
867.841	4409
867.972	4440
868.103	4485
868.233	4470
868.364	4493
868.495	4459
868.625	4698
868.756	4736
868.886	4565
869.017	4580
869.147	4721
869.278	4725
869.408	4641
869.539	4618
869.669	4729
869.799	4668
869.929	4755
870.06	4767
870.19	4957
870.32	4934
870.45	4934
870.58	5022
870.71	5090
870.84	5056
870.97	4953
871.1	4843
871.23	5113
871.36	5052
871.489	5052
871.619	5098
871.749	5060
871.879	5132
872.008	5242
872.138	5075
872.267	4976
872.397	4877
872.526	4828
872.656	4687
872.785	4767
872.915	4976
873.044	5064
873.173	4892
873.303	4923
873.432	4934
873.561	4984
873.69	4892
873.819	4870
873.948	4934
874.077	4778
874.206	4801
874.335	4744
874.464	4923
874.593	5075
874.722	4949
874.851	5121
874.979	5056
875.108	4980
875.237	4927
875.365	4881
875.494	4847
875.623	5003
875.751	4786
875.88	4934
876.008	4965
876.136	5010
876.265	5166
876.393	5296
876.521	5235
876.65	5227
876.778	5113
876.906	5098
877.034	5056
877.162	5025
877.29	5003
877.418	5071
877.546	5060
877.674	5045
877.802	5018
877.93	5014
878.058	4911
878.185	4820
878.313	4980
878.441	4919
878.568	4786
878.696	4923
878.824	4934
878.951	5022
879.079	5071
879.206	5227
879.333	5117
879.461	4976
879.588	5029
879.715	5185
879.842	5216
879.97	5029
880.097	4782
880.224	4778
880.351	4774
880.478	4790
880.605	4782
880.732	4793
880.859	5105
880.986	4896
881.112	4946
881.239	4797
881.366	4645
881.493	4565
881.619	4596
881.746	4687
881.872	4683
881.999	4630
882.125	4672
882.252	4782
882.378	4801
882.505	4995
882.631	4805
882.757	4660
882.883	4721
883.01	4691
883.136	4687
883.262	4611
883.388	4645
883.514	4809
883.64	4850
883.766	4790
883.892	4637
884.018	4702
884.143	4850
884.269	5022
884.395	4649
884.52	4626
884.646	4649
884.772	4615
884.897	4527
885.023	4649
885.148	4805
885.274	4870
885.399	4740
885.524	4691
885.65	4733
885.775	4755
885.9	4656
886.025	4812
886.15	4797
886.275	4698
886.4	4615
886.525	4740
886.65	4672
886.775	4672
886.9	4896
887.025	5052
887.149	4820
887.274	4618
887.399	4599
887.523	4637
887.648	4596
887.773	4550
887.897	4748
888.021	4774
888.146	4656
888.27	4816
888.395	4862
888.519	4843
888.643	4797
888.767	4812
888.891	4744
889.015	4603
889.139	4645
889.263	4599
889.387	4733
889.511	4812
889.635	4752
889.759	4580
889.883	4615
890.006	4721
890.13	4850
890.254	4618
890.377	4691
890.501	4561
890.624	4504
890.748	4641
890.871	4485
890.995	4440
891.118	4390
891.241	4519
891.364	4508
891.488	4611
891.611	4462
891.734	4485
891.857	4580
891.98	4538
892.103	4634
892.226	4558
892.349	4535
892.471	4447
892.594	4561
892.717	4607
892.839	4523
892.962	4577
893.085	4653
893.207	4615
893.33	4443
893.452	4508
893.575	4645
893.697	4577
893.819	4748
893.941	4828
894.064	4748
894.186	4588
894.308	4554
894.43	4691
894.552	4828
894.674	4687
894.796	4527
894.918	4588
895.04	4535
895.161	4656
895.283	4668
895.405	4504
895.526	4641
895.648	4618
895.769	4702
895.891	4721
896.012	4725
896.134	4721
896.255	4660
896.376	4679
896.498	4607
896.619	4649
896.74	4599
896.861	4660
896.982	4915
897.103	5094
897.224	4793
897.345	4748
897.466	4653
897.587	4683
897.708	4877
897.828	4767
897.949	4710
898.07	4599
898.19	4603
898.311	4801
898.431	4721
898.552	4725
898.672	4793
898.792	4778
898.913	4744
899.033	4592
899.153	4497
899.273	4383
899.393	4470
899.513	4573
899.633	4470
899.753	4577
899.873	4508
899.993	4603
900.113	4542
900.232	4599
900.352	4542
900.472	4497
900.591	4405
900.711	4474
900.83	4440
900.95	4592
901.069	4649
901.189	4516
901.308	4325
901.427	4344
901.546	4363
901.665	4470
901.784	4519
901.904	4390
902.023	4337
902.141	4124
902.26	4154
902.379	4322
902.498	4215
902.617	4234
902.735	4383
902.854	4371
902.973	4352
903.091	4200
903.21	4227
903.328	4287
903.446	4230
903.565	4265
903.683	4363
903.801	4306
903.919	4379
904.038	4447
904.156	4276
904.274	4432
904.392	4379
904.51	4417
904.627	4447
904.745	4561
904.863	4618
904.981	4383
905.098	4280
905.216	4344
905.334	4390
905.451	4417
905.569	4455
905.686	4573
905.803	4550
905.921	4390
906.038	4493
906.155	4500
906.272	4402
906.389	4443
906.506	4356
906.623	4390
906.74	4363
906.857	4306
906.974	4352
907.091	4592
907.208	4672
907.324	4588
907.441	4497
907.557	4333
907.674	4348
907.79	4356
907.907	4390
908.023	4485
908.139	4497
908.256	4424
908.372	4478
908.488	4440
908.604	4363
908.72	4272
908.836	4356
908.952	4329
909.068	4402
909.184	4535
909.3	4497
909.415	4580
909.531	4615
909.647	4344
909.762	4367
909.878	4299
909.993	4443
910.108	4356
910.224	4398
910.339	4504
910.454	4398
910.57	4367
910.685	4352
910.8	4668
910.915	4577
911.03	4508
911.145	4348
911.259	4249
911.374	4379
911.489	4303
911.604	4249
911.718	4135
911.833	4261
911.947	4044
912.062	4010
912.176	4169
912.291	4261
912.405	4223
912.519	4440
912.633	4489
912.748	4417
912.862	4333
912.976	4177
913.09	4059
913.204	4120
913.318	4276
913.431	4341
913.545	4348
913.659	4417
913.772	4371
913.886	4242
914	4188
914.113	4386
914.226	4402
914.34	4352
914.453	4227
914.566	4455
914.68	4314
914.793	4295
914.906	4147
915.019	4139
915.132	4071
915.245	4211
915.358	4196
915.47	4253
915.583	4318
915.696	4287
915.809	4398
915.921	4398
916.034	4253
916.146	4249
916.259	4234
916.371	4360
916.483	4318
916.595	4272
916.708	4314
916.82	4337
916.932	4322
917.044	4356
917.156	4341
917.268	4261
917.38	4276
917.491	4249
917.603	4344
917.715	4405
917.826	4424
917.938	4329
918.049	4230
918.161	4371
918.272	4607
918.384	4550
918.495	4428
918.606	4268
918.717	4246
918.828	4333
918.939	4371
919.05	4261
919.161	4310
919.272	4109
919.383	4154
919.494	4440
919.604	4588
919.715	4459
919.826	4337
919.936	4371
920.047	4512
920.157	4478
920.267	4698
920.378	4550
920.488	4478
920.598	4740
920.708	4843
920.818	4793
920.928	4759
921.038	4919
921.148	4889
921.258	4607
921.368	4527
921.477	4527
921.587	4459
921.697	4344
921.806	4489
921.916	4421
922.025	4234
922.134	4257
922.244	4192
922.353	4322
922.462	4177
922.571	4166
922.68	4010
922.789	3934
922.898	4059
923.007	3956
923.116	4063
923.224	4025
923.333	4044
923.442	3968
923.55	3949
923.659	4025
923.767	4109
923.876	3998
923.984	4135
924.092	4021
924.201	4063
924.309	4071
924.417	4105
924.525	4021
924.633	4086
924.741	5029
924.849	3899
924.956	4093
925.064	3968
925.172	3915
925.279	3937
925.387	4044
925.494	4082
925.602	4177
925.709	4169
925.816	4006
925.924	4124
926.031	4185
926.138	4166
926.245	4162
926.352	4097
926.459	4234
926.566	4268
926.673	4135
926.779	4116
926.886	4074
926.993	4017
927.099	3975
927.206	3903
927.312	3865
927.419	4017
927.525	4048
927.631	4105
927.737	3941
927.843	3937
927.95	3888
928.056	3934
928.162	3983
928.267	4025
928.373	4683
928.479	4090
928.585	3812
928.69	3983
928.796	4029
928.901	3979
929.007	3861
929.112	4036
929.218	3991
929.323	3930
929.428	3937
929.533	4112
929.638	3972
929.743	4006
929.848	4032
929.953	3953
930.058	3903
930.163	3762
930.267	3800
930.372	3972
930.477	3808
930.581	4071
930.685	3918
930.79	3797
930.894	3804
930.998	3789
931.103	4051
931.207	3724
931.311	3724
931.415	3671
931.519	3542
931.623	3534
