Data from test_V78500241_1354.txt Node
Date: Fri Mar 25 16:58:24 CST 2022
User: usil
Spectrometer: V785-0024
Trigger mode: 0
Integration Time (sec): 4.000000E-1
Scans to average: 1
Nonlinearity correction enabled: false
Boxcar width: 0
Storing dark spectrum: false
XAxis mode: Wavelengths
Number of Pixels in Spectrum: 1024
>>>>>Begin Spectral Data<<<<<
801.071	8008
801.214	8088
801.356	7864
801.499	7936
801.641	7784
801.783	7772
801.926	8027
802.068	7871
802.211	8005
802.353	7997
802.496	7849
802.638	7928
802.78	7928
802.923	7936
803.065	7913
803.208	7841
803.35	7913
803.492	8046
803.635	8134
803.777	8088
803.919	8149
804.061	8415
804.204	8157
804.346	8100
804.488	8035
804.63	8084
804.773	8016
804.915	8062
805.057	8290
805.199	8183
805.341	8256
805.483	8267
805.626	8202
805.768	8142
805.91	8248
806.052	8240
806.194	8077
806.336	8286
806.478	8096
806.62	8027
806.762	8130
806.904	8256
807.046	8419
807.188	8313
807.33	8244
807.472	8271
807.614	8149
807.756	8195
807.898	8081
808.04	7898
808.182	7913
808.324	7890
808.465	7925
808.607	8092
808.749	8084
808.891	8237
809.033	8328
809.174	8153
809.316	8020
809.458	8065
809.6	8001
809.741	8027
809.883	8039
810.025	8096
810.166	8077
810.308	8115
810.45	8126
810.591	7921
810.733	7731
810.875	7681
811.016	7457
811.158	7529
811.299	7597
811.441	7727
811.582	7700
811.724	7674
811.865	7548
812.007	7571
812.148	7548
812.29	7670
812.431	7830
812.573	7898
812.714	7978
812.855	8187
812.997	8195
813.138	8358
813.279	8286
813.421	8164
813.562	8069
813.703	7913
813.845	7784
813.986	7491
814.127	7293
814.268	7194
814.41	7190
814.551	7179
814.692	7141
814.833	7099
814.974	7114
815.115	7084
815.256	6943
815.397	6962
815.539	6966
815.68	6852
815.821	6825
815.962	6935
816.103	6837
816.244	6757
816.385	6604
816.526	6635
816.666	6517
816.807	6319
816.948	6437
817.089	6433
817.23	6498
817.371	6372
817.512	6433
817.653	6388
817.793	6331
817.934	6426
818.075	6441
818.216	6445
818.356	6460
818.497	6254
818.638	6076
818.778	6171
818.919	6167
819.06	6220
819.2	6308
819.341	6372
819.481	6323
819.622	6494
819.762	6711
819.903	6738
820.043	6574
820.184	6570
820.324	6604
820.465	6715
820.605	6669
820.746	6703
820.886	6502
821.026	6665
821.167	6696
821.307	6810
821.447	6779
821.588	6639
821.728	6555
821.868	6471
822.008	6334
822.149	6372
822.289	6350
822.429	6163
822.569	6076
822.709	6030
822.849	5935
822.99	5889
823.13	5923
823.27	5866
823.41	5790
823.55	5813
823.69	5794
823.83	5714
823.97	5710
824.11	5535
824.25	5535
824.389	5543
824.529	5604
824.669	5532
824.809	5668
824.949	5729
825.089	5646
825.228	5577
825.368	5433
825.508	5341
825.648	5357
825.787	5360
825.927	5372
826.067	5330
826.206	5242
826.346	5398
826.485	5406
826.625	5398
826.765	5547
826.904	5505
827.044	5242
827.183	5170
827.323	5159
827.462	5223
827.601	5189
827.741	5162
827.88	5258
828.02	5105
828.159	5208
828.298	5311
828.437	5353
828.577	5269
828.716	5467
828.855	5326
828.994	5193
829.134	5140
829.273	5185
829.412	5136
829.551	5117
829.69	5166
829.829	5189
829.968	5368
830.107	5292
830.246	5250
830.385	5174
830.524	5121
830.663	5041
830.802	4949
830.941	4862
831.08	4850
831.219	4987
831.357	5003
831.496	5132
831.635	4930
831.774	4839
831.913	4850
832.051	4755
832.19	4725
832.329	4805
832.467	4698
832.606	4656
832.744	4691
832.883	4687
833.022	4687
833.16	4767
833.299	4824
833.437	4820
833.576	4786
833.714	4881
833.852	4847
833.991	4877
834.129	4919
834.267	4949
834.406	4900
834.544	4991
834.682	4965
834.821	4946
834.959	5117
835.097	4957
835.235	5159
835.373	5075
835.511	5056
835.65	5048
835.788	5006
835.926	4900
836.064	4835
836.202	4934
836.34	5136
836.478	5204
836.615	5117
836.753	5185
836.891	5265
837.029	5239
837.167	5201
837.305	5193
837.443	5121
837.58	5079
837.718	5223
837.856	5162
837.993	5143
838.131	5223
838.269	5189
838.406	5216
838.544	5231
838.681	5045
838.819	5003
838.956	4908
839.094	4911
839.231	4987
839.369	5117
839.506	5368
839.643	5242
839.781	5052
839.918	4976
840.055	5090
840.193	5117
840.33	5136
840.467	5132
840.604	5178
840.742	5410
840.879	5079
841.016	5128
841.153	5143
841.29	5376
841.427	5410
841.564	5311
841.701	5334
841.838	5303
841.975	5239
842.112	5261
842.249	5113
842.385	5178
842.522	5360
842.659	5166
842.796	5143
842.933	5159
843.069	5181
843.206	5166
843.343	5284
843.479	5193
843.616	5277
843.752	5018
843.889	5022
844.025	5220
844.162	5033
844.298	5246
844.435	5086
844.571	5064
844.708	5223
844.844	5326
844.98	5330
845.117	5277
845.253	5151
845.389	5056
845.525	5197
845.661	5113
845.798	5003
845.934	5128
846.07	5056
846.206	5185
846.342	5265
846.478	5159
846.614	4938
846.75	4968
846.886	4949
847.022	5105
847.158	5006
847.294	5052
847.429	5090
847.565	5086
847.701	5318
847.837	4850
847.972	4824
848.108	4965
848.244	4949
848.379	4793
848.515	4729
848.65	4710
848.786	4748
848.921	4774
849.057	4835
849.192	4881
849.328	4797
849.463	4782
849.598	4816
849.734	4748
849.869	4675
850.004	4634
850.14	4664
850.275	4618
850.41	4531
850.545	4577
850.68	4573
850.815	4618
850.95	4634
851.085	4786
851.22	4740
851.355	4683
851.49	4656
851.625	4637
851.76	4611
851.895	4569
852.03	4550
852.165	4630
852.299	4748
852.434	4809
852.569	4710
852.703	4797
852.838	4824
852.973	4870
853.107	4904
853.242	4759
853.376	4618
853.511	4558
853.645	4599
853.78	4831
853.914	4714
854.048	4755
854.183	4611
854.317	4691
854.451	4885
854.585	4687
854.72	4664
854.854	4778
854.988	4599
855.122	4656
855.256	4542
855.39	4645
855.524	4793
855.658	4698
855.792	4668
855.926	4717
856.06	4733
856.194	4748
856.327	4706
856.461	4611
856.595	4626
856.729	4615
856.862	4752
856.996	4721
857.13	4759
857.263	4755
857.397	4755
857.53	4584
857.664	4755
857.797	4740
857.931	4793
858.064	4687
858.197	4721
858.331	4683
858.464	4592
858.597	4531
858.731	4618
858.864	4653
858.997	4607
859.13	4626
859.263	4645
859.396	4729
859.529	4615
859.662	4542
859.795	4466
859.928	4611
860.061	4774
860.194	4744
860.327	4622
860.46	4558
860.592	4706
860.725	4710
860.858	4717
860.99	4584
861.123	4538
861.256	4523
861.388	4592
861.521	5299
861.653	4459
861.786	4421
861.918	4451
862.05	4554
862.183	4527
862.315	4603
862.447	4622
862.58	4611
862.712	4363
862.844	4295
862.976	4440
863.108	4432
863.24	4847
863.372	4306
863.504	4455
863.636	4405
863.768	4470
863.9	4405
864.032	4367
864.164	4394
864.296	4432
864.428	4546
864.559	4493
864.691	4504
864.823	4512
864.954	4508
865.086	4523
865.217	4432
865.349	4424
865.48	4432
865.612	4512
865.743	4634
865.875	4470
866.006	4451
866.137	4394
866.269	4402
866.4	4424
866.531	4421
866.662	4360
866.793	4371
866.924	4443
867.055	4466
867.186	4466
867.317	4436
867.448	4344
867.579	4440
867.71	4424
867.841	4348
867.972	4504
868.103	4489
868.233	4466
868.364	4474
868.495	4474
868.625	4630
868.756	4733
868.886	4569
869.017	4584
869.147	4744
869.278	4831
869.408	4668
869.539	4615
869.669	4683
869.799	4649
869.929	4691
870.06	4755
870.19	4965
870.32	4961
870.45	4927
870.58	5014
870.71	5109
870.84	5102
870.97	4896
871.1	4877
871.23	5105
871.36	5067
871.489	5022
871.619	5037
871.749	5079
871.879	5102
872.008	5140
872.138	5018
872.267	4999
872.397	4843
872.526	4782
872.656	4698
872.785	4812
872.915	4889
873.044	5029
873.173	4919
873.303	4938
873.432	4927
873.561	4938
873.69	4881
873.819	4870
873.948	4923
874.077	4850
874.206	4740
874.335	4782
874.464	4881
874.593	5090
874.722	4854
874.851	5105
874.979	5052
875.108	4946
875.237	4885
875.365	4881
875.494	4908
875.623	4961
875.751	4801
875.88	4915
876.008	4972
876.136	5014
876.265	5166
876.393	5330
876.521	5246
876.65	5231
876.778	5136
876.906	5071
877.034	4995
877.162	5010
877.29	4995
877.418	5041
877.546	5025
877.674	5025
877.802	5067
877.93	5067
878.058	4896
878.185	4889
878.313	4946
878.441	4938
878.568	4790
878.696	4839
878.824	4949
878.951	4957
879.079	5109
879.206	5269
879.333	5094
879.461	5003
879.588	4999
879.715	5094
879.842	5185
879.97	4995
880.097	4752
880.224	4736
880.351	4801
880.478	4786
880.605	4786
880.732	4736
880.859	5037
880.986	4885
881.112	4889
881.239	4786
881.366	4649
881.493	4630
881.619	4592
881.746	4615
881.872	4660
881.999	4649
882.125	4679
882.252	4767
882.378	4797
882.505	4987
882.631	4733
882.757	4653
882.883	4725
883.01	4721
883.136	4687
883.262	4584
883.388	4615
883.514	4771
883.64	4889
883.766	4767
883.892	4649
884.018	4698
884.143	4854
884.269	5048
884.395	4656
884.52	4626
884.646	4637
884.772	4611
884.897	4588
885.023	4618
885.148	4805
885.274	4866
885.399	4733
885.524	4721
885.65	4687
885.775	4725
885.9	4714
886.025	4793
886.15	4752
886.275	4721
886.4	4630
886.525	4748
886.65	4691
886.775	4645
886.9	4885
887.025	4991
887.149	4801
887.274	4694
887.399	4611
887.523	4596
887.648	4569
887.773	4565
887.897	4759
888.021	4740
888.146	4645
888.27	4824
888.395	4930
888.519	4752
888.643	4790
888.767	4820
888.891	4668
889.015	4592
889.139	4622
889.263	4599
889.387	4694
889.511	4858
889.635	4771
889.759	4675
889.883	4649
890.006	4714
890.13	4889
890.254	4592
890.377	4672
890.501	4512
890.624	4508
890.748	4656
890.871	4447
890.995	4379
891.118	4379
891.241	4542
891.364	4527
891.488	4577
891.611	4497
891.734	4538
891.857	4554
891.98	4535
892.103	4626
892.226	4607
892.349	4481
892.471	4398
892.594	4550
892.717	4603
892.839	4577
892.962	4588
893.085	4641
893.207	4611
893.33	4455
893.452	4538
893.575	4630
893.697	4584
893.819	4786
893.941	4858
894.064	4717
894.186	4546
894.308	4558
894.43	4694
894.552	4774
894.674	4714
894.796	4542
894.918	4584
895.04	4565
895.161	4706
895.283	4660
895.405	4603
895.526	4611
895.648	4702
895.769	4675
895.891	4698
896.012	4721
896.134	4702
896.255	4626
896.376	4599
896.498	4584
896.619	4637
896.74	4573
896.861	4637
896.982	4919
897.103	4995
897.224	4790
897.345	4714
897.466	4653
897.587	4733
897.708	4801
897.828	4759
897.949	4702
898.07	4546
898.19	4630
898.311	4793
898.431	4702
898.552	4771
898.672	4831
898.792	4767
898.913	4744
899.033	4569
899.153	4489
899.273	4386
899.393	4470
899.513	4542
899.633	4508
899.753	4542
899.873	4500
899.993	4569
900.113	4542
900.232	4569
900.352	4512
900.472	4466
900.591	4398
900.711	4497
900.83	4413
900.95	4565
901.069	4679
901.189	4554
901.308	4348
901.427	4306
901.546	4383
901.665	4478
901.784	4481
901.904	4375
902.023	4314
902.141	4219
902.26	4185
902.379	4257
902.498	4268
902.617	4234
902.735	4360
902.854	4405
902.973	4333
903.091	4242
903.21	4230
903.328	4284
903.446	4253
903.565	4261
903.683	4356
903.801	4253
903.919	4424
904.038	4424
904.156	4306
904.274	4455
904.392	4398
904.51	4405
904.627	4466
904.745	4554
904.863	4622
904.981	4398
905.098	4325
905.216	4413
905.334	4432
905.451	4428
905.569	4371
905.686	4558
905.803	4531
905.921	4459
906.038	4558
906.155	4462
906.272	4402
906.389	4470
906.506	4352
906.623	4341
906.74	4440
906.857	4268
906.974	4329
907.091	4573
907.208	4672
907.324	4565
907.441	4451
907.557	4367
907.674	4333
907.79	4337
907.907	4394
908.023	4470
908.139	4470
908.256	4405
908.372	4481
908.488	4405
908.604	4360
908.72	4310
908.836	4371
908.952	4356
909.068	4489
909.184	4607
909.3	4531
909.415	4580
909.531	4542
909.647	4310
909.762	4363
909.878	4344
909.993	4436
910.108	4440
910.224	4432
910.339	4542
910.454	4367
910.57	4367
910.685	4337
910.8	4611
910.915	4603
911.03	4481
911.145	4261
911.259	4299
911.374	4325
911.489	4287
911.604	4261
911.718	4150
911.833	4188
911.947	4051
912.062	4044
912.176	4166
912.291	4268
912.405	4276
912.519	4462
912.633	4478
912.748	4386
912.862	4310
912.976	4230
913.09	4097
913.204	4185
913.318	4242
913.431	4352
913.545	4394
913.659	4459
913.772	4341
913.886	4211
914	4192
914.113	4402
914.226	4432
914.34	4363
914.453	4272
914.566	4383
914.68	4291
914.793	4303
914.906	4162
915.019	4120
915.132	4105
915.245	4185
915.358	4223
915.47	4219
915.583	4280
915.696	4287
915.809	4409
915.921	4451
916.034	4261
916.146	4268
916.259	4223
916.371	4371
916.483	4375
916.595	4261
916.708	4284
916.82	4306
916.932	4299
917.044	4306
917.156	4295
917.268	4249
917.38	4246
917.491	4287
917.603	4303
917.715	4421
917.826	4432
917.938	4287
918.049	4207
918.161	4383
918.272	4519
918.384	4527
918.495	4451
918.606	4284
918.717	4215
918.828	4329
918.939	4318
919.05	4295
919.161	4314
919.272	4204
919.383	4227
919.494	4474
919.604	4565
919.715	4417
919.826	4318
919.936	4360
920.047	4538
920.157	4504
920.267	4660
920.378	4561
920.488	4519
920.598	4698
920.708	4866
920.818	4774
920.928	4740
921.038	4919
921.148	4908
921.258	4596
921.368	4497
921.477	4527
921.587	4493
921.697	4386
921.806	4538
921.916	4447
922.025	4242
922.134	4242
922.244	4238
922.353	4337
922.462	4158
922.571	4143
922.68	3975
922.789	4013
922.898	3983
923.007	3979
923.116	4109
923.224	4086
923.333	4063
923.442	3991
923.55	3975
923.659	3968
923.767	4105
923.876	4006
923.984	4086
924.092	3987
924.201	4067
924.309	4059
924.417	4116
924.525	4025
924.633	4086
924.741	5075
924.849	3892
924.956	4109
925.064	3964
925.172	3918
925.279	3975
925.387	4048
925.494	4063
925.602	4196
925.709	4192
925.816	4025
925.924	4120
926.031	4230
926.138	4181
926.245	4162
926.352	4048
926.459	4227
926.566	4284
926.673	4143
926.779	4067
926.886	4090
926.993	3918
927.099	3907
927.206	3930
927.312	3926
927.419	4044
927.525	4029
927.631	4124
927.737	3975
927.843	3934
927.95	3823
928.056	3953
928.162	4021
928.267	4017
928.373	4656
928.479	4158
928.585	3869
928.69	3998
928.796	4048
928.901	3983
929.007	3804
929.112	3979
929.218	3949
929.323	3930
929.428	3979
929.533	4082
929.638	3911
929.743	3975
929.848	4029
929.953	4013
930.058	3949
930.163	3793
930.267	3789
930.372	3987
930.477	3823
930.581	4067
930.685	3911
930.79	3816
930.894	3842
930.998	3857
931.103	4032
931.207	3736
931.311	3713
931.415	3656
931.519	3507
931.623	3511
