Data from test_V78500241_1104.txt Node
Date: Fri Mar 25 16:56:40 CST 2022
User: usil
Spectrometer: V785-0024
Trigger mode: 0
Integration Time (sec): 4.000000E-1
Scans to average: 1
Nonlinearity correction enabled: false
Boxcar width: 0
Storing dark spectrum: false
XAxis mode: Wavelengths
Number of Pixels in Spectrum: 1024
>>>>>Begin Spectral Data<<<<<
801.071	8031
801.214	8081
801.356	7906
801.499	7883
801.641	7795
801.783	7776
801.926	7932
802.068	7913
802.211	7875
802.353	7959
802.496	7826
802.638	7856
802.78	7894
802.923	7944
803.065	7906
803.208	7841
803.35	7936
803.492	8107
803.635	8142
803.777	8039
803.919	8103
804.061	8522
804.204	8138
804.346	8065
804.488	7959
804.63	8164
804.773	7974
804.915	7993
805.057	8248
805.199	8149
805.341	8218
805.483	8244
805.626	8221
805.768	8096
805.91	8199
806.052	8142
806.194	8046
806.336	8286
806.478	8115
806.62	8016
806.762	8126
806.904	8138
807.046	8396
807.188	8225
807.33	8271
807.472	8317
807.614	8069
807.756	8103
807.898	8020
808.04	7845
808.182	7841
808.324	7932
808.465	7875
808.607	8119
808.749	8115
808.891	8263
809.033	8279
809.174	8221
809.316	8039
809.458	8043
809.6	7986
809.741	8043
809.883	8005
810.025	8039
810.166	7993
810.308	8046
810.45	7989
810.591	7837
810.733	7738
810.875	7681
811.016	7518
811.158	7464
811.299	7597
811.441	7685
811.582	7674
811.724	7563
811.865	7510
812.007	7559
812.148	7586
812.29	7651
812.431	7765
812.573	7849
812.714	8016
812.855	8081
812.997	8126
813.138	8263
813.279	8221
813.421	8050
813.562	7944
813.703	7826
813.845	7731
813.986	7407
814.127	7259
814.268	7217
814.41	7183
814.551	7141
814.692	7190
814.833	7065
814.974	7061
815.115	7076
815.256	6954
815.397	6905
815.539	6981
815.68	6783
815.821	6798
815.962	6814
816.103	6802
816.244	6726
816.385	6593
816.526	6593
816.666	6475
816.807	6266
816.948	6445
817.089	6513
817.23	6399
817.371	6334
817.512	6403
817.653	6372
817.793	6311
817.934	6346
818.075	6441
818.216	6407
818.356	6414
818.497	6281
818.638	6136
818.778	6110
818.919	6125
819.06	6175
819.2	6315
819.341	6281
819.481	6342
819.622	6464
819.762	6665
819.903	6665
820.043	6604
820.184	6566
820.324	6654
820.465	6665
820.605	6650
820.746	6658
820.886	6471
821.026	6665
821.167	6760
821.307	6779
821.447	6787
821.588	6662
821.728	6525
821.868	6544
822.008	6266
822.149	6327
822.289	6331
822.429	6133
822.569	6114
822.709	6114
822.849	5916
822.99	5878
823.13	5923
823.27	5874
823.41	5764
823.55	5794
823.69	5767
823.83	5790
823.97	5638
824.11	5554
824.25	5478
824.389	5543
824.529	5547
824.669	5493
824.809	5627
824.949	5649
825.089	5551
825.228	5474
825.368	5433
825.508	5353
825.648	5330
825.787	5379
825.927	5326
826.067	5292
826.206	5322
826.346	5395
826.485	5398
826.625	5402
826.765	5558
826.904	5547
827.044	5258
827.183	5193
827.323	5090
827.462	5239
827.601	5178
827.741	5189
827.88	5216
828.02	5140
828.159	5246
828.298	5235
828.437	5364
828.577	5261
828.716	5429
828.855	5280
828.994	5136
829.134	5136
829.273	5223
829.412	5121
829.551	5185
829.69	5155
829.829	5296
829.968	5337
830.107	5265
830.246	5220
830.385	5201
830.524	5162
830.663	5010
830.802	4946
830.941	4847
831.08	4858
831.219	4980
831.357	4957
831.496	5102
831.635	4942
831.774	4850
831.913	4809
832.051	4725
832.19	4675
832.329	4809
832.467	4710
832.606	4641
832.744	4683
832.883	4725
833.022	4679
833.16	4752
833.299	4828
833.437	4793
833.576	4812
833.714	4866
833.852	4873
833.991	4843
834.129	4923
834.267	4965
834.406	4896
834.544	4938
834.682	4949
834.821	4957
834.959	5132
835.097	5006
835.235	5075
835.373	5048
835.511	5109
835.65	5037
835.788	5010
835.926	4858
836.064	4881
836.202	4904
836.34	5132
836.478	5227
836.615	5102
836.753	5181
836.891	5326
837.029	5280
837.167	5193
837.305	5151
837.443	5147
837.58	5090
837.718	5269
837.856	5159
837.993	5143
838.131	5212
838.269	5181
838.406	5181
838.544	5216
838.681	5037
838.819	4995
838.956	4892
839.094	4881
839.231	4949
839.369	5014
839.506	5406
839.643	5235
839.781	5083
839.918	4965
840.055	5094
840.193	5045
840.33	5147
840.467	5121
840.604	5208
840.742	5360
840.879	5086
841.016	5117
841.153	5212
841.29	5341
841.427	5334
841.564	5284
841.701	5376
841.838	5242
841.975	5212
842.112	5250
842.249	5124
842.385	5098
842.522	5311
842.659	5151
842.796	5140
842.933	5185
843.069	5143
843.206	5136
843.343	5204
843.479	5223
843.616	5231
843.752	5025
843.889	4987
844.025	5197
844.162	4991
844.298	5235
844.435	5075
844.571	5018
844.708	5132
844.844	5288
844.98	5379
845.117	5208
845.253	5143
845.389	5090
845.525	5147
845.661	5181
845.798	4991
845.934	5102
846.07	5029
846.206	5231
846.342	5261
846.478	5159
846.614	4991
846.75	4972
846.886	4927
847.022	5113
847.158	5014
847.294	5067
847.429	5105
847.565	4991
847.701	5379
847.837	4870
847.972	4820
848.108	4965
848.244	4953
848.379	4790
848.515	4721
848.65	4759
848.786	4748
848.921	4744
849.057	4858
849.192	4881
849.328	4763
849.463	4805
849.598	4774
849.734	4752
849.869	4668
850.004	4626
850.14	4649
850.275	4626
850.41	4436
850.545	4588
850.68	4588
850.815	4599
850.95	4634
851.085	4831
851.22	4740
851.355	4660
851.49	4611
851.625	4637
851.76	4637
851.895	4554
852.03	4508
852.165	4599
852.299	4675
852.434	4733
852.569	4733
852.703	4755
852.838	4801
852.973	4881
853.107	4877
853.242	4694
853.376	4649
853.511	4531
853.645	4558
853.78	4763
853.914	4634
854.048	4637
854.183	4596
854.317	4649
854.451	4790
854.585	4660
854.72	4626
854.854	4748
854.988	4569
855.122	4645
855.256	4516
855.39	4611
855.524	4755
855.658	4740
855.792	4687
855.926	4729
856.06	4740
856.194	4805
856.327	4710
856.461	4554
856.595	4561
856.729	4630
856.862	4714
856.996	4653
857.13	4683
857.263	4740
857.397	4774
857.53	4634
857.664	4725
857.797	4755
857.931	4782
858.064	4656
858.197	4740
858.331	4634
858.464	4611
858.597	4523
858.731	4588
858.864	4599
858.997	4599
859.13	4660
859.263	4710
859.396	4641
859.529	4531
859.662	4561
859.795	4527
859.928	4615
860.061	4778
860.194	4801
860.327	4630
860.46	4535
860.592	4717
860.725	4679
860.858	4675
860.99	4592
861.123	4538
861.256	4508
861.388	4550
861.521	5318
861.653	4466
861.786	4443
861.918	4455
862.05	4443
862.183	4561
862.315	4622
862.447	4641
862.58	4596
862.712	4371
862.844	4306
862.976	4470
863.108	4443
863.24	4744
863.372	4306
863.504	4363
863.636	4394
863.768	4478
863.9	4436
864.032	4413
864.164	4440
864.296	4436
864.428	4516
864.559	4599
864.691	4546
864.823	4527
864.954	4443
865.086	4493
865.217	4432
865.349	4421
865.48	4462
865.612	4447
865.743	4645
865.875	4508
866.006	4394
866.137	4481
866.269	4402
866.4	4409
866.531	4405
866.662	4363
866.793	4360
866.924	4386
867.055	4481
867.186	4443
867.317	4424
867.448	4341
867.579	4379
867.71	4383
867.841	4379
867.972	4413
868.103	4424
868.233	4413
868.364	4440
868.495	4462
868.625	4630
868.756	4725
868.886	4561
869.017	4630
869.147	4755
869.278	4736
869.408	4653
869.539	4641
869.669	4706
869.799	4592
869.929	4759
870.06	4740
870.19	4896
870.32	4889
870.45	4908
870.58	4980
870.71	5105
870.84	5079
870.97	4915
871.1	4858
871.23	5132
871.36	5143
871.489	4987
871.619	5060
871.749	5109
871.879	5105
872.008	5170
872.138	5010
872.267	4968
872.397	4839
872.526	4786
872.656	4698
872.785	4797
872.915	4927
873.044	4987
873.173	4965
873.303	4942
873.432	4938
873.561	4976
873.69	4805
873.819	4847
873.948	4915
874.077	4854
874.206	4744
874.335	4797
874.464	4900
874.593	5014
874.722	4904
874.851	5124
874.979	5056
875.108	5006
875.237	4892
875.365	4873
875.494	4885
875.623	4987
875.751	4835
875.88	4839
876.008	4980
876.136	5014
876.265	5147
876.393	5334
876.521	5242
876.65	5193
876.778	5105
876.906	5014
877.034	4976
877.162	5003
877.29	5003
877.418	5041
877.546	5025
877.674	5014
877.802	5018
877.93	4961
878.058	4915
878.185	4896
878.313	4957
878.441	4934
878.568	4805
878.696	4835
878.824	4938
878.951	4972
879.079	5151
879.206	5250
879.333	5132
879.461	5010
879.588	4995
879.715	5113
879.842	5178
879.97	5022
880.097	4824
880.224	4748
880.351	4786
880.478	4793
880.605	4797
880.732	4748
880.859	5102
880.986	4850
881.112	4877
881.239	4771
881.366	4618
881.493	4565
881.619	4596
881.746	4637
881.872	4630
881.999	4649
882.125	4653
882.252	4755
882.378	4793
882.505	4915
882.631	4809
882.757	4664
882.883	4706
883.01	4774
883.136	4641
883.262	4622
883.388	4618
883.514	4771
883.64	4839
883.766	4801
883.892	4618
884.018	4714
884.143	4873
884.269	4995
884.395	4691
884.52	4653
884.646	4634
884.772	4554
884.897	4565
885.023	4660
885.148	4786
885.274	4843
885.399	4824
885.524	4660
885.65	4687
885.775	4736
885.9	4694
886.025	4850
886.15	4824
886.275	4668
886.4	4664
886.525	4733
886.65	4683
886.775	4698
886.9	4877
887.025	5045
887.149	4839
887.274	4645
887.399	4565
887.523	4596
887.648	4603
887.773	4577
887.897	4740
888.021	4675
888.146	4691
888.27	4820
888.395	4934
888.519	4767
888.643	4793
888.767	4831
888.891	4668
889.015	4603
889.139	4641
889.263	4626
889.387	4767
889.511	4896
889.635	4774
889.759	4634
889.883	4637
890.006	4691
890.13	4778
890.254	4565
890.377	4691
890.501	4516
890.624	4504
890.748	4641
890.871	4546
890.995	4432
891.118	4367
891.241	4497
891.364	4542
891.488	4637
891.611	4478
891.734	4493
891.857	4554
891.98	4565
892.103	4603
892.226	4550
892.349	4478
892.471	4432
892.594	4558
892.717	4577
892.839	4569
892.962	4607
893.085	4641
893.207	4599
893.33	4440
893.452	4527
893.575	4675
893.697	4580
893.819	4790
893.941	4801
894.064	4771
894.186	4580
894.308	4550
894.43	4733
894.552	4771
894.674	4721
894.796	4519
894.918	4596
895.04	4592
895.161	4694
895.283	4668
895.405	4516
895.526	4584
895.648	4675
895.769	4683
895.891	4714
896.012	4736
896.134	4675
896.255	4622
896.376	4626
896.498	4592
896.619	4622
896.74	4615
896.861	4691
896.982	4896
897.103	5052
897.224	4835
897.345	4702
897.466	4679
897.587	4740
897.708	4854
897.828	4744
897.949	4706
898.07	4577
898.19	4653
898.311	4816
898.431	4668
898.552	4721
898.672	4797
898.792	4774
898.913	4702
899.033	4607
899.153	4516
899.273	4386
899.393	4466
899.513	4504
899.633	4546
899.753	4558
899.873	4516
899.993	4596
900.113	4485
900.232	4558
900.352	4493
900.472	4421
900.591	4428
900.711	4485
900.83	4470
900.95	4634
901.069	4683
901.189	4531
901.308	4352
901.427	4310
901.546	4333
901.665	4455
901.784	4470
901.904	4386
902.023	4310
902.141	4196
902.26	4158
902.379	4325
902.498	4242
902.617	4207
902.735	4367
902.854	4405
902.973	4394
903.091	4196
903.21	4223
903.328	4284
903.446	4261
903.565	4188
903.683	4314
903.801	4276
903.919	4413
904.038	4417
904.156	4329
904.274	4432
904.392	4383
904.51	4421
904.627	4447
904.745	4538
904.863	4622
904.981	4409
905.098	4284
905.216	4367
905.334	4409
905.451	4413
905.569	4451
905.686	4531
905.803	4554
905.921	4432
906.038	4508
906.155	4440
906.272	4413
906.389	4451
906.506	4325
906.623	4367
906.74	4371
906.857	4287
906.974	4375
907.091	4504
907.208	4691
907.324	4550
907.441	4440
907.557	4379
907.674	4329
907.79	4337
907.907	4390
908.023	4428
908.139	4478
908.256	4436
908.372	4455
908.488	4379
908.604	4413
908.72	4284
908.836	4371
908.952	4360
909.068	4447
909.184	4558
909.3	4459
909.415	4550
909.531	4554
909.647	4329
909.762	4367
909.878	4310
909.993	4478
910.108	4394
910.224	4394
910.339	4474
910.454	4390
910.57	4383
910.685	4322
910.8	4668
910.915	4588
911.03	4497
911.145	4261
911.259	4325
911.374	4360
911.489	4295
911.604	4249
911.718	4139
911.833	4162
911.947	4067
912.062	4010
912.176	4181
912.291	4246
912.405	4276
912.519	4508
912.633	4504
912.748	4348
912.862	4303
912.976	4158
913.09	4090
913.204	4169
913.318	4234
913.431	4352
913.545	4337
913.659	4436
913.772	4352
913.886	4265
914	4223
914.113	4333
914.226	4402
914.34	4375
914.453	4219
914.566	4371
914.68	4306
914.793	4314
914.906	4154
915.019	4131
915.132	4067
915.245	4196
915.358	4196
915.47	4215
915.583	4280
915.696	4280
915.809	4363
915.921	4405
916.034	4230
916.146	4257
916.259	4219
916.371	4341
916.483	4367
916.595	4284
916.708	4322
916.82	4337
916.932	4322
917.044	4291
917.156	4325
917.268	4230
917.38	4268
917.491	4303
917.603	4299
917.715	4398
917.826	4440
917.938	4348
918.049	4238
918.161	4375
918.272	4535
918.384	4554
918.495	4405
918.606	4287
918.717	4276
918.828	4306
918.939	4341
919.05	4257
919.161	4367
919.272	4105
919.383	4219
919.494	4481
919.604	4622
919.715	4436
919.826	4367
919.936	4363
920.047	4519
920.157	4481
920.267	4694
920.378	4538
920.488	4504
920.598	4771
920.708	4862
920.818	4740
920.928	4778
921.038	4927
921.148	4900
921.258	4626
921.368	4542
921.477	4508
921.587	4451
921.697	4318
921.806	4531
921.916	4462
922.025	4249
922.134	4196
922.244	4219
922.353	4295
922.462	4158
922.571	4124
922.68	3983
922.789	3979
922.898	3975
923.007	3945
923.116	4074
923.224	4074
923.333	4090
923.442	3964
923.55	3975
923.659	4025
923.767	4147
923.876	3998
923.984	4116
924.092	4029
924.201	4013
924.309	4116
924.417	4128
924.525	4059
924.633	4105
924.741	4850
924.849	3937
924.956	4131
925.064	3941
925.172	3865
925.279	3960
925.387	4055
925.494	4036
925.602	4238
925.709	4169
925.816	4017
925.924	4128
926.031	4192
926.138	4147
926.245	4219
926.352	4067
926.459	4234
926.566	4253
926.673	4154
926.779	4086
926.886	4078
926.993	3964
927.099	3945
927.206	3972
927.312	3930
927.419	4032
927.525	4017
927.631	4082
927.737	3918
927.843	3922
927.95	3869
928.056	3945
928.162	3972
928.267	4036
928.373	4664
928.479	4112
928.585	3896
928.69	4032
928.796	4055
928.901	3941
929.007	3819
929.112	3979
929.218	3964
929.323	3953
929.428	3949
929.533	4101
929.638	3838
929.743	3911
929.848	4048
929.953	4021
930.058	3865
930.163	3770
930.267	3816
930.372	3960
930.477	3755
930.581	4071
930.685	3926
930.79	3838
930.894	3896
930.998	3850
931.103	3987
931.207	3705
931.311	3648
931.415	3656
931.519	3526
931.623	3553
