Data from test_V78500241_2746.txt Node
Date: Fri Mar 25 17:08:05 CST 2022
User: usil
Spectrometer: V785-0024
Trigger mode: 0
Integration Time (sec): 4.000000E-1
Scans to average: 1
Nonlinearity correction enabled: false
Boxcar width: 0
Storing dark spectrum: false
XAxis mode: Wavelengths
Number of Pixels in Spectrum: 1024
>>>>>Begin Spectral Data<<<<<
801.071	7970
801.214	8016
801.356	7871
801.499	7913
801.641	7814
801.783	7837
801.926	8027
802.068	8001
802.211	8077
802.353	7982
802.496	7898
802.638	7902
802.78	7913
802.923	7879
803.065	7856
803.208	7860
803.35	7898
803.492	8084
803.635	8195
803.777	8077
803.919	8172
804.061	8476
804.204	8199
804.346	8092
804.488	7986
804.63	8142
804.773	8065
804.915	8180
805.057	8240
805.199	8054
805.341	8164
805.483	8237
805.626	8252
805.768	8145
805.91	8187
806.052	8183
806.194	8088
806.336	8313
806.478	8103
806.62	8115
806.762	8031
806.904	8286
807.046	8465
807.188	8400
807.33	8290
807.472	8313
807.614	8153
807.756	8088
807.898	8039
808.04	7947
808.182	7841
808.324	7936
808.465	7951
808.607	8092
808.749	8172
808.891	8282
809.033	8351
809.174	8218
809.316	8134
809.458	8058
809.6	8020
809.741	8065
809.883	8020
810.025	8153
810.166	8084
810.308	8123
810.45	8073
810.591	7864
810.733	7689
810.875	7708
811.016	7548
811.158	7525
811.299	7578
811.441	7788
811.582	7704
811.724	7605
811.865	7556
812.007	7586
812.148	7605
812.29	7578
812.431	7723
812.573	7902
812.714	7940
812.855	8202
812.997	8195
813.138	8347
813.279	8214
813.421	8149
813.562	8111
813.703	7875
813.845	7715
813.986	7430
814.127	7206
814.268	7274
814.41	7251
814.551	7107
814.692	7251
814.833	7103
814.974	7091
815.115	7057
815.256	6932
815.397	6954
815.539	6882
815.68	6852
815.821	6821
815.962	6837
816.103	6810
816.244	6757
816.385	6593
816.526	6612
816.666	6509
816.807	6376
816.948	6422
817.089	6528
817.23	6452
817.371	6384
817.512	6338
817.653	6437
817.793	6445
817.934	6445
818.075	6445
818.216	6437
818.356	6395
818.497	6251
818.638	6095
818.778	6186
818.919	6106
819.06	6144
819.2	6315
819.341	6365
819.481	6403
819.622	6494
819.762	6730
819.903	6673
820.043	6593
820.184	6623
820.324	6631
820.465	6703
820.605	6669
820.746	6673
820.886	6532
821.026	6688
821.167	6681
821.307	6825
821.447	6776
821.588	6669
821.728	6566
821.868	6433
822.008	6281
822.149	6334
822.289	6346
822.429	6114
822.569	6121
822.709	6072
822.849	5923
822.99	5935
823.13	5912
823.27	5965
823.41	5786
823.55	5752
823.69	5760
823.83	5798
823.97	5699
824.11	5532
824.25	5524
824.389	5509
824.529	5600
824.669	5505
824.809	5642
824.949	5615
825.089	5619
825.228	5558
825.368	5341
825.508	5360
825.648	5345
825.787	5372
825.927	5322
826.067	5280
826.206	5326
826.346	5364
826.485	5421
826.625	5387
826.765	5547
826.904	5471
827.044	5231
827.183	5235
827.323	5155
827.462	5212
827.601	5185
827.741	5204
827.88	5216
828.02	5166
828.159	5292
828.298	5280
828.437	5345
828.577	5303
828.716	5425
828.855	5372
828.994	5147
829.134	5166
829.273	5220
829.412	5132
829.551	5170
829.69	5178
829.829	5265
829.968	5322
830.107	5280
830.246	5296
830.385	5166
830.524	5170
830.663	5041
830.802	4976
830.941	4904
831.08	4923
831.219	4961
831.357	4980
831.496	5178
831.635	4911
831.774	4835
831.913	4881
832.051	4797
832.19	4759
832.329	4847
832.467	4687
832.606	4618
832.744	4729
832.883	4717
833.022	4702
833.16	4786
833.299	4828
833.437	4870
833.576	4786
833.714	4850
833.852	4881
833.991	4904
834.129	4972
834.267	4946
834.406	4957
834.544	4968
834.682	4923
834.821	4942
834.959	5151
835.097	4984
835.235	5136
835.373	5086
835.511	5102
835.65	5010
835.788	5025
835.926	4892
836.064	4919
836.202	4968
836.34	5185
836.478	5223
836.615	5090
836.753	5242
836.891	5288
837.029	5258
837.167	5174
837.305	5178
837.443	5121
837.58	5090
837.718	5193
837.856	5174
837.993	5181
838.131	5212
838.269	5208
838.406	5235
838.544	5166
838.681	5041
838.819	5064
838.956	4881
839.094	4896
839.231	4957
839.369	5037
839.506	5474
839.643	5296
839.781	5109
839.918	5056
840.055	5067
840.193	5083
840.33	5022
840.467	5098
840.604	5151
840.742	5421
840.879	5090
841.016	5086
841.153	5155
841.29	5395
841.427	5265
841.564	5250
841.701	5376
841.838	5311
841.975	5231
842.112	5280
842.249	5102
842.385	5102
842.522	5318
842.659	5189
842.796	5178
842.933	5208
843.069	5109
843.206	5128
843.343	5315
843.479	5258
843.616	5265
843.752	5075
843.889	5018
844.025	5174
844.162	5041
844.298	5189
844.435	5014
844.571	5048
844.708	5124
844.844	5269
844.98	5337
845.117	5307
845.253	5102
845.389	5056
845.525	5143
845.661	5102
845.798	5010
845.934	5102
846.07	5037
846.206	5159
846.342	5307
846.478	5132
846.614	5014
846.75	4965
846.886	4915
847.022	5128
847.158	4968
847.294	5018
847.429	5086
847.565	5045
847.701	5307
847.837	4793
847.972	4801
848.108	4987
848.244	4934
848.379	4755
848.515	4706
848.65	4687
848.786	4702
848.921	4729
849.057	4847
849.192	4915
849.328	4793
849.463	4858
849.598	4744
849.734	4740
849.869	4691
850.004	4596
850.14	4672
850.275	4615
850.41	4504
850.545	4500
850.68	4603
850.815	4573
850.95	4618
851.085	4831
851.22	4694
851.355	4691
851.49	4637
851.625	4588
851.76	4637
851.895	4569
852.03	4466
852.165	4573
852.299	4721
852.434	4786
852.569	4675
852.703	4744
852.838	4831
852.973	4915
853.107	4915
853.242	4736
853.376	4649
853.511	4527
853.645	4584
853.78	4847
853.914	4687
854.048	4683
854.183	4645
854.317	4702
854.451	4843
854.585	4607
854.72	4588
854.854	4733
854.988	4615
855.122	4630
855.256	4516
855.39	4649
855.524	4782
855.658	4710
855.792	4733
855.926	4759
856.06	4740
856.194	4759
856.327	4649
856.461	4588
856.595	4596
856.729	4607
856.862	4755
856.996	4672
857.13	4801
857.263	4782
857.397	4824
857.53	4675
857.664	4694
857.797	4744
857.931	4771
858.064	4721
858.197	4721
858.331	4660
858.464	4637
858.597	4535
858.731	4615
858.864	4672
858.997	4626
859.13	4725
859.263	4653
859.396	4694
859.529	4634
859.662	4565
859.795	4565
859.928	4653
860.061	4805
860.194	4824
860.327	4634
860.46	4592
860.592	4759
860.725	4729
860.858	4771
860.99	4660
861.123	4588
861.256	4565
861.388	4675
861.521	5387
861.653	4519
861.786	4489
861.918	4531
862.05	4569
862.183	4607
862.315	4580
862.447	4630
862.58	4584
862.712	4451
862.844	4363
862.976	4500
863.108	4497
863.24	4797
863.372	4341
863.504	4424
863.636	4489
863.768	4531
863.9	4470
864.032	4424
864.164	4421
864.296	4489
864.428	4630
864.559	4569
864.691	4592
864.823	4527
864.954	4531
865.086	4565
865.217	4538
865.349	4489
865.48	4489
865.612	4542
865.743	4683
865.875	4512
866.006	4432
866.137	4538
866.269	4508
866.4	4512
866.531	4512
866.662	4428
866.793	4440
866.924	4478
867.055	4546
867.186	4512
867.317	4455
867.448	4447
867.579	4394
867.71	4398
867.841	4375
867.972	4504
868.103	4504
868.233	4538
868.364	4554
868.495	4573
868.625	4717
868.756	4733
868.886	4561
869.017	4687
869.147	4866
869.278	4805
869.408	4702
869.539	4683
869.669	4714
869.799	4698
869.929	4759
870.06	4805
870.19	4976
870.32	4968
870.45	4987
870.58	5079
870.71	5136
870.84	5124
870.97	4949
871.1	4949
871.23	5174
871.36	5128
871.489	5010
871.619	5117
871.749	5079
871.879	5174
872.008	5197
872.138	5113
872.267	5041
872.397	4923
872.526	4900
872.656	4710
872.785	4858
872.915	4949
873.044	5041
873.173	4938
873.303	4980
873.432	5029
873.561	4984
873.69	4862
873.819	4911
873.948	4965
874.077	4850
874.206	4786
874.335	4828
874.464	5003
874.593	5086
874.722	5041
874.851	5105
874.979	5067
875.108	5064
875.237	4930
875.365	4889
875.494	4934
875.623	4938
875.751	4866
875.88	4915
876.008	5006
876.136	5041
876.265	5193
876.393	5357
876.521	5250
876.65	5231
876.778	5235
876.906	5064
877.034	5029
877.162	5048
877.29	5079
877.418	5071
877.546	5094
877.674	5090
877.802	5079
877.93	5029
878.058	5003
878.185	4953
878.313	4984
878.441	4919
878.568	4828
878.696	4923
878.824	4972
878.951	5022
879.079	5189
879.206	5269
879.333	5094
879.461	5056
879.588	5045
879.715	5143
879.842	5299
879.97	5060
880.097	4824
880.224	4793
880.351	4805
880.478	4908
880.605	4847
880.732	4820
880.859	5113
880.986	4930
881.112	4976
881.239	4805
881.366	4755
881.493	4653
881.619	4630
881.746	4649
881.872	4660
881.999	4752
882.125	4748
882.252	4847
882.378	4881
882.505	4995
882.631	4831
882.757	4694
882.883	4759
883.01	4778
883.136	4679
883.262	4618
883.388	4653
883.514	4854
883.64	4889
883.766	4850
883.892	4733
884.018	4744
884.143	4889
884.269	5025
884.395	4706
884.52	4668
884.646	4698
884.772	4577
884.897	4584
885.023	4683
885.148	4801
885.274	4881
885.399	4831
885.524	4736
885.65	4744
885.775	4744
885.9	4759
886.025	4915
886.15	4873
886.275	4767
886.4	4675
886.525	4809
886.65	4736
886.775	4691
886.9	4987
887.025	5041
887.149	4816
887.274	4698
887.399	4580
887.523	4668
887.648	4584
887.773	4599
887.897	4748
888.021	4771
888.146	4714
888.27	4843
888.395	4976
888.519	4816
888.643	4843
888.767	4858
888.891	4694
889.015	4603
889.139	4660
889.263	4634
889.387	4816
889.511	4843
889.635	4831
889.759	4698
889.883	4675
890.006	4763
890.13	4877
890.254	4649
890.377	4729
890.501	4596
890.624	4561
890.748	4668
890.871	4542
890.995	4428
891.118	4432
891.241	4561
891.364	4558
891.488	4660
891.611	4527
891.734	4615
891.857	4656
891.98	4622
892.103	4733
892.226	4596
892.349	4523
892.471	4455
892.594	4584
892.717	4660
892.839	4596
892.962	4592
893.085	4782
893.207	4641
893.33	4485
893.452	4523
893.575	4748
893.697	4580
893.819	4771
893.941	4862
894.064	4839
894.186	4615
894.308	4584
894.43	4717
894.552	4850
894.674	4740
894.796	4622
894.918	4622
895.04	4580
895.161	4759
895.283	4729
895.405	4641
895.526	4649
895.648	4691
895.769	4698
895.891	4790
896.012	4759
896.134	4725
896.255	4691
896.376	4672
896.498	4626
896.619	4714
896.74	4645
896.861	4649
896.982	4946
897.103	5056
897.224	4835
897.345	4759
897.466	4694
897.587	4759
897.708	4835
897.828	4793
897.949	4714
898.07	4603
898.19	4641
898.311	4824
898.431	4714
898.552	4778
898.672	4831
898.792	4873
898.913	4797
899.033	4599
899.153	4558
899.273	4455
899.393	4508
899.513	4626
899.633	4538
899.753	4558
899.873	4531
899.993	4596
900.113	4577
900.232	4603
900.352	4607
900.472	4500
900.591	4421
900.711	4519
900.83	4497
900.95	4675
901.069	4683
901.189	4546
901.308	4398
901.427	4352
901.546	4383
901.665	4474
901.784	4573
901.904	4409
902.023	4325
902.141	4230
902.26	4169
902.379	4322
902.498	4268
902.617	4253
902.735	4402
902.854	4440
902.973	4386
903.091	4261
903.21	4230
903.328	4333
903.446	4363
903.565	4333
903.683	4398
903.801	4291
903.919	4432
904.038	4451
904.156	4322
904.274	4436
904.392	4405
904.51	4455
904.627	4504
904.745	4611
904.863	4626
904.981	4428
905.098	4348
905.216	4428
905.334	4470
905.451	4527
905.569	4459
905.686	4588
905.803	4592
905.921	4398
906.038	4558
906.155	4531
906.272	4455
906.389	4424
906.506	4371
906.623	4371
906.74	4390
906.857	4379
906.974	4405
907.091	4596
907.208	4691
907.324	4626
907.441	4459
907.557	4371
907.674	4405
907.79	4375
907.907	4421
908.023	4531
908.139	4481
908.256	4402
908.372	4527
908.488	4421
908.604	4383
908.72	4352
908.836	4390
908.952	4341
909.068	4432
909.184	4584
909.3	4481
909.415	4580
909.531	4592
909.647	4371
909.762	4371
909.878	4360
909.993	4478
910.108	4405
910.224	4428
910.339	4478
910.454	4363
910.57	4379
910.685	4360
910.8	4694
910.915	4580
911.03	4500
911.145	4341
911.259	4295
911.374	4352
911.489	4352
911.604	4272
911.718	4188
911.833	4242
911.947	4120
912.062	4032
912.176	4211
912.291	4295
912.405	4268
912.519	4436
912.633	4531
912.748	4428
912.862	4306
912.976	4227
913.09	4147
913.204	4188
913.318	4268
913.431	4398
913.545	4329
913.659	4462
913.772	4375
913.886	4257
914	4246
914.113	4402
914.226	4466
914.34	4443
914.453	4238
914.566	4405
914.68	4318
914.793	4284
914.906	4192
915.019	4204
915.132	4093
915.245	4188
915.358	4227
915.47	4265
915.583	4276
915.696	4333
915.809	4417
915.921	4451
916.034	4272
916.146	4253
916.259	4246
916.371	4371
916.483	4386
916.595	4325
916.708	4356
916.82	4322
916.932	4299
917.044	4356
917.156	4360
917.268	4238
917.38	4322
917.491	4276
917.603	4371
917.715	4402
917.826	4443
917.938	4318
918.049	4299
918.161	4371
918.272	4558
918.384	4580
918.495	4462
918.606	4310
918.717	4207
918.828	4344
918.939	4379
919.05	4280
919.161	4356
919.272	4162
919.383	4253
919.494	4470
919.604	4611
919.715	4451
919.826	4367
919.936	4436
920.047	4550
920.157	4516
920.267	4683
920.378	4558
920.488	4504
920.598	4721
920.708	4850
920.818	4771
920.928	4774
921.038	4953
921.148	4923
921.258	4675
921.368	4516
921.477	4497
921.587	4478
921.697	4325
921.806	4558
921.916	4417
922.025	4310
922.134	4284
922.244	4166
922.353	4341
922.462	4185
922.571	4158
922.68	4063
922.789	3964
922.898	4040
923.007	3983
923.116	4090
923.224	4120
923.333	4101
923.442	3987
923.55	4036
923.659	4040
923.767	4086
923.876	4048
923.984	4162
924.092	3979
924.201	4082
924.309	4105
924.417	4090
924.525	4067
924.633	4143
924.741	5098
924.849	3934
924.956	4181
925.064	3979
925.172	3953
925.279	3998
925.387	4063
925.494	4112
925.602	4238
925.709	4230
925.816	4048
925.924	4169
926.031	4291
926.138	4188
926.245	4242
926.352	4131
926.459	4276
926.566	4375
926.673	4234
926.779	4101
926.886	4101
926.993	3994
927.099	4010
927.206	3994
927.312	3968
927.419	4097
927.525	4101
927.631	4109
927.737	4010
927.843	3991
927.95	3884
928.056	4006
928.162	3994
928.267	4086
928.373	4683
928.479	4162
928.585	3918
928.69	4074
928.796	4158
928.901	4029
929.007	3899
929.112	4078
929.218	3994
929.323	3975
929.428	3991
929.533	4135
929.638	3956
929.743	3998
929.848	4097
929.953	4063
930.058	3998
930.163	3819
930.267	3884
930.372	4010
930.477	3880
930.581	4090
930.685	4013
930.79	3808
930.894	3907
930.998	3865
931.103	4097
931.207	3732
931.311	3709
931.415	3705
931.519	3549
931.623	3591
