Data from test_V78500241_1969.txt Node
Date: Fri Mar 25 17:02:41 CST 2022
User: usil
Spectrometer: V785-0024
Trigger mode: 0
Integration Time (sec): 4.000000E-1
Scans to average: 1
Nonlinearity correction enabled: false
Boxcar width: 0
Storing dark spectrum: false
XAxis mode: Wavelengths
Number of Pixels in Spectrum: 1024
>>>>>Begin Spectral Data<<<<<
801.071	8016
801.214	7963
801.356	7830
801.499	7883
801.641	7795
801.783	7818
801.926	7887
802.068	7970
802.211	7940
802.353	7955
802.496	7928
802.638	7822
802.78	7852
802.923	7826
803.065	7769
803.208	7841
803.35	7906
803.492	8062
803.635	8096
803.777	7947
803.919	8123
804.061	8438
804.204	8142
804.346	8100
804.488	7986
804.63	8096
804.773	8043
804.915	8088
805.057	8248
805.199	8145
805.341	8191
805.483	8187
805.626	8161
805.768	8050
805.91	8183
806.052	8221
806.194	8081
806.336	8305
806.478	8031
806.62	8001
806.762	8130
806.904	8305
807.046	8499
807.188	8339
807.33	8339
807.472	8294
807.614	8191
807.756	8138
807.898	8001
808.04	7860
808.182	7830
808.324	7883
808.465	7864
808.607	8024
808.749	8073
808.891	8202
809.033	8282
809.174	8176
809.316	8077
809.458	7967
809.6	8012
809.741	8012
809.883	8016
810.025	8027
810.166	7986
810.308	7982
810.45	7993
810.591	7822
810.733	7685
810.875	7624
811.016	7476
811.158	7392
811.299	7571
811.441	7658
811.582	7651
811.724	7544
811.865	7495
812.007	7559
812.148	7537
812.29	7578
812.431	7757
812.573	7875
812.714	7871
812.855	8054
812.997	8161
813.138	8271
813.279	8119
813.421	8058
813.562	7875
813.703	7784
813.845	7708
813.986	7422
814.127	7251
814.268	7190
814.41	7160
814.551	7198
814.692	7251
814.833	7129
814.974	7103
815.115	7114
815.256	6943
815.397	6951
815.539	6977
815.68	6798
815.821	6772
815.962	6791
816.103	6779
816.244	6684
816.385	6551
816.526	6650
816.666	6506
816.807	6277
816.948	6407
817.089	6403
817.23	6460
817.371	6357
817.512	6361
817.653	6365
817.793	6311
817.934	6399
818.075	6452
818.216	6433
818.356	6460
818.497	6270
818.638	6144
818.778	6129
818.919	6136
819.06	6186
819.2	6357
819.341	6376
819.481	6369
819.622	6574
819.762	6738
819.903	6696
820.043	6616
820.184	6627
820.324	6612
820.465	6688
820.605	6707
820.746	6669
820.886	6566
821.026	6696
821.167	6684
821.307	6856
821.447	6776
821.588	6684
821.728	6574
821.868	6517
822.008	6350
822.149	6369
822.289	6369
822.429	6175
822.569	6102
822.709	6155
822.849	6011
822.99	5920
823.13	5965
823.27	5999
823.41	5813
823.55	5821
823.69	5840
823.83	5790
823.97	5695
824.11	5562
824.25	5516
824.389	5585
824.529	5592
824.669	5558
824.809	5707
824.949	5684
825.089	5630
825.228	5570
825.368	5376
825.508	5391
825.648	5357
825.787	5444
825.927	5421
826.067	5414
826.206	5277
826.346	5444
826.485	5414
826.625	5471
826.765	5600
826.904	5505
827.044	5258
827.183	5235
827.323	5189
827.462	5265
827.601	5208
827.741	5223
827.88	5273
828.02	5121
828.159	5246
828.298	5311
828.437	5364
828.577	5318
828.716	5493
828.855	5379
828.994	5201
829.134	5170
829.273	5246
829.412	5166
829.551	5181
829.69	5155
829.829	5242
829.968	5376
830.107	5307
830.246	5330
830.385	5166
830.524	5201
830.663	5136
830.802	4976
830.941	4911
831.08	4919
831.219	5018
831.357	5029
831.496	5212
831.635	4957
831.774	4835
831.913	4862
832.051	4759
832.19	4729
832.329	4866
832.467	4755
832.606	4679
832.744	4752
832.883	4736
833.022	4748
833.16	4835
833.299	4801
833.437	4828
833.576	4812
833.714	4873
833.852	4930
833.991	4870
834.129	4968
834.267	4968
834.406	4915
834.544	5029
834.682	5003
834.821	5014
834.959	5181
835.097	4999
835.235	5208
835.373	5086
835.511	5159
835.65	5060
835.788	5033
835.926	4915
836.064	4923
836.202	4946
836.34	5178
836.478	5242
836.615	5181
836.753	5235
836.891	5261
837.029	5277
837.167	5212
837.305	5193
837.443	5151
837.58	5124
837.718	5273
837.856	5246
837.993	5170
838.131	5265
838.269	5204
838.406	5162
838.544	5181
838.681	5052
838.819	5045
838.956	4946
839.094	4915
839.231	4999
839.369	5056
839.506	5391
839.643	5265
839.781	5067
839.918	4972
840.055	5094
840.193	5067
840.33	5124
840.467	5170
840.604	5296
840.742	5493
840.879	5067
841.016	5109
841.153	5143
841.29	5383
841.427	5303
841.564	5360
841.701	5353
841.838	5341
841.975	5265
842.112	5280
842.249	5140
842.385	5098
842.522	5376
842.659	5185
842.796	5181
842.933	5250
843.069	5143
843.206	5162
843.343	5307
843.479	5242
843.616	5322
843.752	5060
843.889	5067
844.025	5178
844.162	5086
844.298	5208
844.435	5102
844.571	5105
844.708	5250
844.844	5288
844.98	5368
845.117	5372
845.253	5178
845.389	5143
845.525	5204
845.661	5166
845.798	5056
845.934	5143
846.07	5094
846.206	5220
846.342	5311
846.478	5162
846.614	4999
846.75	4972
846.886	4942
847.022	5147
847.158	5052
847.294	5090
847.429	5098
847.565	5060
847.701	5330
847.837	4911
847.972	4824
848.108	4984
848.244	4984
848.379	4812
848.515	4755
848.65	4721
848.786	4828
848.921	4839
849.057	4915
849.192	4938
849.328	4820
849.463	4847
849.598	4820
849.734	4771
849.869	4759
850.004	4675
850.14	4706
850.275	4615
850.41	4580
850.545	4599
850.68	4653
850.815	4660
850.95	4630
851.085	4843
851.22	4740
851.355	4729
851.49	4611
851.625	4694
851.76	4672
851.895	4588
852.03	4584
852.165	4694
852.299	4714
852.434	4774
852.569	4755
852.703	4774
852.838	4896
852.973	4953
853.107	4976
853.242	4790
853.376	4672
853.511	4592
853.645	4615
853.78	4824
853.914	4733
854.048	4725
854.183	4668
854.317	4683
854.451	4835
854.585	4717
854.72	4698
854.854	4763
854.988	4630
855.122	4607
855.256	4561
855.39	4706
855.524	4767
855.658	4744
855.792	4729
855.926	4755
856.06	4752
856.194	4797
856.327	4721
856.461	4626
856.595	4664
856.729	4645
856.862	4790
856.996	4710
857.13	4797
857.263	4752
857.397	4809
857.53	4683
857.664	4744
857.797	4801
857.931	4736
858.064	4721
858.197	4748
858.331	4660
858.464	4596
858.597	4569
858.731	4634
858.864	4645
858.997	4637
859.13	4672
859.263	4714
859.396	4668
859.529	4573
859.662	4599
859.795	4546
859.928	4641
860.061	4771
860.194	4755
860.327	4641
860.46	4611
860.592	4786
860.725	4706
860.858	4809
860.99	4554
861.123	4577
861.256	4535
861.388	4611
861.521	5315
861.653	4481
861.786	4462
861.918	4440
862.05	4546
862.183	4584
862.315	4584
862.447	4660
862.58	4561
862.712	4417
862.844	4405
862.976	4489
863.108	4474
863.24	4752
863.372	4352
863.504	4451
863.636	4398
863.768	4535
863.9	4455
864.032	4344
864.164	4462
864.296	4508
864.428	4558
864.559	4592
864.691	4508
864.823	4554
864.954	4516
865.086	4504
865.217	4489
865.349	4489
865.48	4432
865.612	4493
865.743	4691
865.875	4519
866.006	4421
866.137	4455
866.269	4451
866.4	4405
866.531	4424
866.662	4466
866.793	4447
866.924	4432
867.055	4554
867.186	4519
867.317	4493
867.448	4409
867.579	4405
867.71	4436
867.841	4310
867.972	4500
868.103	4478
868.233	4485
868.364	4455
868.495	4500
868.625	4698
868.756	4763
868.886	4630
869.017	4615
869.147	4809
869.278	4767
869.408	4672
869.539	4664
869.669	4729
869.799	4683
869.929	4767
870.06	4771
870.19	5006
870.32	4972
870.45	4984
870.58	5045
870.71	5128
870.84	5109
870.97	4972
871.1	4915
871.23	5166
871.36	5105
871.489	5086
871.619	5079
871.749	5117
871.879	5090
872.008	5170
872.138	5029
872.267	4957
872.397	4850
872.526	4858
872.656	4733
872.785	4843
872.915	4949
873.044	5018
873.173	4976
873.303	5003
873.432	4946
873.561	4965
873.69	4930
873.819	4904
873.948	4946
874.077	4843
874.206	4771
874.335	4767
874.464	4927
874.593	5067
874.722	5033
874.851	5098
874.979	5098
875.108	5109
875.237	4919
875.365	4881
875.494	4896
875.623	4995
875.751	4843
875.88	4896
876.008	4980
876.136	5018
876.265	5227
876.393	5353
876.521	5250
876.65	5223
876.778	5189
876.906	5102
877.034	5025
877.162	5006
877.29	4987
877.418	5033
877.546	5052
877.674	5041
877.802	5083
877.93	5056
878.058	4957
878.185	4915
878.313	4976
878.441	4980
878.568	4824
878.696	4896
878.824	4961
878.951	5022
879.079	5109
879.206	5288
879.333	5098
879.461	4972
879.588	5025
879.715	5143
879.842	5265
879.97	4953
880.097	4843
880.224	4816
880.351	4831
880.478	4820
880.605	4839
880.732	4831
880.859	5098
880.986	4889
881.112	4957
881.239	4820
881.366	4687
881.493	4603
881.619	4637
881.746	4698
881.872	4649
881.999	4683
882.125	4714
882.252	4801
882.378	4873
882.505	4976
882.631	4809
882.757	4767
882.883	4774
883.01	4721
883.136	4733
883.262	4607
883.388	4622
883.514	4839
883.64	4862
883.766	4850
883.892	4672
884.018	4706
884.143	4908
884.269	4999
884.395	4698
884.52	4645
884.646	4717
884.772	4603
884.897	4523
885.023	4706
885.148	4759
885.274	4850
885.399	4801
885.524	4752
885.65	4744
885.775	4782
885.9	4740
886.025	4862
886.15	4763
886.275	4706
886.4	4656
886.525	4729
886.65	4694
886.775	4717
886.9	4934
887.025	5029
887.149	4759
887.274	4660
887.399	4618
887.523	4630
887.648	4603
887.773	4592
887.897	4782
888.021	4774
888.146	4710
888.27	4816
888.395	4976
888.519	4759
888.643	4805
888.767	4809
888.891	4702
889.015	4630
889.139	4626
889.263	4626
889.387	4717
889.511	4866
889.635	4793
889.759	4611
889.883	4649
890.006	4721
890.13	4885
890.254	4618
890.377	4714
890.501	4527
890.624	4558
890.748	4675
890.871	4519
890.995	4485
891.118	4413
891.241	4565
891.364	4584
891.488	4622
891.611	4504
891.734	4538
891.857	4641
891.98	4531
892.103	4679
892.226	4603
892.349	4542
892.471	4489
892.594	4550
892.717	4558
892.839	4603
892.962	4569
893.085	4679
893.207	4641
893.33	4466
893.452	4493
893.575	4664
893.697	4580
893.819	4820
893.941	4873
894.064	4759
894.186	4611
894.308	4577
894.43	4736
894.552	4831
894.674	4748
894.796	4592
894.918	4637
895.04	4558
895.161	4721
895.283	4702
895.405	4645
895.526	4607
895.648	4717
895.769	4702
895.891	4733
896.012	4782
896.134	4714
896.255	4664
896.376	4706
896.498	4668
896.619	4710
896.74	4641
896.861	4672
896.982	4938
897.103	5090
897.224	4885
897.345	4774
897.466	4668
897.587	4740
897.708	4854
897.828	4782
897.949	4694
898.07	4538
898.19	4634
898.311	4858
898.431	4637
898.552	4717
898.672	4801
898.792	4843
898.913	4729
899.033	4649
899.153	4561
899.273	4424
899.393	4504
899.513	4497
899.633	4569
899.753	4588
899.873	4523
899.993	4603
900.113	4535
900.232	4584
900.352	4573
900.472	4485
900.591	4436
900.711	4497
900.83	4455
900.95	4565
901.069	4649
901.189	4508
901.308	4390
901.427	4314
901.546	4386
901.665	4493
901.784	4531
901.904	4417
902.023	4356
902.141	4169
902.26	4207
902.379	4295
902.498	4230
902.617	4234
902.735	4363
902.854	4379
902.973	4371
903.091	4227
903.21	4185
903.328	4287
903.446	4200
903.565	4276
903.683	4356
903.801	4295
903.919	4371
904.038	4497
904.156	4360
904.274	4455
904.392	4348
904.51	4443
904.627	4485
904.745	4569
904.863	4672
904.981	4424
905.098	4322
905.216	4348
905.334	4390
905.451	4436
905.569	4402
905.686	4558
905.803	4569
905.921	4409
906.038	4523
906.155	4440
906.272	4436
906.389	4462
906.506	4344
906.623	4325
906.74	4424
906.857	4314
906.974	4394
907.091	4577
907.208	4691
907.324	4637
907.441	4512
907.557	4352
907.674	4344
907.79	4318
907.907	4379
908.023	4493
908.139	4447
908.256	4455
908.372	4508
908.488	4428
908.604	4402
908.72	4352
908.836	4356
908.952	4390
909.068	4443
909.184	4592
909.3	4523
909.415	4561
909.531	4565
909.647	4379
909.762	4409
909.878	4333
909.993	4402
910.108	4466
910.224	4405
910.339	4466
910.454	4390
910.57	4348
910.685	4325
910.8	4634
910.915	4615
911.03	4474
911.145	4325
911.259	4367
911.374	4379
911.489	4246
911.604	4295
911.718	4162
911.833	4242
911.947	4112
912.062	4036
912.176	4257
912.291	4185
912.405	4287
912.519	4485
912.633	4500
912.748	4352
912.862	4291
912.976	4219
913.09	4105
913.204	4147
913.318	4272
913.431	4341
913.545	4367
913.659	4402
913.772	4352
913.886	4268
914	4253
914.113	4394
914.226	4409
914.34	4470
914.453	4230
914.566	4405
914.68	4276
914.793	4360
914.906	4169
915.019	4139
915.132	4063
915.245	4211
915.358	4188
915.47	4257
915.583	4299
915.696	4272
915.809	4421
915.921	4375
916.034	4253
916.146	4234
916.259	4230
916.371	4398
916.483	4356
916.595	4287
916.708	4310
916.82	4329
916.932	4356
917.044	4352
917.156	4333
917.268	4227
917.38	4227
917.491	4295
917.603	4337
917.715	4451
917.826	4462
917.938	4348
918.049	4223
918.161	4409
918.272	4531
918.384	4542
918.495	4462
918.606	4261
918.717	4204
918.828	4367
918.939	4402
919.05	4261
919.161	4333
919.272	4124
919.383	4268
919.494	4462
919.604	4637
919.715	4443
919.826	4341
919.936	4398
920.047	4516
920.157	4455
920.267	4740
920.378	4542
920.488	4546
920.598	4714
920.708	4938
920.818	4767
920.928	4729
921.038	4953
921.148	4949
921.258	4618
921.368	4569
921.477	4485
921.587	4428
921.697	4394
921.806	4554
921.916	4413
922.025	4249
922.134	4265
922.244	4196
922.353	4344
922.462	4196
922.571	4109
922.68	4032
922.789	3972
922.898	4051
923.007	3964
923.116	4097
923.224	4063
923.333	4071
923.442	4067
923.55	3987
923.659	4093
923.767	4059
923.876	3994
923.984	4131
924.092	4025
924.201	4063
924.309	4109
924.417	4131
924.525	4097
924.633	4105
924.741	5029
924.849	3876
924.956	4162
925.064	3968
925.172	3876
925.279	3968
925.387	4074
925.494	4093
925.602	4215
925.709	4192
925.816	4071
925.924	4143
926.031	4227
926.138	4188
926.245	4192
926.352	4071
926.459	4249
926.566	4337
926.673	4097
926.779	4051
926.886	4059
926.993	4010
927.099	3934
927.206	3956
927.312	3941
927.419	4093
927.525	4017
927.631	4101
927.737	3937
927.843	3934
927.95	3812
928.056	3949
928.162	3979
928.267	4097
928.373	4542
928.479	4131
928.585	3892
928.69	3975
928.796	4067
928.901	3998
929.007	3854
929.112	3994
929.218	3979
929.323	3926
929.428	3934
929.533	4139
929.638	3922
929.743	3979
929.848	4017
929.953	4029
930.058	3934
930.163	3770
930.267	3827
930.372	3983
930.477	3781
930.581	4059
930.685	3953
930.79	3842
930.894	3857
930.998	3854
931.103	4032
931.207	3705
931.311	3644
931.415	3633
931.519	3496
931.623	3595
