Data from test_V78500241_387.txt Node
Date: Fri Mar 25 16:51:41 CST 2022
User: usil
Spectrometer: V785-0024
Trigger mode: 0
Integration Time (sec): 4.000000E-1
Scans to average: 1
Nonlinearity correction enabled: false
Boxcar width: 0
Storing dark spectrum: false
XAxis mode: Wavelengths
Number of Pixels in Spectrum: 1024
>>>>>Begin Spectral Data<<<<<
801.071	8062
801.214	8050
801.356	7940
801.499	7951
801.641	7833
801.783	7849
801.926	7986
802.068	7955
802.211	8058
802.353	8138
802.496	7932
802.638	7963
802.78	7997
802.923	7936
803.065	7849
803.208	7894
803.35	7967
803.492	8096
803.635	8153
803.777	8016
803.919	8069
804.061	8518
804.204	8195
804.346	8100
804.488	8024
804.63	8050
804.773	8043
804.915	8092
805.057	8419
805.199	8271
805.341	8240
805.483	8290
805.626	8195
805.768	8069
805.91	8202
806.052	8176
806.194	8126
806.336	8385
806.478	8229
806.62	8168
806.762	8183
806.904	8332
807.046	8488
807.188	8434
807.33	8408
807.472	8393
807.614	8176
807.756	8187
807.898	8084
808.04	7940
808.182	7982
808.324	8005
808.465	7993
808.607	8164
808.749	8145
808.891	8263
809.033	8275
809.174	8214
809.316	8119
809.458	8107
809.6	8012
809.741	8039
809.883	8096
810.025	8180
810.166	8130
810.308	8130
810.45	8031
810.591	7902
810.733	7849
810.875	7712
811.016	7586
811.158	7590
811.299	7753
811.441	7837
811.582	7727
811.724	7727
811.865	7643
812.007	7689
812.148	7620
812.29	7666
812.431	7818
812.573	7856
812.714	8039
812.855	8214
812.997	8244
813.138	8366
813.279	8290
813.421	8180
813.562	8130
813.703	7936
813.845	7871
813.986	7533
814.127	7358
814.268	7396
814.41	7263
814.551	7194
814.692	7308
814.833	7187
814.974	7198
815.115	7129
815.256	7000
815.397	6939
815.539	6993
815.68	6897
815.821	6829
815.962	6909
816.103	6939
816.244	6764
816.385	6753
816.526	6677
816.666	6601
816.807	6429
816.948	6540
817.089	6540
817.23	6471
817.371	6467
817.512	6433
817.653	6475
817.793	6422
817.934	6441
818.075	6490
818.216	6452
818.356	6456
818.497	6296
818.638	6178
818.778	6262
818.919	6178
819.06	6171
819.2	6357
819.341	6353
819.481	6399
819.622	6570
819.762	6802
819.903	6738
820.043	6646
820.184	6574
820.324	6604
820.465	6677
820.605	6707
820.746	6711
820.886	6559
821.026	6681
821.167	6783
821.307	6878
821.447	6814
821.588	6692
821.728	6593
821.868	6509
822.008	6380
822.149	6388
822.289	6426
822.429	6175
822.569	6133
822.709	6152
822.849	6015
822.99	5954
823.13	6011
823.27	5942
823.41	5855
823.55	5817
823.69	5805
823.83	5847
823.97	5710
824.11	5547
824.25	5554
824.389	5520
824.529	5611
824.669	5592
824.809	5661
824.949	5676
825.089	5684
825.228	5608
825.368	5452
825.508	5406
825.648	5391
825.787	5429
825.927	5417
826.067	5345
826.206	5368
826.346	5414
826.485	5467
826.625	5493
826.765	5592
826.904	5535
827.044	5334
827.183	5223
827.323	5155
827.462	5220
827.601	5212
827.741	5273
827.88	5280
828.02	5102
828.159	5250
828.298	5322
828.437	5436
828.577	5277
828.716	5493
828.855	5364
828.994	5212
829.134	5166
829.273	5181
829.412	5174
829.551	5189
829.69	5197
829.829	5258
829.968	5440
830.107	5296
830.246	5277
830.385	5197
830.524	5132
830.663	5052
830.802	5022
830.941	4877
831.08	4908
831.219	5064
831.357	4987
831.496	5197
831.635	4980
831.774	4885
831.913	4953
832.051	4748
832.19	4763
832.329	4873
832.467	4725
832.606	4653
832.744	4759
832.883	4809
833.022	4759
833.16	4862
833.299	4858
833.437	4923
833.576	4873
833.714	4892
833.852	4885
833.991	4870
834.129	5006
834.267	5003
834.406	4957
834.544	5006
834.682	4953
834.821	5033
834.959	5204
835.097	5052
835.235	5166
835.373	5121
835.511	5140
835.65	5041
835.788	5060
835.926	4976
836.064	4873
836.202	4942
836.34	5162
836.478	5265
836.615	5208
836.753	5216
836.891	5360
837.029	5269
837.167	5212
837.305	5204
837.443	5246
837.58	5181
837.718	5326
837.856	5220
837.993	5185
838.131	5296
838.269	5261
838.406	5242
838.544	5250
838.681	5056
838.819	5025
838.956	4923
839.094	4915
839.231	5045
839.369	5143
839.506	5463
839.643	5277
839.781	5117
839.918	5067
840.055	5121
840.193	5117
840.33	5113
840.467	5185
840.604	5204
840.742	5417
840.879	5136
841.016	5105
841.153	5193
841.29	5379
841.427	5368
841.564	5322
841.701	5307
841.838	5277
841.975	5239
842.112	5337
842.249	5166
842.385	5128
842.522	5387
842.659	5181
842.796	5155
842.933	5220
843.069	5181
843.206	5197
843.343	5292
843.479	5239
843.616	5273
843.752	5022
843.889	5041
844.025	5208
844.162	5079
844.298	5216
844.435	5109
844.571	5079
844.708	5181
844.844	5311
844.98	5398
845.117	5349
845.253	5128
845.389	5162
845.525	5151
845.661	5166
845.798	5071
845.934	5216
846.07	5105
846.206	5235
846.342	5307
846.478	5181
846.614	5098
846.75	4984
846.886	4972
847.022	5193
847.158	5083
847.294	5079
847.429	5075
847.565	5083
847.701	5284
847.837	4915
847.972	4828
848.108	5014
848.244	4927
848.379	4801
848.515	4733
848.65	4782
848.786	4755
848.921	4778
849.057	4938
849.192	4938
849.328	4828
849.463	4873
849.598	4809
849.734	4778
849.869	4755
850.004	4653
850.14	4736
850.275	4592
850.41	4626
850.545	4653
850.68	4596
850.815	4622
850.95	4626
851.085	4896
851.22	4786
851.355	4698
851.49	4660
851.625	4611
851.76	4702
851.895	4538
852.03	4577
852.165	4679
852.299	4752
852.434	4793
852.569	4767
852.703	4790
852.838	4892
852.973	4938
853.107	4942
853.242	4831
853.376	4656
853.511	4569
853.645	4618
853.78	4839
853.914	4698
854.048	4717
854.183	4660
854.317	4702
854.451	4923
854.585	4710
854.72	4664
854.854	4759
854.988	4626
855.122	4622
855.256	4561
855.39	4706
855.524	4797
855.658	4767
855.792	4721
855.926	4786
856.06	4801
856.194	4809
856.327	4759
856.461	4675
856.595	4672
856.729	4641
856.862	4771
856.996	4721
857.13	4774
857.263	4763
857.397	4866
857.53	4664
857.664	4786
857.797	4790
857.931	4831
858.064	4710
858.197	4736
858.331	4675
858.464	4588
858.597	4569
858.731	4691
858.864	4634
858.997	4596
859.13	4672
859.263	4649
859.396	4736
859.529	4607
859.662	4596
859.795	4615
859.928	4683
860.061	4744
860.194	4778
860.327	4637
860.46	4573
860.592	4733
860.725	4733
860.858	4752
860.99	4573
861.123	4500
861.256	4554
861.388	4641
861.521	5311
861.653	4508
861.786	4470
861.918	4462
862.05	4535
862.183	4573
862.315	4645
862.447	4653
862.58	4592
862.712	4440
862.844	4333
862.976	4558
863.108	4485
863.24	4805
863.372	4371
863.504	4466
863.636	4466
863.768	4489
863.9	4470
864.032	4394
864.164	4413
864.296	4504
864.428	4554
864.559	4558
864.691	4603
864.823	4558
864.954	4542
865.086	4535
865.217	4523
865.349	4451
865.48	4474
865.612	4550
865.743	4649
865.875	4436
866.006	4462
866.137	4542
866.269	4451
866.4	4481
866.531	4466
866.662	4424
866.793	4455
866.924	4447
867.055	4512
867.186	4474
867.317	4421
867.448	4398
867.579	4440
867.71	4398
867.841	4451
867.972	4432
868.103	4455
868.233	4516
868.364	4451
868.495	4478
868.625	4702
868.756	4767
868.886	4615
869.017	4641
869.147	4717
869.278	4835
869.408	4710
869.539	4679
869.669	4729
869.799	4706
869.929	4831
870.06	4778
870.19	4953
870.32	4999
870.45	4991
870.58	5045
870.71	5109
870.84	5124
870.97	4965
871.1	4942
871.23	5155
871.36	5204
871.489	5029
871.619	5086
871.749	5113
871.879	5147
872.008	5170
872.138	5064
872.267	5018
872.397	4850
872.526	4839
872.656	4744
872.785	4850
872.915	4976
873.044	5064
873.173	4980
873.303	5022
873.432	4938
873.561	4949
873.69	4980
873.819	4900
873.948	4930
874.077	4850
874.206	4797
874.335	4793
874.464	4961
874.593	5048
874.722	4953
874.851	5121
874.979	5094
875.108	5033
875.237	4938
875.365	4873
875.494	4900
875.623	4980
875.751	4820
875.88	4866
876.008	5025
876.136	5056
876.265	5250
876.393	5368
876.521	5261
876.65	5292
876.778	5174
876.906	5105
877.034	5025
877.162	5098
877.29	5037
877.418	5086
877.546	5086
877.674	5048
877.802	5071
877.93	5071
878.058	4949
878.185	4873
878.313	4980
878.441	4991
878.568	4820
878.696	4942
878.824	4968
878.951	5022
879.079	5121
879.206	5303
879.333	5010
879.461	5010
879.588	5014
879.715	5132
879.842	5254
879.97	5010
880.097	4782
880.224	4790
880.351	4850
880.478	4797
880.605	4805
880.732	4820
880.859	5090
880.986	4919
881.112	4896
881.239	4797
881.366	4694
881.493	4599
881.619	4611
881.746	4634
881.872	4656
881.999	4694
882.125	4698
882.252	4824
882.378	4854
882.505	5003
882.631	4839
882.757	4679
882.883	4755
883.01	4740
883.136	4714
883.262	4637
883.388	4622
883.514	4809
883.64	4870
883.766	4809
883.892	4675
884.018	4721
884.143	4934
884.269	4984
884.395	4710
884.52	4664
884.646	4698
884.772	4615
884.897	4554
885.023	4683
885.148	4721
885.274	4892
885.399	4790
885.524	4752
885.65	4702
885.775	4767
885.9	4706
886.025	4881
886.15	4786
886.275	4706
886.4	4668
886.525	4710
886.65	4725
886.775	4748
886.9	4911
887.025	5067
887.149	4824
887.274	4691
887.399	4630
887.523	4580
887.648	4626
887.773	4618
887.897	4828
888.021	4763
888.146	4634
888.27	4847
888.395	4900
888.519	4839
888.643	4805
888.767	4797
888.891	4679
889.015	4626
889.139	4668
889.263	4630
889.387	4790
889.511	4843
889.635	4759
889.759	4679
889.883	4675
890.006	4759
890.13	4885
890.254	4641
890.377	4706
890.501	4611
890.624	4554
890.748	4634
890.871	4508
890.995	4428
891.118	4402
891.241	4470
891.364	4592
891.488	4626
891.611	4550
891.734	4569
891.857	4622
891.98	4508
892.103	4641
892.226	4588
892.349	4508
892.471	4436
892.594	4542
892.717	4599
892.839	4558
892.962	4588
893.085	4649
893.207	4634
893.33	4508
893.452	4519
893.575	4664
893.697	4630
893.819	4752
893.941	4858
894.064	4805
894.186	4588
894.308	4531
894.43	4683
894.552	4790
894.674	4778
894.796	4599
894.918	4588
895.04	4527
895.161	4763
895.283	4675
895.405	4592
895.526	4675
895.648	4683
895.769	4672
895.891	4733
896.012	4744
896.134	4774
896.255	4691
896.376	4630
896.498	4637
896.619	4729
896.74	4641
896.861	4679
896.982	4930
897.103	5094
897.224	4820
897.345	4748
897.466	4679
897.587	4755
897.708	4839
897.828	4812
897.949	4675
898.07	4599
898.19	4706
898.311	4858
898.431	4668
898.552	4748
898.672	4793
898.792	4828
898.913	4740
899.033	4618
899.153	4500
899.273	4417
899.393	4474
899.513	4523
899.633	4481
899.753	4569
899.873	4493
899.993	4573
900.113	4573
900.232	4584
900.352	4569
900.472	4500
900.591	4405
900.711	4504
900.83	4447
900.95	4603
901.069	4702
901.189	4542
901.308	4367
901.427	4325
901.546	4394
901.665	4459
901.784	4504
901.904	4413
902.023	4356
902.141	4188
902.26	4185
902.379	4295
902.498	4238
902.617	4223
902.735	4371
902.854	4398
902.973	4386
903.091	4181
903.21	4223
903.328	4310
903.446	4276
903.565	4257
903.683	4341
903.801	4261
903.919	4466
904.038	4455
904.156	4367
904.274	4432
904.392	4436
904.51	4375
904.627	4508
904.745	4588
904.863	4634
904.981	4402
905.098	4333
905.216	4383
905.334	4459
905.451	4493
905.569	4489
905.686	4504
905.803	4573
905.921	4440
906.038	4577
906.155	4497
906.272	4459
906.389	4470
906.506	4375
906.623	4367
906.74	4394
906.857	4325
906.974	4367
907.091	4542
907.208	4698
907.324	4596
907.441	4478
907.557	4371
907.674	4360
907.79	4348
907.907	4375
908.023	4489
908.139	4474
908.256	4470
908.372	4550
908.488	4421
908.604	4356
908.72	4333
908.836	4363
908.952	4375
909.068	4424
909.184	4588
909.3	4470
909.415	4573
909.531	4603
909.647	4333
909.762	4348
909.878	4325
909.993	4440
910.108	4379
910.224	4462
910.339	4436
910.454	4371
910.57	4367
910.685	4310
910.8	4618
910.915	4649
911.03	4531
911.145	4333
911.259	4348
911.374	4363
911.489	4272
911.604	4291
911.718	4200
911.833	4200
911.947	4067
912.062	4017
912.176	4188
912.291	4276
912.405	4234
912.519	4474
912.633	4519
912.748	4398
912.862	4367
912.976	4219
913.09	4162
913.204	4158
913.318	4227
913.431	4314
913.545	4360
913.659	4451
913.772	4333
913.886	4272
914	4234
914.113	4398
914.226	4432
914.34	4394
914.453	4227
914.566	4474
914.68	4287
914.793	4386
914.906	4169
915.019	4162
915.132	4032
915.245	4158
915.358	4249
915.47	4268
915.583	4325
915.696	4329
915.809	4402
915.921	4409
916.034	4284
916.146	4265
916.259	4230
916.371	4394
916.483	4344
916.595	4310
916.708	4341
916.82	4360
916.932	4341
917.044	4367
917.156	4352
917.268	4223
917.38	4249
917.491	4265
917.603	4333
917.715	4447
917.826	4462
917.938	4337
918.049	4230
918.161	4371
918.272	4558
918.384	4512
918.495	4451
918.606	4318
918.717	4265
918.828	4314
918.939	4390
919.05	4238
919.161	4352
919.272	4150
919.383	4211
919.494	4459
919.604	4622
919.715	4451
919.826	4367
919.936	4356
920.047	4546
920.157	4455
920.267	4660
920.378	4554
920.488	4554
920.598	4694
920.708	4892
920.818	4759
920.928	4809
921.038	4908
921.148	4923
921.258	4596
921.368	4577
921.477	4516
921.587	4485
921.697	4371
921.806	4535
921.916	4481
922.025	4246
922.134	4280
922.244	4211
922.353	4348
922.462	4158
922.571	4131
922.68	4025
922.789	3960
922.898	4048
923.007	3998
923.116	4139
923.224	4067
923.333	4074
923.442	3983
923.55	3975
923.659	4040
923.767	4112
923.876	4059
923.984	4097
924.092	3964
924.201	4093
924.309	4124
924.417	4173
924.525	4032
924.633	4055
924.741	5029
924.849	3869
924.956	4093
925.064	3941
925.172	3915
925.279	3983
925.387	4055
925.494	4048
925.602	4204
925.709	4192
925.816	4025
925.924	4131
926.031	4188
926.138	4135
926.245	4192
926.352	4109
926.459	4223
926.566	4280
926.673	4181
926.779	4105
926.886	4074
926.993	3968
927.099	3972
927.206	3941
927.312	3926
927.419	4071
927.525	4059
927.631	4059
927.737	3945
927.843	3934
927.95	3838
928.056	3968
928.162	4040
928.267	4067
928.373	4717
928.479	4124
928.585	3884
928.69	4036
928.796	4029
928.901	3968
929.007	3911
929.112	4021
929.218	3998
929.323	3953
929.428	3941
929.533	4074
929.638	3945
929.743	3941
929.848	4040
929.953	4010
930.058	3922
930.163	3816
930.267	3781
930.372	3964
930.477	3804
930.581	4124
930.685	3956
930.79	3835
930.894	3926
930.998	3861
931.103	4048
931.207	3701
931.311	3663
931.415	3637
931.519	3504
931.623	3584
