Data from test_V78500241_257.txt Node
Date: Fri Mar 25 16:50:47 CST 2022
User: usil
Spectrometer: V785-0024
Trigger mode: 0
Integration Time (sec): 4.000000E-1
Scans to average: 1
Nonlinearity correction enabled: false
Boxcar width: 0
Storing dark spectrum: false
XAxis mode: Wavelengths
Number of Pixels in Spectrum: 1024
>>>>>Begin Spectral Data<<<<<
801.071	8103
801.214	8020
801.356	7887
801.499	7837
801.641	7769
801.783	7868
801.926	7982
802.068	7944
802.211	8024
802.353	8001
802.496	7856
802.638	8001
802.78	7947
802.923	7902
803.065	7879
803.208	7852
803.35	7951
803.492	8062
803.635	8107
803.777	8081
803.919	8092
804.061	8427
804.204	8180
804.346	8046
804.488	7925
804.63	8092
804.773	8001
804.915	8096
805.057	8206
805.199	8176
805.341	8279
805.483	8286
805.626	8138
805.768	8088
805.91	8210
806.052	8233
806.194	8153
806.336	8328
806.478	8126
806.62	8043
806.762	8073
806.904	8206
807.046	8469
807.188	8377
807.33	8263
807.472	8301
807.614	8096
807.756	8100
807.898	7978
808.04	7860
808.182	7845
808.324	7902
808.465	7917
808.607	8092
808.749	8157
808.891	8240
809.033	8301
809.174	8187
809.316	8058
809.458	8062
809.6	8027
809.741	8050
809.883	8012
810.025	8084
810.166	8031
810.308	8043
810.45	7986
810.591	7868
810.733	7757
810.875	7715
811.016	7502
811.158	7480
811.299	7597
811.441	7757
811.582	7605
811.724	7525
811.865	7559
812.007	7636
812.148	7594
812.29	7624
812.431	7818
812.573	7837
812.714	7932
812.855	8195
812.997	8161
813.138	8377
813.279	8161
813.421	8126
813.562	7967
813.703	7776
813.845	7708
813.986	7457
814.127	7221
814.268	7198
814.41	7171
814.551	7206
814.692	7160
814.833	7046
814.974	7076
815.115	7133
815.256	6909
815.397	6951
815.539	6935
815.68	6760
815.821	6779
815.962	6882
816.103	6825
816.244	6684
816.385	6631
816.526	6669
816.666	6517
816.807	6327
816.948	6441
817.089	6483
817.23	6467
817.371	6384
817.512	6361
817.653	6342
817.793	6365
817.934	6407
818.075	6456
818.216	6445
818.356	6391
818.497	6209
818.638	6125
818.778	6175
818.919	6117
819.06	6106
819.2	6308
819.341	6342
819.481	6319
819.622	6502
819.762	6692
819.903	6665
820.043	6578
820.184	6521
820.324	6566
820.465	6604
820.605	6623
820.746	6665
820.886	6445
821.026	6639
821.167	6650
821.307	6734
821.447	6745
821.588	6623
821.728	6513
821.868	6509
822.008	6285
822.149	6338
822.289	6308
822.429	6148
822.569	6079
822.709	6076
822.849	5931
822.99	5935
823.13	5882
823.27	5904
823.41	5802
823.55	5813
823.69	5779
823.83	5741
823.97	5615
824.11	5554
824.25	5532
824.389	5501
824.529	5558
824.669	5551
824.809	5627
824.949	5691
825.089	5600
825.228	5528
825.368	5391
825.508	5330
825.648	5357
825.787	5353
825.927	5372
826.067	5284
826.206	5258
826.346	5406
826.485	5379
826.625	5417
826.765	5524
826.904	5436
827.044	5258
827.183	5178
827.323	5117
827.462	5227
827.601	5140
827.741	5166
827.88	5204
828.02	5094
828.159	5197
828.298	5330
828.437	5326
828.577	5299
828.716	5398
828.855	5337
828.994	5128
829.134	5117
829.273	5174
829.412	5166
829.551	5151
829.69	5159
829.829	5216
829.968	5353
830.107	5284
830.246	5307
830.385	5193
830.524	5147
830.663	5048
830.802	4953
830.941	4877
831.08	4892
831.219	5014
831.357	4980
831.496	5132
831.635	4927
831.774	4854
831.913	4854
832.051	4736
832.19	4748
832.329	4816
832.467	4656
832.606	4679
832.744	4740
832.883	4736
833.022	4706
833.16	4797
833.299	4854
833.437	4850
833.576	4835
833.714	4835
833.852	4835
833.991	4847
834.129	4984
834.267	4927
834.406	4942
834.544	4984
834.682	4968
834.821	4965
834.959	5204
835.097	4968
835.235	5132
835.373	5140
835.511	5098
835.65	5022
835.788	5075
835.926	4870
836.064	4858
836.202	4915
836.34	5181
836.478	5258
836.615	5128
836.753	5174
836.891	5299
837.029	5223
837.167	5231
837.305	5181
837.443	5151
837.58	5117
837.718	5201
837.856	5220
837.993	5174
838.131	5307
838.269	5273
838.406	5212
838.544	5178
838.681	5067
838.819	5041
838.956	4877
839.094	4919
839.231	4980
839.369	5048
839.506	5455
839.643	5277
839.781	5025
839.918	5029
840.055	5052
840.193	5083
840.33	5128
840.467	5136
840.604	5166
840.742	5440
840.879	5113
841.016	5045
841.153	5136
841.29	5303
841.427	5368
841.564	5299
841.701	5360
841.838	5277
841.975	5227
842.112	5242
842.249	5170
842.385	5151
842.522	5307
842.659	5197
842.796	5155
842.933	5204
843.069	5147
843.206	5143
843.343	5311
843.479	5231
843.616	5288
843.752	5052
843.889	5029
844.025	5189
844.162	5079
844.298	5208
844.435	5060
844.571	5022
844.708	5223
844.844	5269
844.98	5330
845.117	5280
845.253	5140
845.389	5094
845.525	5140
845.661	5155
845.798	5117
845.934	5170
846.07	5094
846.206	5178
846.342	5269
846.478	5181
846.614	5025
846.75	4961
846.886	4919
847.022	5162
847.158	5067
847.294	5083
847.429	5102
847.565	5098
847.701	5315
847.837	4870
847.972	4816
848.108	4930
848.244	4904
848.379	4816
848.515	4771
848.65	4733
848.786	4748
848.921	4793
849.057	4911
849.192	4946
849.328	4797
849.463	4847
849.598	4805
849.734	4759
849.869	4672
850.004	4603
850.14	4691
850.275	4641
850.41	4588
850.545	4611
850.68	4596
850.815	4687
850.95	4683
851.085	4828
851.22	4774
851.355	4706
851.49	4626
851.625	4637
851.76	4634
851.895	4554
852.03	4531
852.165	4637
852.299	4679
852.434	4816
852.569	4748
852.703	4748
852.838	4866
852.973	4965
853.107	4885
853.242	4710
853.376	4637
853.511	4550
853.645	4607
853.78	4774
853.914	4744
854.048	4660
854.183	4630
854.317	4721
854.451	4854
854.585	4702
854.72	4626
854.854	4767
854.988	4584
855.122	4656
855.256	4512
855.39	4607
855.524	4797
855.658	4687
855.792	4714
855.926	4668
856.06	4740
856.194	4847
856.327	4706
856.461	4603
856.595	4584
856.729	4634
856.862	4786
856.996	4694
857.13	4725
857.263	4736
857.397	4767
857.53	4649
857.664	4729
857.797	4801
857.931	4812
858.064	4691
858.197	4759
858.331	4641
858.464	4634
858.597	4546
858.731	4622
858.864	4691
858.997	4554
859.13	4653
859.263	4698
859.396	4706
859.529	4577
859.662	4626
859.795	4531
859.928	4653
860.061	4733
860.194	4774
860.327	4630
860.46	4542
860.592	4721
860.725	4710
860.858	4721
860.99	4607
861.123	4500
861.256	4535
861.388	4611
861.521	5452
861.653	4493
861.786	4428
861.918	4493
862.05	4474
862.183	4596
862.315	4592
862.447	4656
862.58	4535
862.712	4417
862.844	4348
862.976	4413
863.108	4485
863.24	4854
863.372	4352
863.504	4428
863.636	4421
863.768	4474
863.9	4451
864.032	4402
864.164	4424
864.296	4497
864.428	4558
864.559	4573
864.691	4561
864.823	4573
864.954	4478
865.086	4584
865.217	4462
865.349	4390
865.48	4440
865.612	4440
865.743	4668
865.875	4478
866.006	4443
866.137	4455
866.269	4440
866.4	4428
866.531	4386
866.662	4413
866.793	4371
866.924	4432
867.055	4558
867.186	4489
867.317	4417
867.448	4360
867.579	4379
867.71	4398
867.841	4371
867.972	4516
868.103	4455
868.233	4421
868.364	4394
868.495	4481
868.625	4683
868.756	4755
868.886	4550
869.017	4607
869.147	4816
869.278	4805
869.408	4668
869.539	4645
869.669	4733
869.799	4675
869.929	4744
870.06	4694
870.19	4942
870.32	4938
870.45	4965
870.58	4984
870.71	5102
870.84	5071
870.97	4900
871.1	4904
871.23	5155
871.36	5140
871.489	5045
871.619	5052
871.749	5121
871.879	5143
872.008	5128
872.138	5048
872.267	4995
872.397	4866
872.526	4877
872.656	4733
872.785	4820
872.915	4957
873.044	5033
873.173	4927
873.303	4968
873.432	4942
873.561	4972
873.69	4915
873.819	4885
873.948	4965
874.077	4831
874.206	4816
874.335	4786
874.464	4949
874.593	4991
874.722	4999
874.851	5128
874.979	5060
875.108	5022
875.237	4873
875.365	4896
875.494	4900
875.623	4961
875.751	4873
875.88	4870
876.008	4984
876.136	5045
876.265	5201
876.393	5334
876.521	5269
876.65	5269
876.778	5136
876.906	5048
877.034	5010
877.162	5071
877.29	5003
877.418	5056
877.546	5014
877.674	5052
877.802	5037
877.93	5064
878.058	4957
878.185	4862
878.313	4957
878.441	4946
878.568	4740
878.696	4915
878.824	4991
878.951	5056
879.079	5105
879.206	5322
879.333	5105
879.461	4957
879.588	4991
879.715	5132
879.842	5239
879.97	5018
880.097	4782
880.224	4710
880.351	4820
880.478	4843
880.605	4790
880.732	4759
880.859	5071
880.986	4938
881.112	4911
881.239	4801
881.366	4672
881.493	4622
881.619	4584
881.746	4660
881.872	4653
881.999	4668
882.125	4660
882.252	4820
882.378	4824
882.505	4980
882.631	4809
882.757	4706
882.883	4755
883.01	4752
883.136	4687
883.262	4607
883.388	4645
883.514	4828
883.64	4892
883.766	4835
883.892	4698
884.018	4759
884.143	4889
884.269	4984
884.395	4649
884.52	4672
884.646	4656
884.772	4569
884.897	4569
885.023	4660
885.148	4736
885.274	4889
885.399	4752
885.524	4710
885.65	4710
885.775	4736
885.9	4668
886.025	4843
886.15	4805
886.275	4683
886.4	4611
886.525	4710
886.65	4660
886.775	4698
886.9	4930
887.025	5006
887.149	4774
887.274	4679
887.399	4569
887.523	4656
887.648	4584
887.773	4580
887.897	4816
888.021	4721
888.146	4714
888.27	4805
888.395	4896
888.519	4854
888.643	4797
888.767	4850
888.891	4691
889.015	4599
889.139	4668
889.263	4645
889.387	4824
889.511	4858
889.635	4786
889.759	4637
889.883	4668
890.006	4729
890.13	4828
890.254	4622
890.377	4714
890.501	4550
890.624	4542
890.748	4637
890.871	4485
890.995	4447
891.118	4379
891.241	4527
891.364	4558
891.488	4626
891.611	4497
891.734	4550
891.857	4626
891.98	4561
892.103	4653
892.226	4603
892.349	4508
892.471	4398
892.594	4558
892.717	4596
892.839	4588
892.962	4584
893.085	4672
893.207	4584
893.33	4436
893.452	4493
893.575	4656
893.697	4603
893.819	4786
893.941	4820
894.064	4816
894.186	4641
894.308	4519
894.43	4729
894.552	4797
894.674	4767
894.796	4550
894.918	4577
895.04	4558
895.161	4710
895.283	4641
895.405	4611
895.526	4653
895.648	4714
895.769	4714
895.891	4740
896.012	4744
896.134	4714
896.255	4645
896.376	4622
896.498	4577
896.619	4668
896.74	4596
896.861	4641
896.982	4927
897.103	5052
897.224	4816
897.345	4744
897.466	4675
897.587	4771
897.708	4858
897.828	4774
897.949	4691
898.07	4558
898.19	4649
898.311	4831
898.431	4694
898.552	4702
898.672	4896
898.792	4790
898.913	4748
899.033	4634
899.153	4527
899.273	4421
899.393	4485
899.513	4538
899.633	4550
899.753	4523
899.873	4500
899.993	4565
900.113	4523
900.232	4615
900.352	4512
900.472	4485
900.591	4421
900.711	4531
900.83	4402
900.95	4611
901.069	4736
901.189	4550
901.308	4356
901.427	4329
901.546	4348
901.665	4466
901.784	4516
901.904	4375
902.023	4280
902.141	4188
902.26	4200
902.379	4306
902.498	4215
902.617	4238
902.735	4398
902.854	4417
902.973	4329
903.091	4166
903.21	4215
903.328	4303
903.446	4272
903.565	4299
903.683	4386
903.801	4314
903.919	4409
904.038	4466
904.156	4306
904.274	4451
904.392	4367
904.51	4455
904.627	4481
904.745	4580
904.863	4660
904.981	4402
905.098	4360
905.216	4413
905.334	4462
905.451	4421
905.569	4447
905.686	4569
905.803	4599
905.921	4436
906.038	4565
906.155	4500
906.272	4432
906.389	4443
906.506	4383
906.623	4386
906.74	4390
906.857	4272
906.974	4356
907.091	4558
907.208	4622
907.324	4569
907.441	4523
907.557	4329
907.674	4341
907.79	4344
907.907	4379
908.023	4497
908.139	4462
908.256	4421
908.372	4485
908.488	4459
908.604	4333
908.72	4341
908.836	4379
908.952	4360
909.068	4398
909.184	4599
909.3	4481
909.415	4550
909.531	4577
909.647	4363
909.762	4356
909.878	4344
909.993	4428
910.108	4398
910.224	4409
910.339	4489
910.454	4424
910.57	4352
910.685	4280
910.8	4618
910.915	4573
911.03	4512
911.145	4352
911.259	4329
911.374	4402
911.489	4265
911.604	4227
911.718	4192
911.833	4185
911.947	4086
912.062	4048
912.176	4230
912.291	4291
912.405	4291
912.519	4485
912.633	4489
912.748	4394
912.862	4337
912.976	4219
913.09	4105
913.204	4166
913.318	4299
913.431	4375
913.545	4352
913.659	4409
913.772	4333
913.886	4223
914	4211
914.113	4356
914.226	4504
914.34	4375
914.453	4253
914.566	4424
914.68	4314
914.793	4371
914.906	4158
915.019	4116
915.132	4090
915.245	4230
915.358	4204
915.47	4192
915.583	4246
915.696	4322
915.809	4421
915.921	4440
916.034	4329
916.146	4265
916.259	4230
916.371	4352
916.483	4375
916.595	4230
916.708	4310
916.82	4363
916.932	4325
917.044	4375
917.156	4333
917.268	4204
917.38	4268
917.491	4261
917.603	4375
917.715	4466
917.826	4493
917.938	4375
918.049	4284
918.161	4421
918.272	4592
918.384	4538
918.495	4432
918.606	4265
918.717	4257
918.828	4394
918.939	4356
919.05	4268
919.161	4333
919.272	4154
919.383	4192
919.494	4462
919.604	4641
919.715	4394
919.826	4341
919.936	4386
920.047	4527
920.157	4497
920.267	4691
920.378	4565
920.488	4508
920.598	4736
920.708	4839
920.818	4744
920.928	4828
921.038	4949
921.148	4915
921.258	4615
921.368	4523
921.477	4459
921.587	4478
921.697	4398
921.806	4588
921.916	4462
922.025	4253
922.134	4276
922.244	4207
922.353	4360
922.462	4200
922.571	4147
922.68	3968
922.789	4002
922.898	4048
923.007	3987
923.116	4112
923.224	4021
923.333	4093
923.442	4002
923.55	3960
923.659	4010
923.767	4131
923.876	3968
923.984	4116
924.092	4006
924.201	4071
924.309	4097
924.417	4082
924.525	4105
924.633	4131
924.741	5025
924.849	3922
924.956	4078
925.064	3960
925.172	3960
925.279	4002
925.387	4074
925.494	4029
925.602	4219
925.709	4158
925.816	4036
925.924	4169
926.031	4268
926.138	4192
926.245	4219
926.352	4147
926.459	4287
926.566	4295
926.673	4181
926.779	4105
926.886	4078
926.993	3991
927.099	3941
927.206	3907
927.312	3934
927.419	4059
927.525	4036
927.631	4078
927.737	3964
927.843	3956
927.95	3819
928.056	3987
928.162	4006
928.267	4067
928.373	4615
928.479	4082
928.585	3857
928.69	3994
928.796	4010
928.901	3930
929.007	3888
929.112	3979
929.218	3975
929.323	3937
929.428	3934
929.533	4097
929.638	3930
929.743	3907
929.848	4044
929.953	4013
930.058	3975
930.163	3770
930.267	3835
930.372	3930
930.477	3850
930.581	4086
930.685	3945
930.79	3823
930.894	3903
930.998	3896
931.103	4063
931.207	3713
931.311	3698
931.415	3633
931.519	3542
931.623	3542
