Data from test_V78500241_1045.txt Node
Date: Fri Mar 25 16:56:16 CST 2022
User: usil
Spectrometer: V785-0024
Trigger mode: 0
Integration Time (sec): 4.000000E-1
Scans to average: 1
Nonlinearity correction enabled: false
Boxcar width: 0
Storing dark spectrum: false
XAxis mode: Wavelengths
Number of Pixels in Spectrum: 1024
>>>>>Begin Spectral Data<<<<<
801.071	8084
801.214	8126
801.356	7959
801.499	7951
801.641	7788
801.783	7925
801.926	7906
802.068	7909
802.211	7955
802.353	8024
802.496	7845
802.638	7887
802.78	7936
802.923	7967
803.065	7906
803.208	7940
803.35	7997
803.492	8157
803.635	8202
803.777	8096
803.919	8157
804.061	8419
804.204	8183
804.346	8081
804.488	8024
804.63	8176
804.773	8058
804.915	8123
805.057	8328
805.199	8191
805.341	8195
805.483	8358
805.626	8214
805.768	8126
805.91	8191
806.052	8267
806.194	8100
806.336	8286
806.478	8119
806.62	8100
806.762	8164
806.904	8328
807.046	8450
807.188	8343
807.33	8320
807.472	8332
807.614	8149
807.756	8119
807.898	7989
808.04	7898
808.182	7898
808.324	7925
808.465	7887
808.607	8054
808.749	8062
808.891	8252
809.033	8366
809.174	8221
809.316	8058
809.458	8103
809.6	7993
809.741	8092
809.883	7963
810.025	8123
810.166	7993
810.308	8043
810.45	8054
810.591	7944
810.733	7776
810.875	7681
811.016	7563
811.158	7556
811.299	7582
811.441	7715
811.582	7674
811.724	7609
811.865	7556
812.007	7510
812.148	7643
812.29	7620
812.431	7769
812.573	7890
812.714	8016
812.855	8123
812.997	8221
813.138	8229
813.279	8153
813.421	8187
813.562	7982
813.703	7860
813.845	7788
813.986	7441
814.127	7369
814.268	7168
814.41	7187
814.551	7145
814.692	7175
814.833	7076
814.974	7080
815.115	7194
815.256	6981
815.397	6859
815.539	7042
815.68	6783
815.821	6791
815.962	6901
816.103	6818
816.244	6776
816.385	6612
816.526	6650
816.666	6437
816.807	6334
816.948	6452
817.089	6490
817.23	6486
817.371	6376
817.512	6395
817.653	6403
817.793	6441
817.934	6418
818.075	6498
818.216	6429
818.356	6429
818.497	6258
818.638	6140
818.778	6155
818.919	6194
819.06	6190
819.2	6353
819.341	6247
819.481	6414
819.622	6483
819.762	6719
819.903	6677
820.043	6574
820.184	6525
820.324	6570
820.465	6635
820.605	6749
820.746	6669
820.886	6490
821.026	6585
821.167	6722
821.307	6768
821.447	6741
821.588	6688
821.728	6608
821.868	6506
822.008	6357
822.149	6384
822.289	6342
822.429	6129
822.569	6007
822.709	6136
822.849	5916
822.99	5901
823.13	5950
823.27	5954
823.41	5798
823.55	5764
823.69	5809
823.83	5741
823.97	5703
824.11	5520
824.25	5463
824.389	5573
824.529	5570
824.669	5463
824.809	5634
824.949	5672
825.089	5611
825.228	5528
825.368	5421
825.508	5315
825.648	5395
825.787	5349
825.927	5383
826.067	5280
826.206	5307
826.346	5398
826.485	5444
826.625	5372
826.765	5554
826.904	5501
827.044	5189
827.183	5147
827.323	5143
827.462	5269
827.601	5193
827.741	5170
827.88	5189
828.02	5136
828.159	5242
828.298	5330
828.437	5345
828.577	5269
828.716	5474
828.855	5311
828.994	5193
829.134	5109
829.273	5212
829.412	5143
829.551	5105
829.69	5155
829.829	5235
829.968	5376
830.107	5269
830.246	5284
830.385	5170
830.524	5162
830.663	5037
830.802	4980
830.941	4942
831.08	4873
831.219	4999
831.357	4976
831.496	5140
831.635	4957
831.774	4816
831.913	4881
832.051	4717
832.19	4774
832.329	4824
832.467	4729
832.606	4645
832.744	4801
832.883	4778
833.022	4710
833.16	4767
833.299	4839
833.437	4786
833.576	4850
833.714	4828
833.852	4835
833.991	4911
834.129	4949
834.267	4984
834.406	4847
834.544	4991
834.682	4968
834.821	4987
834.959	5197
835.097	4987
835.235	5159
835.373	5090
835.511	5094
835.65	5060
835.788	5052
835.926	4889
836.064	4877
836.202	4991
836.34	5181
836.478	5216
836.615	5143
836.753	5239
836.891	5280
837.029	5269
837.167	5208
837.305	5193
837.443	5102
837.58	5105
837.718	5280
837.856	5220
837.993	5140
838.131	5250
838.269	5208
838.406	5231
838.544	5170
838.681	5071
838.819	4984
838.956	4862
839.094	4843
839.231	5014
839.369	5056
839.506	5391
839.643	5284
839.781	5033
839.918	5037
840.055	5098
840.193	5117
840.33	5113
840.467	5102
840.604	5185
840.742	5421
840.879	5045
841.016	5136
841.153	5193
841.29	5383
841.427	5307
841.564	5349
841.701	5353
841.838	5307
841.975	5246
842.112	5269
842.249	5162
842.385	5166
842.522	5364
842.659	5193
842.796	5170
842.933	5208
843.069	5166
843.206	5162
843.343	5372
843.479	5239
843.616	5311
843.752	4984
843.889	5022
844.025	5204
844.162	5037
844.298	5185
844.435	5067
844.571	5056
844.708	5178
844.844	5288
844.98	5303
845.117	5299
845.253	5174
845.389	5136
845.525	5136
845.661	5105
845.798	5060
845.934	5151
846.07	5048
846.206	5223
846.342	5296
846.478	5178
846.614	4987
846.75	4946
846.886	4961
847.022	5143
847.158	5003
847.294	5079
847.429	5090
847.565	5086
847.701	5326
847.837	4843
847.972	4805
848.108	4968
848.244	4968
848.379	4771
848.515	4759
848.65	4755
848.786	4759
848.921	4801
849.057	4881
849.192	4911
849.328	4831
849.463	4831
849.598	4771
849.734	4710
849.869	4706
850.004	4615
850.14	4660
850.275	4580
850.41	4519
850.545	4580
850.68	4599
850.815	4618
850.95	4637
851.085	4877
851.22	4755
851.355	4675
851.49	4607
851.625	4618
851.76	4649
851.895	4504
852.03	4516
852.165	4584
852.299	4736
852.434	4763
852.569	4710
852.703	4797
852.838	4850
852.973	4904
853.107	4900
853.242	4729
853.376	4683
853.511	4584
853.645	4615
853.78	4820
853.914	4721
854.048	4679
854.183	4653
854.317	4714
854.451	4839
854.585	4622
854.72	4641
854.854	4702
854.988	4607
855.122	4615
855.256	4558
855.39	4679
855.524	4733
855.658	4672
855.792	4691
855.926	4733
856.06	4721
856.194	4782
856.327	4717
856.461	4569
856.595	4607
856.729	4592
856.862	4698
856.996	4694
857.13	4729
857.263	4752
857.397	4793
857.53	4645
857.664	4714
857.797	4767
857.931	4771
858.064	4733
858.197	4759
858.331	4656
858.464	4611
858.597	4546
858.731	4611
858.864	4607
858.997	4637
859.13	4649
859.263	4687
859.396	4710
859.529	4573
859.662	4584
859.795	4596
859.928	4603
860.061	4820
860.194	4778
860.327	4554
860.46	4596
860.592	4687
860.725	4748
860.858	4763
860.99	4580
861.123	4523
861.256	4527
861.388	4622
861.521	5364
861.653	4443
861.786	4398
861.918	4462
862.05	4516
862.183	4569
862.315	4603
862.447	4679
862.58	4542
862.712	4333
862.844	4337
862.976	4451
863.108	4455
863.24	4885
863.372	4329
863.504	4447
863.636	4398
863.768	4459
863.9	4443
864.032	4405
864.164	4402
864.296	4481
864.428	4538
864.559	4599
864.691	4580
864.823	4538
864.954	4523
865.086	4451
865.217	4417
865.349	4379
865.48	4436
865.612	4500
865.743	4592
865.875	4478
866.006	4466
866.137	4470
866.269	4436
866.4	4474
866.531	4436
866.662	4432
866.793	4413
866.924	4451
867.055	4504
867.186	4424
867.317	4470
867.448	4322
867.579	4402
867.71	4363
867.841	4333
867.972	4443
868.103	4424
868.233	4440
868.364	4398
868.495	4481
868.625	4653
868.756	4771
868.886	4577
869.017	4584
869.147	4729
869.278	4782
869.408	4634
869.539	4603
869.669	4702
869.799	4672
869.929	4805
870.06	4714
870.19	4892
870.32	4896
870.45	4885
870.58	4995
870.71	5056
870.84	5056
870.97	4885
871.1	4908
871.23	5166
871.36	5086
871.489	5010
871.619	5048
871.749	5090
871.879	5121
872.008	5201
872.138	4972
872.267	4976
872.397	4870
872.526	4801
872.656	4691
872.785	4797
872.915	4942
873.044	5010
873.173	4953
873.303	4968
873.432	4949
873.561	4968
873.69	4824
873.819	4854
873.948	4900
874.077	4801
874.206	4752
874.335	4744
874.464	4873
874.593	5105
874.722	5018
874.851	5105
874.979	5067
875.108	5037
875.237	4930
875.365	4831
875.494	4866
875.623	4980
875.751	4793
875.88	4881
876.008	4953
876.136	5033
876.265	5155
876.393	5334
876.521	5212
876.65	5204
876.778	5090
876.906	5060
877.034	4972
877.162	4987
877.29	4923
877.418	5025
877.546	4999
877.674	4984
877.802	5029
877.93	5064
878.058	4911
878.185	4885
878.313	4923
878.441	4877
878.568	4797
878.696	4854
878.824	4923
878.951	4934
879.079	5166
879.206	5250
879.333	5086
879.461	4995
879.588	4984
879.715	5079
879.842	5204
879.97	5014
880.097	4790
880.224	4725
880.351	4793
880.478	4831
880.605	4771
880.732	4805
880.859	5075
880.986	4850
881.112	4870
881.239	4793
881.366	4626
881.493	4569
881.619	4607
881.746	4637
881.872	4592
881.999	4637
882.125	4630
882.252	4793
882.378	4767
882.505	4957
882.631	4839
882.757	4679
882.883	4725
883.01	4729
883.136	4668
883.262	4592
883.388	4588
883.514	4831
883.64	4908
883.766	4793
883.892	4649
884.018	4725
884.143	4885
884.269	5003
884.395	4618
884.52	4630
884.646	4649
884.772	4588
884.897	4611
885.023	4668
885.148	4767
885.274	4854
885.399	4816
885.524	4694
885.65	4634
885.775	4782
885.9	4721
886.025	4877
886.15	4828
886.275	4744
886.4	4675
886.525	4714
886.65	4710
886.775	4702
886.9	4908
887.025	5003
887.149	4805
887.274	4645
887.399	4577
887.523	4558
887.648	4588
887.773	4573
887.897	4778
888.021	4767
888.146	4664
888.27	4752
888.395	4923
888.519	4767
888.643	4786
888.767	4771
888.891	4687
889.015	4603
889.139	4588
889.263	4596
889.387	4740
889.511	4835
889.635	4793
889.759	4622
889.883	4603
890.006	4710
890.13	4816
890.254	4645
890.377	4679
890.501	4527
890.624	4550
890.748	4634
890.871	4516
890.995	4432
891.118	4383
891.241	4447
891.364	4519
891.488	4653
891.611	4493
891.734	4558
891.857	4573
891.98	4504
892.103	4615
892.226	4618
892.349	4519
892.471	4398
892.594	4512
892.717	4596
892.839	4550
892.962	4546
893.085	4641
893.207	4569
893.33	4455
893.452	4527
893.575	4656
893.697	4565
893.819	4771
893.941	4866
894.064	4733
894.186	4546
894.308	4588
894.43	4733
894.552	4786
894.674	4755
894.796	4558
894.918	4584
895.04	4611
895.161	4721
895.283	4698
895.405	4561
895.526	4550
895.648	4714
895.769	4725
895.891	4752
896.012	4717
896.134	4691
896.255	4694
896.376	4588
896.498	4626
896.619	4626
896.74	4611
896.861	4668
896.982	4904
897.103	5045
897.224	4820
897.345	4706
897.466	4645
897.587	4744
897.708	4862
897.828	4771
897.949	4596
898.07	4569
898.19	4649
898.311	4790
898.431	4645
898.552	4740
898.672	4839
898.792	4778
898.913	4725
899.033	4603
899.153	4500
899.273	4398
899.393	4489
899.513	4550
899.633	4535
899.753	4554
899.873	4523
899.993	4569
900.113	4550
900.232	4584
900.352	4523
900.472	4443
900.591	4424
900.711	4466
900.83	4451
900.95	4603
901.069	4668
901.189	4538
901.308	4325
901.427	4325
901.546	4344
901.665	4443
901.784	4516
901.904	4318
902.023	4333
902.141	4162
902.26	4162
902.379	4341
902.498	4185
902.617	4234
902.735	4371
902.854	4398
902.973	4383
903.091	4185
903.21	4227
903.328	4291
903.446	4272
903.565	4268
903.683	4367
903.801	4261
903.919	4390
904.038	4417
904.156	4280
904.274	4421
904.392	4379
904.51	4402
904.627	4443
904.745	4550
904.863	4603
904.981	4371
905.098	4322
905.216	4367
905.334	4398
905.451	4455
905.569	4436
905.686	4542
905.803	4561
905.921	4360
906.038	4519
906.155	4512
906.272	4363
906.389	4447
906.506	4371
906.623	4413
906.74	4371
906.857	4299
906.974	4337
907.091	4561
907.208	4637
907.324	4603
907.441	4519
907.557	4344
907.674	4341
907.79	4310
907.907	4379
908.023	4466
908.139	4440
908.256	4447
908.372	4421
908.488	4508
908.604	4314
908.72	4341
908.836	4386
908.952	4379
909.068	4405
909.184	4531
909.3	4489
909.415	4573
909.531	4516
909.647	4295
909.762	4356
909.878	4344
909.993	4390
910.108	4413
910.224	4390
910.339	4440
910.454	4383
910.57	4344
910.685	4272
910.8	4675
910.915	4516
911.03	4478
911.145	4344
911.259	4291
911.374	4325
911.489	4268
911.604	4242
911.718	4147
911.833	4219
911.947	4059
912.062	4002
912.176	4192
912.291	4234
912.405	4268
912.519	4462
912.633	4504
912.748	4295
912.862	4303
912.976	4181
913.09	4093
913.204	4196
913.318	4268
913.431	4329
913.545	4341
913.659	4436
913.772	4356
913.886	4242
914	4230
914.113	4443
914.226	4413
914.34	4344
914.453	4211
914.566	4443
914.68	4276
914.793	4329
914.906	4150
915.019	4135
915.132	4044
915.245	4188
915.358	4166
915.47	4211
915.583	4276
915.696	4280
915.809	4413
915.921	4421
916.034	4257
916.146	4291
916.259	4230
916.371	4402
916.483	4360
916.595	4200
916.708	4303
916.82	4303
916.932	4310
917.044	4318
917.156	4367
917.268	4207
917.38	4234
917.491	4265
917.603	4352
917.715	4375
917.826	4417
917.938	4333
918.049	4246
918.161	4344
918.272	4535
918.384	4470
918.495	4474
918.606	4348
918.717	4230
918.828	4367
918.939	4341
919.05	4238
919.161	4333
919.272	4147
919.383	4196
919.494	4417
919.604	4596
919.715	4470
919.826	4333
919.936	4379
920.047	4432
920.157	4462
920.267	4664
920.378	4504
920.488	4508
920.598	4706
920.708	4908
920.818	4771
920.928	4736
921.038	5018
921.148	4934
921.258	4603
921.368	4493
921.477	4497
921.587	4462
921.697	4344
921.806	4489
921.916	4413
922.025	4234
922.134	4276
922.244	4188
922.353	4363
922.462	4181
922.571	4124
922.68	3972
922.789	3994
922.898	4032
923.007	3983
923.116	4078
923.224	4029
923.333	4074
923.442	3998
923.55	3964
923.659	4040
923.767	4055
923.876	4002
923.984	4097
924.092	3987
924.201	4036
924.309	4021
924.417	4128
924.525	4048
924.633	4116
924.741	5041
924.849	3930
924.956	4093
925.064	3934
925.172	3869
925.279	3941
925.387	4059
925.494	4071
925.602	4227
925.709	4169
925.816	4002
925.924	4082
926.031	4227
926.138	4112
926.245	4192
926.352	4074
926.459	4230
926.566	4318
926.673	4150
926.779	4071
926.886	4078
926.993	3956
927.099	3960
927.206	3945
927.312	3941
927.419	4051
927.525	4010
927.631	4071
927.737	3956
927.843	3869
927.95	3816
928.056	3998
928.162	3930
928.267	4006
928.373	4649
928.479	4143
928.585	3869
928.69	4025
928.796	4051
928.901	3964
929.007	3838
929.112	4002
929.218	3968
929.323	3964
929.428	3937
929.533	4071
929.638	3915
929.743	3979
929.848	4071
929.953	3975
930.058	3899
930.163	3717
930.267	3812
930.372	3953
930.477	3838
930.581	4086
930.685	3930
930.79	3819
930.894	3857
930.998	3873
931.103	3964
931.207	3709
931.311	3671
931.415	3663
931.519	3477
931.623	3500
