Data from test_V78500241_1762.txt Node
Date: Fri Mar 25 17:01:15 CST 2022
User: usil
Spectrometer: V785-0024
Trigger mode: 0
Integration Time (sec): 4.000000E-1
Scans to average: 1
Nonlinearity correction enabled: false
Boxcar width: 0
Storing dark spectrum: false
XAxis mode: Wavelengths
Number of Pixels in Spectrum: 1024
>>>>>Begin Spectral Data<<<<<
801.071	7982
801.214	7982
801.356	7837
801.499	7849
801.641	7776
801.783	7864
801.926	7963
802.068	7970
802.211	8005
802.353	8001
802.496	7792
802.638	7852
802.78	7860
802.923	7860
803.065	7845
803.208	7814
803.35	8001
803.492	8058
803.635	8134
803.777	8024
803.919	8134
804.061	8473
804.204	8168
804.346	7993
804.488	7997
804.63	8039
804.773	7993
804.915	8107
805.057	8328
805.199	8161
805.341	8187
805.483	8263
805.626	8119
805.768	8100
805.91	8157
806.052	8229
806.194	8119
806.336	8290
806.478	8103
806.62	8077
806.762	8157
806.904	8282
807.046	8415
807.188	8320
807.33	8286
807.472	8305
807.614	8126
807.756	8248
807.898	8027
808.04	7883
808.182	7860
808.324	7921
808.465	7871
808.607	8035
808.749	8126
808.891	8134
809.033	8172
809.174	8271
809.316	8062
809.458	8046
809.6	8054
809.741	8100
809.883	7978
810.025	8092
810.166	8100
810.308	8027
810.45	8046
810.591	7849
810.733	7681
810.875	7636
811.016	7544
811.158	7521
811.299	7575
811.441	7746
811.582	7719
811.724	7578
811.865	7464
812.007	7582
812.148	7620
812.29	7658
812.431	7818
812.573	7868
812.714	7955
812.855	8172
812.997	8248
813.138	8294
813.279	8130
813.421	8100
813.562	7917
813.703	7826
813.845	7658
813.986	7392
814.127	7263
814.268	7217
814.41	7206
814.551	7247
814.692	7255
814.833	7187
814.974	7042
815.115	7145
815.256	6962
815.397	6920
815.539	6916
815.68	6856
815.821	6772
815.962	6878
816.103	6848
816.244	6726
816.385	6597
816.526	6589
816.666	6471
816.807	6281
816.948	6418
817.089	6429
817.23	6384
817.371	6350
817.512	6346
817.653	6407
817.793	6380
817.934	6388
818.075	6479
818.216	6456
818.356	6407
818.497	6319
818.638	6121
818.778	6125
818.919	6144
819.06	6163
819.2	6292
819.341	6311
819.481	6384
819.622	6532
819.762	6787
819.903	6665
820.043	6608
820.184	6597
820.324	6574
820.465	6707
820.605	6692
820.746	6692
820.886	6502
821.026	6665
821.167	6677
821.307	6791
821.447	6757
821.588	6635
821.728	6601
821.868	6506
822.008	6391
822.149	6372
822.289	6338
822.429	6194
822.569	6087
822.709	6072
822.849	5969
822.99	5889
823.13	5935
823.27	5931
823.41	5752
823.55	5805
823.69	5707
823.83	5786
823.97	5684
824.11	5566
824.25	5532
824.389	5547
824.529	5535
824.669	5486
824.809	5589
824.949	5714
825.089	5615
825.228	5577
825.368	5417
825.508	5341
825.648	5334
825.787	5353
825.927	5311
826.067	5315
826.206	5296
826.346	5337
826.485	5395
826.625	5406
826.765	5532
826.904	5501
827.044	5273
827.183	5140
827.323	5128
827.462	5223
827.601	5189
827.741	5121
827.88	5212
828.02	5094
828.159	5231
828.298	5235
828.437	5322
828.577	5261
828.716	5528
828.855	5330
828.994	5193
829.134	5105
829.273	5166
829.412	5151
829.551	5132
829.69	5136
829.829	5227
829.968	5357
830.107	5296
830.246	5307
830.385	5117
830.524	5086
830.663	5117
830.802	4987
830.941	4892
831.08	4854
831.219	4999
831.357	4976
831.496	5162
831.635	4938
831.774	4828
831.913	4831
832.051	4717
832.19	4767
832.329	4831
832.467	4668
832.606	4641
832.744	4675
832.883	4691
833.022	4717
833.16	4778
833.299	4858
833.437	4809
833.576	4828
833.714	4824
833.852	4835
833.991	4805
834.129	4934
834.267	4980
834.406	4900
834.544	4961
834.682	4968
834.821	4961
834.959	5143
835.097	4999
835.235	5105
835.373	5041
835.511	5132
835.65	4999
835.788	5079
835.926	4896
836.064	4873
836.202	4900
836.34	5143
836.478	5193
836.615	5136
836.753	5155
836.891	5318
837.029	5250
837.167	5204
837.305	5117
837.443	5117
837.58	5079
837.718	5250
837.856	5181
837.993	5124
838.131	5170
838.269	5197
838.406	5204
838.544	5166
838.681	5014
838.819	5029
838.956	4854
839.094	4927
839.231	4961
839.369	5075
839.506	5429
839.643	5235
839.781	5003
839.918	5014
840.055	5079
840.193	5090
840.33	5102
840.467	5098
840.604	5185
840.742	5387
840.879	5060
841.016	5136
841.153	5132
841.29	5383
841.427	5357
841.564	5330
841.701	5341
841.838	5273
841.975	5216
842.112	5277
842.249	5102
842.385	5048
842.522	5357
842.659	5185
842.796	5151
842.933	5178
843.069	5113
843.206	5181
843.343	5341
843.479	5261
843.616	5201
843.752	4976
843.889	4976
844.025	5250
844.162	4987
844.298	5223
844.435	5083
844.571	5071
844.708	5242
844.844	5273
844.98	5334
845.117	5246
845.253	5102
845.389	5071
845.525	5117
845.661	5132
845.798	5014
845.934	5143
846.07	4987
846.206	5174
846.342	5296
846.478	5162
846.614	5071
846.75	4972
846.886	4961
847.022	5155
847.158	4999
847.294	5056
847.429	5071
847.565	5075
847.701	5334
847.837	4862
847.972	4778
848.108	4946
848.244	4919
848.379	4736
848.515	4767
848.65	4725
848.786	4714
848.921	4744
849.057	4866
849.192	4889
849.328	4763
849.463	4820
849.598	4752
849.734	4717
849.869	4710
850.004	4668
850.14	4634
850.275	4618
850.41	4531
850.545	4573
850.68	4592
850.815	4588
850.95	4615
851.085	4793
851.22	4767
851.355	4653
851.49	4641
851.625	4611
851.76	4641
851.895	4527
852.03	4542
852.165	4672
852.299	4721
852.434	4774
852.569	4801
852.703	4767
852.838	4812
852.973	4904
853.107	4911
853.242	4763
853.376	4634
853.511	4542
853.645	4637
853.78	4786
853.914	4675
854.048	4649
854.183	4615
854.317	4664
854.451	4774
854.585	4653
854.72	4641
854.854	4748
854.988	4596
855.122	4634
855.256	4493
855.39	4618
855.524	4809
855.658	4706
855.792	4717
855.926	4740
856.06	4759
856.194	4763
856.327	4683
856.461	4626
856.595	4626
856.729	4634
856.862	4714
856.996	4694
857.13	4744
857.263	4778
857.397	4824
857.53	4577
857.664	4691
857.797	4774
857.931	4763
858.064	4694
858.197	4733
858.331	4687
858.464	4599
858.597	4519
858.731	4607
858.864	4694
858.997	4580
859.13	4668
859.263	4649
859.396	4668
859.529	4554
859.662	4531
859.795	4527
859.928	4607
860.061	4744
860.194	4748
860.327	4573
860.46	4512
860.592	4691
860.725	4748
860.858	4691
860.99	4592
861.123	4489
861.256	4500
861.388	4596
861.521	5284
861.653	4493
861.786	4405
861.918	4470
862.05	4489
862.183	4538
862.315	4596
862.447	4622
862.58	4531
862.712	4390
862.844	4337
862.976	4497
863.108	4379
863.24	4919
863.372	4322
863.504	4386
863.636	4394
863.768	4478
863.9	4402
864.032	4337
864.164	4402
864.296	4462
864.428	4531
864.559	4558
864.691	4550
864.823	4500
864.954	4493
865.086	4504
865.217	4485
865.349	4459
865.48	4451
865.612	4455
865.743	4649
865.875	4470
866.006	4398
866.137	4402
866.269	4402
866.4	4417
866.531	4424
866.662	4367
866.793	4417
866.924	4386
867.055	4470
867.186	4398
867.317	4386
867.448	4371
867.579	4421
867.71	4383
867.841	4375
867.972	4470
868.103	4436
868.233	4466
868.364	4470
868.495	4481
868.625	4626
868.756	4733
868.886	4531
869.017	4615
869.147	4759
869.278	4782
869.408	4664
869.539	4656
869.669	4706
869.799	4622
869.929	4767
870.06	4725
870.19	4938
870.32	4915
870.45	4919
870.58	5037
870.71	5045
870.84	5052
870.97	4930
871.1	4911
871.23	5124
871.36	5121
871.489	5006
871.619	5045
871.749	5090
871.879	5136
872.008	5201
872.138	5037
872.267	4953
872.397	4831
872.526	4831
872.656	4733
872.785	4778
872.915	4938
873.044	5048
873.173	4915
873.303	4923
873.432	4908
873.561	4949
873.69	4843
873.819	4850
873.948	4900
874.077	4828
874.206	4774
874.335	4809
874.464	4915
874.593	5056
874.722	4953
874.851	5067
874.979	5056
875.108	5018
875.237	4904
875.365	4892
875.494	4889
875.623	4980
875.751	4793
875.88	4923
876.008	4946
876.136	5022
876.265	5178
876.393	5334
876.521	5235
876.65	5227
876.778	5220
876.906	5113
877.034	5056
877.162	5060
877.29	4923
877.418	5048
877.546	5025
877.674	5041
877.802	5014
877.93	4976
878.058	4889
878.185	4889
878.313	5041
878.441	4976
878.568	4771
878.696	4850
878.824	4999
878.951	5014
879.079	5132
879.206	5334
879.333	5132
879.461	4972
879.588	5010
879.715	5098
879.842	5261
879.97	5041
880.097	4771
880.224	4706
880.351	4736
880.478	4816
880.605	4797
880.732	4767
880.859	5098
880.986	4919
881.112	4885
881.239	4759
881.366	4656
881.493	4611
881.619	4592
881.746	4596
881.872	4637
881.999	4637
882.125	4687
882.252	4740
882.378	4850
882.505	4987
882.631	4767
882.757	4698
882.883	4729
883.01	4717
883.136	4641
883.262	4622
883.388	4637
883.514	4828
883.64	4866
883.766	4809
883.892	4679
884.018	4706
884.143	4946
884.269	5022
884.395	4702
884.52	4615
884.646	4634
884.772	4573
884.897	4497
885.023	4691
885.148	4797
885.274	4847
885.399	4797
885.524	4714
885.65	4702
885.775	4687
885.9	4691
886.025	4816
886.15	4824
886.275	4759
886.4	4706
886.525	4721
886.65	4634
886.775	4675
886.9	4854
887.025	5029
887.149	4824
887.274	4656
887.399	4592
887.523	4641
887.648	4573
887.773	4584
887.897	4763
888.021	4740
888.146	4679
888.27	4812
888.395	4896
888.519	4759
888.643	4767
888.767	4839
888.891	4691
889.015	4630
889.139	4618
889.263	4550
889.387	4786
889.511	4843
889.635	4801
889.759	4637
889.883	4634
890.006	4679
890.13	4801
890.254	4569
890.377	4694
890.501	4527
890.624	4512
890.748	4641
890.871	4481
890.995	4459
891.118	4398
891.241	4512
891.364	4516
891.488	4630
891.611	4500
891.734	4531
891.857	4618
891.98	4497
892.103	4607
892.226	4561
892.349	4523
892.471	4417
892.594	4512
892.717	4577
892.839	4596
892.962	4550
893.085	4618
893.207	4565
893.33	4459
893.452	4504
893.575	4668
893.697	4546
893.819	4740
893.941	4873
894.064	4744
894.186	4569
894.308	4588
894.43	4687
894.552	4797
894.674	4778
894.796	4599
894.918	4615
895.04	4596
895.161	4683
895.283	4641
895.405	4550
895.526	4615
895.648	4656
895.769	4664
895.891	4649
896.012	4752
896.134	4736
896.255	4664
896.376	4626
896.498	4599
896.619	4691
896.74	4611
896.861	4637
896.982	4934
897.103	5064
897.224	4831
897.345	4744
897.466	4660
897.587	4805
897.708	4911
897.828	4774
897.949	4653
898.07	4569
898.19	4580
898.311	4824
898.431	4706
898.552	4721
898.672	4816
898.792	4771
898.913	4702
899.033	4687
899.153	4504
899.273	4443
899.393	4493
899.513	4527
899.633	4527
899.753	4558
899.873	4550
899.993	4588
900.113	4561
900.232	4592
900.352	4558
900.472	4474
900.591	4367
900.711	4527
900.83	4367
900.95	4615
901.069	4721
901.189	4527
901.308	4341
901.427	4352
901.546	4352
901.665	4451
901.784	4542
901.904	4379
902.023	4325
902.141	4196
902.26	4139
902.379	4329
902.498	4219
902.617	4230
902.735	4375
902.854	4360
902.973	4337
903.091	4215
903.21	4242
903.328	4318
903.446	4234
903.565	4272
903.683	4314
903.801	4291
903.919	4424
904.038	4436
904.156	4322
904.274	4428
904.392	4421
904.51	4447
904.627	4485
904.745	4561
904.863	4660
904.981	4390
905.098	4314
905.216	4337
905.334	4413
905.451	4417
905.569	4432
905.686	4558
905.803	4527
905.921	4383
906.038	4531
906.155	4489
906.272	4394
906.389	4424
906.506	4329
906.623	4405
906.74	4390
906.857	4272
906.974	4394
907.091	4615
907.208	4672
907.324	4577
907.441	4485
907.557	4348
907.674	4322
907.79	4325
907.907	4405
908.023	4493
908.139	4432
908.256	4417
908.372	4474
908.488	4481
908.604	4367
908.72	4310
908.836	4367
908.952	4356
909.068	4428
909.184	4531
909.3	4504
909.415	4565
909.531	4546
909.647	4348
909.762	4390
909.878	4344
909.993	4436
910.108	4447
910.224	4436
910.339	4462
910.454	4367
910.57	4360
910.685	4325
910.8	4649
910.915	4584
911.03	4527
911.145	4314
911.259	4371
911.374	4383
911.489	4265
911.604	4295
911.718	4169
911.833	4181
911.947	4078
912.062	4006
912.176	4211
912.291	4230
912.405	4238
912.519	4478
912.633	4497
912.748	4360
912.862	4280
912.976	4204
913.09	4097
913.204	4246
913.318	4249
913.431	4356
913.545	4390
913.659	4386
913.772	4356
913.886	4242
914	4265
914.113	4383
914.226	4428
914.34	4375
914.453	4253
914.566	4428
914.68	4329
914.793	4306
914.906	4124
915.019	4082
915.132	4093
915.245	4166
915.358	4185
915.47	4215
915.583	4265
915.696	4299
915.809	4451
915.921	4428
916.034	4276
916.146	4268
916.259	4211
916.371	4363
916.483	4390
916.595	4265
916.708	4348
916.82	4363
916.932	4341
917.044	4303
917.156	4276
917.268	4261
917.38	4287
917.491	4265
917.603	4333
917.715	4417
917.826	4421
917.938	4394
918.049	4268
918.161	4424
918.272	4527
918.384	4550
918.495	4428
918.606	4280
918.717	4223
918.828	4341
918.939	4348
919.05	4268
919.161	4329
919.272	4166
919.383	4192
919.494	4451
919.604	4588
919.715	4443
919.826	4371
919.936	4375
920.047	4523
920.157	4466
920.267	4687
920.378	4546
920.488	4546
920.598	4679
920.708	4854
920.818	4752
920.928	4767
921.038	4972
921.148	4919
921.258	4607
921.368	4535
921.477	4489
921.587	4424
921.697	4363
921.806	4584
921.916	4421
922.025	4284
922.134	4246
922.244	4204
922.353	4325
922.462	4166
922.571	4158
922.68	4013
922.789	3968
922.898	4025
923.007	4032
923.116	4093
923.224	4017
923.333	4048
923.442	3979
923.55	3994
923.659	4093
923.767	4120
923.876	4002
923.984	4120
924.092	4017
924.201	4090
924.309	4074
924.417	4101
924.525	4093
924.633	4090
924.741	5052
924.849	3911
924.956	4143
925.064	3953
925.172	3930
925.279	3945
925.387	4074
925.494	4044
925.602	4185
925.709	4169
925.816	4040
925.924	4162
926.031	4169
926.138	4143
926.245	4211
926.352	4131
926.459	4238
926.566	4295
926.673	4097
926.779	4025
926.886	4124
926.993	3983
927.099	3899
927.206	3911
927.312	3972
927.419	4063
927.525	4048
927.631	4090
927.737	3937
927.843	3956
927.95	3827
928.056	3953
928.162	4002
928.267	4036
928.373	4615
928.479	4120
928.585	3915
928.69	4006
928.796	4021
928.901	3972
929.007	3869
929.112	4017
929.218	3960
929.323	3930
929.428	3987
929.533	4086
929.638	3922
929.743	3949
929.848	3998
929.953	4006
930.058	3918
930.163	3778
930.267	3819
930.372	3968
930.477	3827
930.581	4105
930.685	3964
930.79	3854
930.894	3880
930.998	3854
931.103	4044
931.207	3743
931.311	3724
931.415	3671
931.519	3481
931.623	3545
