Data from test_V78500241_1449.txt Node
Date: Fri Mar 25 16:59:04 CST 2022
User: usil
Spectrometer: V785-0024
Trigger mode: 0
Integration Time (sec): 4.000000E-1
Scans to average: 1
Nonlinearity correction enabled: false
Boxcar width: 0
Storing dark spectrum: false
XAxis mode: Wavelengths
Number of Pixels in Spectrum: 1024
>>>>>Begin Spectral Data<<<<<
801.071	8012
801.214	8031
801.356	7864
801.499	7757
801.641	7822
801.783	7750
801.926	7894
802.068	7997
802.211	8039
802.353	8001
802.496	7803
802.638	7928
802.78	7852
802.923	7898
803.065	7890
803.208	7849
803.35	7997
803.492	8043
803.635	8111
803.777	8035
803.919	8103
804.061	8480
804.204	8237
804.346	8103
804.488	7928
804.63	8103
804.773	8054
804.915	8081
805.057	8233
805.199	8115
805.341	8187
805.483	8256
805.626	8214
805.768	8119
805.91	8221
806.052	8229
806.194	8161
806.336	8256
806.478	8073
806.62	8016
806.762	8100
806.904	8267
807.046	8495
807.188	8385
807.33	8309
807.472	8259
807.614	8225
807.756	8164
807.898	7986
808.04	7894
808.182	7852
808.324	7890
808.465	7955
808.607	8111
808.749	8054
808.891	8221
809.033	8298
809.174	8180
809.316	8031
809.458	8039
809.6	8020
809.741	8027
809.883	8008
810.025	8027
810.166	8050
810.308	8039
810.45	8027
810.591	7902
810.733	7727
810.875	7689
811.016	7533
811.158	7476
811.299	7567
811.441	7734
811.582	7658
811.724	7540
811.865	7506
812.007	7559
812.148	7571
812.29	7670
812.431	7772
812.573	7898
812.714	7993
812.855	8157
812.997	8214
813.138	8328
813.279	8229
813.421	8103
813.562	8027
813.703	7818
813.845	7719
813.986	7388
814.127	7263
814.268	7206
814.41	7217
814.551	7194
814.692	7194
814.833	7122
814.974	7110
815.115	7057
815.256	6989
815.397	6913
815.539	6932
815.68	6825
815.821	6795
815.962	6787
816.103	6871
816.244	6734
816.385	6593
816.526	6582
816.666	6513
816.807	6292
816.948	6384
817.089	6483
817.23	6395
817.371	6369
817.512	6365
817.653	6361
817.793	6334
817.934	6418
818.075	6486
818.216	6388
818.356	6388
818.497	6251
818.638	6083
818.778	6091
818.919	6091
819.06	6144
819.2	6365
819.341	6342
819.481	6338
819.622	6536
819.762	6700
819.903	6669
820.043	6608
820.184	6555
820.324	6525
820.465	6719
820.605	6665
820.746	6669
820.886	6502
821.026	6642
821.167	6654
821.307	6833
821.447	6741
821.588	6764
821.728	6544
821.868	6448
822.008	6384
822.149	6365
822.289	6334
822.429	6133
822.569	6076
822.709	6136
822.849	5927
822.99	5866
823.13	5939
823.27	5851
823.41	5847
823.55	5771
823.69	5767
823.83	5783
823.97	5653
824.11	5543
824.25	5448
824.389	5554
824.529	5585
824.669	5573
824.809	5642
824.949	5611
825.089	5661
825.228	5535
825.368	5421
825.508	5334
825.648	5334
825.787	5383
825.927	5353
826.067	5277
826.206	5235
826.346	5360
826.485	5421
826.625	5364
826.765	5547
826.904	5474
827.044	5193
827.183	5185
827.323	5098
827.462	5204
827.601	5143
827.741	5170
827.88	5246
828.02	5098
828.159	5216
828.298	5326
828.437	5334
828.577	5231
828.716	5414
828.855	5303
828.994	5105
829.134	5174
829.273	5155
829.412	5090
829.551	5140
829.69	5140
829.829	5277
829.968	5383
830.107	5284
830.246	5292
830.385	5151
830.524	5121
830.663	5067
830.802	4923
830.941	4839
831.08	4877
831.219	4930
831.357	4915
831.496	5136
831.635	4877
831.774	4885
831.913	4820
832.051	4755
832.19	4763
832.329	4793
832.467	4717
832.606	4569
832.744	4698
832.883	4736
833.022	4664
833.16	4725
833.299	4816
833.437	4793
833.576	4828
833.714	4831
833.852	4820
833.991	4828
834.129	4957
834.267	4881
834.406	4927
834.544	4965
834.682	4942
834.821	4946
834.959	5155
835.097	4972
835.235	5166
835.373	5052
835.511	5128
835.65	5098
835.788	4995
835.926	4919
836.064	4866
836.202	4850
836.34	5223
836.478	5220
836.615	5079
836.753	5223
836.891	5280
837.029	5231
837.167	5181
837.305	5064
837.443	5143
837.58	5064
837.718	5277
837.856	5147
837.993	5136
838.131	5181
838.269	5170
838.406	5220
838.544	5155
838.681	5041
838.819	4991
838.956	4850
839.094	4866
839.231	4938
839.369	5086
839.506	5425
839.643	5235
839.781	5098
839.918	4949
840.055	5113
840.193	5056
840.33	5117
840.467	5178
840.604	5181
840.742	5471
840.879	5090
841.016	5105
841.153	5132
841.29	5406
841.427	5288
841.564	5296
841.701	5273
841.838	5223
841.975	5212
842.112	5273
842.249	5094
842.385	5159
842.522	5372
842.659	5121
842.796	5151
842.933	5212
843.069	5132
843.206	5159
843.343	5307
843.479	5265
843.616	5296
843.752	5056
843.889	4972
844.025	5212
844.162	4976
844.298	5223
844.435	5090
844.571	5014
844.708	5185
844.844	5269
844.98	5307
845.117	5258
845.253	5098
845.389	5056
845.525	5143
845.661	5132
845.798	4995
845.934	5155
846.07	5086
846.206	5166
846.342	5299
846.478	5151
846.614	4995
846.75	4949
846.886	4965
847.022	5159
847.158	4984
847.294	5037
847.429	5029
847.565	5033
847.701	5296
847.837	4816
847.972	4820
848.108	4968
848.244	4953
848.379	4793
848.515	4679
848.65	4691
848.786	4748
848.921	4771
849.057	4816
849.192	4843
849.328	4835
849.463	4801
849.598	4744
849.734	4740
849.869	4721
850.004	4607
850.14	4641
850.275	4588
850.41	4508
850.545	4603
850.68	4538
850.815	4603
850.95	4630
851.085	4847
851.22	4698
851.355	4668
851.49	4622
851.625	4615
851.76	4656
851.895	4550
852.03	4561
852.165	4668
852.299	4702
852.434	4778
852.569	4748
852.703	4755
852.838	4820
852.973	4904
853.107	4885
853.242	4698
853.376	4660
853.511	4561
853.645	4615
853.78	4824
853.914	4675
854.048	4668
854.183	4653
854.317	4645
854.451	4854
854.585	4672
854.72	4592
854.854	4771
854.988	4573
855.122	4641
855.256	4519
855.39	4698
855.524	4805
855.658	4725
855.792	4710
855.926	4679
856.06	4778
856.194	4771
856.327	4649
856.461	4584
856.595	4592
856.729	4599
856.862	4733
856.996	4649
857.13	4710
857.263	4763
857.397	4805
857.53	4626
857.664	4710
857.797	4767
857.931	4828
858.064	4679
858.197	4683
858.331	4603
858.464	4626
858.597	4519
858.731	4630
858.864	4637
858.997	4554
859.13	4668
859.263	4641
859.396	4645
859.529	4554
859.662	4546
859.795	4519
859.928	4603
860.061	4744
860.194	4820
860.327	4611
860.46	4569
860.592	4725
860.725	4694
860.858	4683
860.99	4554
861.123	4493
861.256	4489
861.388	4615
861.521	5398
861.653	4485
861.786	4436
861.918	4455
862.05	4519
862.183	4550
862.315	4618
862.447	4615
862.58	4535
862.712	4363
862.844	4333
862.976	4451
863.108	4470
863.24	4729
863.372	4322
863.504	4424
863.636	4383
863.768	4481
863.9	4417
864.032	4379
864.164	4352
864.296	4489
864.428	4550
864.559	4558
864.691	4489
864.823	4504
864.954	4474
865.086	4516
865.217	4474
865.349	4367
865.48	4485
865.612	4478
865.743	4599
865.875	4516
866.006	4405
866.137	4489
866.269	4447
866.4	4386
866.531	4356
866.662	4402
866.793	4440
866.924	4409
867.055	4466
867.186	4466
867.317	4398
867.448	4352
867.579	4379
867.71	4432
867.841	4344
867.972	4432
868.103	4409
868.233	4428
868.364	4440
868.495	4489
868.625	4675
868.756	4656
868.886	4504
869.017	4615
869.147	4782
869.278	4782
869.408	4668
869.539	4660
869.669	4660
869.799	4691
869.929	4729
870.06	4729
870.19	4938
870.32	4919
870.45	4885
870.58	4995
870.71	5086
870.84	5124
870.97	4934
871.1	4915
871.23	5109
871.36	5079
871.489	5014
871.619	5075
871.749	5117
871.879	5132
872.008	5170
872.138	5022
872.267	4923
872.397	4850
872.526	4797
872.656	4714
872.785	4824
872.915	4961
873.044	5014
873.173	4949
873.303	4900
873.432	4938
873.561	4961
873.69	4889
873.819	4778
873.948	4927
874.077	4801
874.206	4786
874.335	4755
874.464	4850
874.593	5048
874.722	4934
874.851	5037
874.979	5037
875.108	5060
875.237	4934
875.365	4873
875.494	4949
875.623	4976
875.751	4820
875.88	4892
876.008	5022
876.136	5060
876.265	5159
876.393	5322
876.521	5261
876.65	5223
876.778	5140
876.906	5045
877.034	5006
877.162	5041
877.29	4995
877.418	5056
877.546	4984
877.674	5025
877.802	4972
877.93	4984
878.058	4957
878.185	4862
878.313	4968
878.441	4915
878.568	4801
878.696	4900
878.824	4908
878.951	5037
879.079	5098
879.206	5273
879.333	5083
879.461	4957
879.588	5052
879.715	5151
879.842	5231
879.97	4987
880.097	4797
880.224	4763
880.351	4812
880.478	4767
880.605	4820
880.732	4801
880.859	5048
880.986	4892
881.112	4866
881.239	4786
881.366	4694
881.493	4618
881.619	4577
881.746	4634
881.872	4645
881.999	4641
882.125	4664
882.252	4786
882.378	4824
882.505	4911
882.631	4820
882.757	4672
882.883	4733
883.01	4702
883.136	4653
883.262	4580
883.388	4599
883.514	4843
883.64	4850
883.766	4797
883.892	4672
884.018	4748
884.143	4900
884.269	4999
884.395	4630
884.52	4611
884.646	4645
884.772	4603
884.897	4558
885.023	4641
885.148	4733
885.274	4835
885.399	4759
885.524	4721
885.65	4748
885.775	4740
885.9	4714
886.025	4820
886.15	4755
886.275	4698
886.4	4664
886.525	4691
886.65	4653
886.775	4672
886.9	4930
887.025	5025
887.149	4790
887.274	4649
887.399	4538
887.523	4626
887.648	4542
887.773	4592
887.897	4763
888.021	4778
888.146	4691
888.27	4812
888.395	4915
888.519	4831
888.643	4816
888.767	4824
888.891	4607
889.015	4596
889.139	4649
889.263	4618
889.387	4763
889.511	4816
889.635	4759
889.759	4637
889.883	4656
890.006	4748
890.13	4843
890.254	4603
890.377	4634
890.501	4550
890.624	4500
890.748	4637
890.871	4474
890.995	4462
891.118	4379
891.241	4481
891.364	4519
891.488	4645
891.611	4436
891.734	4580
891.857	4550
891.98	4512
892.103	4645
892.226	4546
892.349	4508
892.471	4394
892.594	4580
892.717	4634
892.839	4573
892.962	4607
893.085	4656
893.207	4577
893.33	4485
893.452	4497
893.575	4702
893.697	4569
893.819	4774
893.941	4809
894.064	4736
894.186	4599
894.308	4584
894.43	4706
894.552	4809
894.674	4759
894.796	4580
894.918	4622
895.04	4588
895.161	4740
895.283	4618
895.405	4538
895.526	4599
895.648	4702
895.769	4672
895.891	4637
896.012	4729
896.134	4721
896.255	4649
896.376	4653
896.498	4634
896.619	4626
896.74	4580
896.861	4599
896.982	4938
897.103	5064
897.224	4774
897.345	4729
897.466	4592
897.587	4683
897.708	4850
897.828	4771
897.949	4653
898.07	4569
898.19	4672
898.311	4850
898.431	4664
898.552	4752
898.672	4755
898.792	4767
898.913	4702
899.033	4599
899.153	4497
899.273	4409
899.393	4485
899.513	4535
899.633	4519
899.753	4611
899.873	4535
899.993	4546
900.113	4538
900.232	4588
900.352	4500
900.472	4485
900.591	4329
900.711	4462
900.83	4436
900.95	4603
901.069	4653
901.189	4554
901.308	4356
901.427	4363
901.546	4360
901.665	4421
901.784	4512
901.904	4379
902.023	4303
902.141	4200
902.26	4200
902.379	4276
902.498	4185
902.617	4234
902.735	4367
902.854	4390
902.973	4371
903.091	4215
903.21	4227
903.328	4268
903.446	4280
903.565	4246
903.683	4344
903.801	4268
903.919	4367
904.038	4428
904.156	4322
904.274	4462
904.392	4409
904.51	4413
904.627	4481
904.745	4596
904.863	4653
904.981	4352
905.098	4299
905.216	4310
905.334	4398
905.451	4413
905.569	4436
905.686	4538
905.803	4489
905.921	4447
906.038	4573
906.155	4478
906.272	4383
906.389	4428
906.506	4306
906.623	4383
906.74	4367
906.857	4341
906.974	4356
907.091	4558
907.208	4641
907.324	4580
907.441	4497
907.557	4360
907.674	4322
907.79	4306
907.907	4348
908.023	4500
908.139	4455
908.256	4470
908.372	4493
908.488	4455
908.604	4352
908.72	4322
908.836	4402
908.952	4390
909.068	4432
909.184	4573
909.3	4493
909.415	4622
909.531	4554
909.647	4371
909.762	4322
909.878	4352
909.993	4459
910.108	4383
910.224	4421
910.339	4485
910.454	4394
910.57	4341
910.685	4318
910.8	4675
910.915	4584
911.03	4451
911.145	4337
911.259	4322
911.374	4371
911.489	4299
911.604	4249
911.718	4166
911.833	4257
911.947	4078
912.062	3972
912.176	4200
912.291	4242
912.405	4310
912.519	4489
912.633	4504
912.748	4363
912.862	4287
912.976	4162
913.09	4101
913.204	4188
913.318	4234
913.431	4314
913.545	4371
913.659	4402
913.772	4325
913.886	4230
914	4181
914.113	4329
914.226	4375
914.34	4413
914.453	4280
914.566	4390
914.68	4295
914.793	4272
914.906	4154
915.019	4124
915.132	4078
915.245	4204
915.358	4204
915.47	4204
915.583	4322
915.696	4295
915.809	4447
915.921	4417
916.034	4268
916.146	4242
916.259	4246
916.371	4390
916.483	4367
916.595	4238
916.708	4299
916.82	4303
916.932	4333
917.044	4322
917.156	4318
917.268	4192
917.38	4253
917.491	4280
917.603	4360
917.715	4394
917.826	4413
917.938	4363
918.049	4265
918.161	4383
918.272	4497
918.384	4504
918.495	4402
918.606	4337
918.717	4227
918.828	4306
918.939	4348
919.05	4227
919.161	4268
919.272	4166
919.383	4204
919.494	4443
919.604	4668
919.715	4424
919.826	4383
919.936	4409
920.047	4538
920.157	4432
920.267	4706
920.378	4531
920.488	4474
920.598	4744
920.708	4896
920.818	4710
920.928	4717
921.038	4942
921.148	4938
921.258	4645
921.368	4588
921.477	4523
921.587	4428
921.697	4352
921.806	4554
921.916	4417
922.025	4303
922.134	4257
922.244	4200
922.353	4325
922.462	4192
922.571	4116
922.68	4017
922.789	3926
922.898	4082
923.007	3987
923.116	4120
923.224	4044
923.333	4021
923.442	3987
923.55	3975
923.659	4025
923.767	4105
923.876	3979
923.984	4139
924.092	3968
924.201	4082
924.309	4071
924.417	4105
924.525	4112
924.633	4059
924.741	5083
924.849	3907
924.956	4124
925.064	3956
925.172	3911
925.279	3983
925.387	4055
925.494	4013
925.602	4169
925.709	4173
925.816	4010
925.924	4097
926.031	4223
926.138	4147
926.245	4207
926.352	4097
926.459	4268
926.566	4341
926.673	4162
926.779	4044
926.886	4074
926.993	3987
927.099	3949
927.206	3949
927.312	3937
927.419	4044
927.525	4044
927.631	4040
927.737	3941
927.843	3983
927.95	3854
928.056	3880
928.162	3983
928.267	4048
928.373	4603
928.479	4067
928.585	3861
928.69	4002
928.796	4051
928.901	3953
929.007	3854
929.112	3998
929.218	4017
929.323	3949
929.428	3949
929.533	4048
929.638	3934
929.743	3987
929.848	4071
929.953	3994
930.058	3968
930.163	3759
930.267	3785
930.372	3994
930.477	3812
930.581	4093
930.685	3937
930.79	3823
930.894	3838
930.998	3850
931.103	4002
931.207	3736
931.311	3679
931.415	3728
931.519	3549
931.623	3572
