Data from test_V78500241_474.txt Node
Date: Fri Mar 25 16:52:17 CST 2022
User: usil
Spectrometer: V785-0024
Trigger mode: 0
Integration Time (sec): 4.000000E-1
Scans to average: 1
Nonlinearity correction enabled: false
Boxcar width: 0
Storing dark spectrum: false
XAxis mode: Wavelengths
Number of Pixels in Spectrum: 1024
>>>>>Begin Spectral Data<<<<<
801.071	8050
801.214	7970
801.356	7890
801.499	7841
801.641	7860
801.783	7913
801.926	8043
802.068	7982
802.211	8024
802.353	7982
802.496	7852
802.638	7868
802.78	7898
802.923	7936
803.065	7898
803.208	7864
803.35	7883
803.492	8035
803.635	8134
803.777	8020
803.919	8115
804.061	8434
804.204	8058
804.346	7974
804.488	7864
804.63	8058
804.773	7967
804.915	8088
805.057	8237
805.199	8225
805.341	8123
805.483	8229
805.626	8092
805.768	8054
805.91	8119
806.052	8210
806.194	8092
806.336	8229
806.478	8115
806.62	8073
806.762	8130
806.904	8248
807.046	8404
807.188	8309
807.33	8309
807.472	8320
807.614	8126
807.756	8145
807.898	7989
808.04	7826
808.182	7955
808.324	7963
808.465	7925
808.607	7997
808.749	8073
808.891	8123
809.033	8294
809.174	8168
809.316	8043
809.458	7989
809.6	8024
809.741	8088
809.883	8024
810.025	8035
810.166	8084
810.308	7963
810.45	8050
810.591	7856
810.733	7818
810.875	7639
811.016	7548
811.158	7491
811.299	7636
811.441	7776
811.582	7693
811.724	7571
811.865	7601
812.007	7666
812.148	7597
812.29	7628
812.431	7715
812.573	7925
812.714	8031
812.855	8088
812.997	8256
813.138	8355
813.279	8267
813.421	8134
813.562	8050
813.703	7925
813.845	7860
813.986	7567
814.127	7369
814.268	7320
814.41	7194
814.551	7149
814.692	7175
814.833	7019
814.974	7088
815.115	7110
815.256	6924
815.397	6920
815.539	6981
815.68	6810
815.821	6825
815.962	6966
816.103	6859
816.244	6776
816.385	6681
816.526	6681
816.666	6509
816.807	6338
816.948	6460
817.089	6525
817.23	6418
817.371	6369
817.512	6361
817.653	6403
817.793	6445
817.934	6350
818.075	6433
818.216	6391
818.356	6391
818.497	6224
818.638	6110
818.778	6121
818.919	6087
819.06	6152
819.2	6292
819.341	6266
819.481	6369
819.622	6517
819.762	6715
819.903	6692
820.043	6593
820.184	6582
820.324	6528
820.465	6692
820.605	6623
820.746	6673
820.886	6490
821.026	6662
821.167	6719
821.307	6791
821.447	6760
821.588	6612
821.728	6464
821.868	6475
822.008	6315
822.149	6372
822.289	6395
822.429	6171
822.569	6102
822.709	6129
822.849	5893
822.99	5916
823.13	5889
823.27	5946
823.41	5775
823.55	5786
823.69	5760
823.83	5745
823.97	5668
824.11	5532
824.25	5467
824.389	5539
824.529	5570
824.669	5524
824.809	5646
824.949	5668
825.089	5615
825.228	5543
825.368	5414
825.508	5353
825.648	5349
825.787	5345
825.927	5421
826.067	5231
826.206	5178
826.346	5417
826.485	5402
826.625	5414
826.765	5554
826.904	5433
827.044	5261
827.183	5204
827.323	5109
827.462	5265
827.601	5216
827.741	5155
827.88	5239
828.02	5128
828.159	5216
828.298	5261
828.437	5330
828.577	5277
828.716	5471
828.855	5292
828.994	5136
829.134	5140
829.273	5197
829.412	5113
829.551	5098
829.69	5166
829.829	5216
829.968	5360
830.107	5227
830.246	5277
830.385	5117
830.524	5136
830.663	5067
830.802	4972
830.941	4850
831.08	4881
831.219	4984
831.357	4972
831.496	5128
831.635	4885
831.774	4866
831.913	4870
832.051	4744
832.19	4725
832.329	4896
832.467	4687
832.606	4611
832.744	4672
832.883	4759
833.022	4660
833.16	4748
833.299	4782
833.437	4843
833.576	4824
833.714	4854
833.852	4839
833.991	4885
834.129	4942
834.267	4984
834.406	4900
834.544	4991
834.682	4991
834.821	4961
834.959	5166
835.097	5037
835.235	5140
835.373	5033
835.511	5113
835.65	4995
835.788	5025
835.926	4881
836.064	4858
836.202	4934
836.34	5132
836.478	5216
836.615	5166
836.753	5197
836.891	5299
837.029	5193
837.167	5201
837.305	5140
837.443	5174
837.58	5098
837.718	5216
837.856	5147
837.993	5132
838.131	5212
838.269	5193
838.406	5258
838.544	5193
838.681	5056
838.819	5018
838.956	4866
839.094	4915
839.231	4957
839.369	5079
839.506	5364
839.643	5261
839.781	5102
839.918	5029
840.055	5102
840.193	5086
840.33	5102
840.467	5170
840.604	5170
840.742	5402
840.879	5060
841.016	5056
841.153	5086
841.29	5376
841.427	5330
841.564	5318
841.701	5383
841.838	5261
841.975	5258
842.112	5239
842.249	5124
842.385	5124
842.522	5349
842.659	5204
842.796	5151
842.933	5189
843.069	5155
843.206	5132
843.343	5353
843.479	5178
843.616	5296
843.752	5014
843.889	4984
844.025	5223
844.162	5045
844.298	5254
844.435	5140
844.571	5041
844.708	5265
844.844	5353
844.98	5315
845.117	5273
845.253	5117
845.389	5102
845.525	5159
845.661	5128
845.798	5052
845.934	5086
846.07	5094
846.206	5208
846.342	5284
846.478	5216
846.614	5041
846.75	4938
846.886	4938
847.022	5117
847.158	5033
847.294	5090
847.429	5113
847.565	5060
847.701	5345
847.837	4824
847.972	4820
848.108	4987
848.244	4919
848.379	4816
848.515	4752
848.65	4702
848.786	4786
848.921	4778
849.057	4820
849.192	4900
849.328	4790
849.463	4820
849.598	4831
849.734	4748
849.869	4687
850.004	4630
850.14	4649
850.275	4710
850.41	4538
850.545	4599
850.68	4592
850.815	4577
850.95	4664
851.085	4850
851.22	4805
851.355	4698
851.49	4634
851.625	4645
851.76	4660
851.895	4565
852.03	4512
852.165	4660
852.299	4729
852.434	4797
852.569	4740
852.703	4740
852.838	4866
852.973	4942
853.107	4889
853.242	4725
853.376	4626
853.511	4527
853.645	4668
853.78	4782
853.914	4729
854.048	4691
854.183	4634
854.317	4725
854.451	4854
854.585	4691
854.72	4626
854.854	4759
854.988	4558
855.122	4698
855.256	4577
855.39	4649
855.524	4786
855.658	4774
855.792	4687
855.926	4778
856.06	4721
856.194	4828
856.327	4733
856.461	4622
856.595	4641
856.729	4618
856.862	4771
856.996	4702
857.13	4694
857.263	4774
857.397	4782
857.53	4656
857.664	4767
857.797	4790
857.931	4752
858.064	4672
858.197	4763
858.331	4641
858.464	4596
858.597	4504
858.731	4611
858.864	4656
858.997	4592
859.13	4664
859.263	4679
859.396	4714
859.529	4546
859.662	4603
859.795	4565
859.928	4615
860.061	4744
860.194	4755
860.327	4637
860.46	4649
860.592	4748
860.725	4714
860.858	4698
860.99	4527
861.123	4500
861.256	4550
861.388	4569
861.521	5379
861.653	4478
861.786	4500
861.918	4474
862.05	4504
862.183	4565
862.315	4618
862.447	4679
862.58	4535
862.712	4394
862.844	4341
862.976	4478
863.108	4436
863.24	4771
863.372	4333
863.504	4383
863.636	4371
863.768	4489
863.9	4432
864.032	4363
864.164	4417
864.296	4447
864.428	4554
864.559	4542
864.691	4527
864.823	4497
864.954	4493
865.086	4554
865.217	4489
865.349	4363
865.48	4447
865.612	4493
865.743	4592
865.875	4443
866.006	4447
866.137	4462
866.269	4470
866.4	4413
866.531	4447
866.662	4402
866.793	4394
866.924	4421
867.055	4512
867.186	4440
867.317	4383
867.448	4383
867.579	4371
867.71	4390
867.841	4367
867.972	4447
868.103	4481
868.233	4481
868.364	4424
868.495	4455
868.625	4637
868.756	4771
868.886	4588
869.017	4630
869.147	4782
869.278	4774
869.408	4641
869.539	4687
869.669	4710
869.799	4664
869.929	4854
870.06	4736
870.19	4934
870.32	4904
870.45	4953
870.58	5029
870.71	5121
870.84	5102
870.97	4911
871.1	4896
871.23	5162
871.36	5102
871.489	5064
871.619	5056
871.749	5052
871.879	5086
872.008	5193
872.138	5045
872.267	4991
872.397	4847
872.526	4809
872.656	4729
872.785	4816
872.915	4930
873.044	5022
873.173	4919
873.303	4972
873.432	4923
873.561	4965
873.69	4908
873.819	4911
873.948	4942
874.077	4809
874.206	4714
874.335	4797
874.464	4930
874.593	4999
874.722	4972
874.851	5128
874.979	5048
875.108	5018
875.237	4915
875.365	4877
875.494	4949
875.623	4961
875.751	4828
875.88	4854
876.008	5029
876.136	5033
876.265	5250
876.393	5353
876.521	5311
876.65	5242
876.778	5151
876.906	5117
877.034	5037
877.162	5041
877.29	5018
877.418	5075
877.546	5045
877.674	5102
877.802	5003
877.93	5037
878.058	4957
878.185	4892
878.313	5010
878.441	4946
878.568	4778
878.696	4843
878.824	4965
878.951	5025
879.079	5094
879.206	5318
879.333	5064
879.461	5014
879.588	4980
879.715	5143
879.842	5201
879.97	4980
880.097	4767
880.224	4748
880.351	4843
880.478	4835
880.605	4790
880.732	4786
880.859	5033
880.986	4911
881.112	4923
881.239	4801
881.366	4687
881.493	4622
881.619	4554
881.746	4641
881.872	4588
881.999	4653
882.125	4649
882.252	4820
882.378	4812
882.505	4957
882.631	4847
882.757	4603
882.883	4744
883.01	4714
883.136	4702
883.262	4630
883.388	4622
883.514	4801
883.64	4870
883.766	4782
883.892	4714
884.018	4763
884.143	4862
884.269	5003
884.395	4664
884.52	4687
884.646	4687
884.772	4577
884.897	4618
885.023	4649
885.148	4847
885.274	4847
885.399	4843
885.524	4691
885.65	4668
885.775	4752
885.9	4733
886.025	4866
886.15	4793
886.275	4672
886.4	4656
886.525	4725
886.65	4702
886.775	4759
886.9	4908
887.025	5037
887.149	4782
887.274	4683
887.399	4592
887.523	4618
887.648	4592
887.773	4558
887.897	4759
888.021	4801
888.146	4664
888.27	4809
888.395	4850
888.519	4801
888.643	4790
888.767	4831
888.891	4687
889.015	4599
889.139	4656
889.263	4596
889.387	4790
889.511	4881
889.635	4790
889.759	4622
889.883	4645
890.006	4744
890.13	4850
890.254	4675
890.377	4694
890.501	4561
890.624	4516
890.748	4634
890.871	4542
890.995	4402
891.118	4383
891.241	4531
891.364	4538
891.488	4653
891.611	4500
891.734	4535
891.857	4596
891.98	4558
892.103	4660
892.226	4607
892.349	4561
892.471	4443
892.594	4584
892.717	4588
892.839	4523
892.962	4584
893.085	4710
893.207	4596
893.33	4504
893.452	4504
893.575	4645
893.697	4596
893.819	4824
893.941	4797
894.064	4767
894.186	4645
894.308	4607
894.43	4717
894.552	4843
894.674	4733
894.796	4558
894.918	4592
895.04	4550
895.161	4687
895.283	4660
895.405	4584
895.526	4649
895.648	4653
895.769	4672
895.891	4721
896.012	4714
896.134	4691
896.255	4698
896.376	4622
896.498	4626
896.619	4683
896.74	4611
896.861	4660
896.982	4889
897.103	5132
897.224	4812
897.345	4702
897.466	4630
897.587	4725
897.708	4858
897.828	4793
897.949	4641
898.07	4546
898.19	4641
898.311	4778
898.431	4656
898.552	4752
898.672	4820
898.792	4839
898.913	4733
899.033	4660
899.153	4497
899.273	4428
899.393	4478
899.513	4497
899.633	4508
899.753	4512
899.873	4500
899.993	4649
900.113	4542
900.232	4599
900.352	4516
900.472	4493
900.591	4375
900.711	4504
900.83	4413
900.95	4626
901.069	4668
901.189	4558
901.308	4386
901.427	4344
901.546	4352
901.665	4466
901.784	4508
901.904	4394
902.023	4337
902.141	4162
902.26	4188
902.379	4280
902.498	4280
902.617	4249
902.735	4367
902.854	4360
902.973	4356
903.091	4219
903.21	4200
903.328	4344
903.446	4272
903.565	4291
903.683	4333
903.801	4253
903.919	4432
904.038	4386
904.156	4341
904.274	4428
904.392	4413
904.51	4451
904.627	4470
904.745	4569
904.863	4672
904.981	4413
905.098	4356
905.216	4379
905.334	4424
905.451	4451
905.569	4386
905.686	4542
905.803	4592
905.921	4462
906.038	4535
906.155	4474
906.272	4432
906.389	4436
906.506	4383
906.623	4383
906.74	4413
906.857	4329
906.974	4329
907.091	4596
907.208	4641
907.324	4641
907.441	4481
907.557	4337
907.674	4352
907.79	4314
907.907	4398
908.023	4489
908.139	4493
908.256	4383
908.372	4462
908.488	4424
908.604	4360
908.72	4310
908.836	4424
908.952	4356
909.068	4421
909.184	4603
909.3	4516
909.415	4565
909.531	4550
909.647	4360
909.762	4344
909.878	4299
909.993	4424
910.108	4459
910.224	4436
910.339	4459
910.454	4417
910.57	4329
910.685	4276
910.8	4615
910.915	4603
911.03	4504
911.145	4314
911.259	4337
911.374	4390
911.489	4344
911.604	4310
911.718	4211
911.833	4166
911.947	4059
912.062	4040
912.176	4177
912.291	4219
912.405	4272
912.519	4447
912.633	4508
912.748	4348
912.862	4375
912.976	4196
913.09	4120
913.204	4143
913.318	4234
913.431	4360
913.545	4341
913.659	4432
913.772	4363
913.886	4242
914	4272
914.113	4379
914.226	4421
914.34	4386
914.453	4242
914.566	4455
914.68	4310
914.793	4322
914.906	4143
915.019	4120
915.132	4093
915.245	4169
915.358	4211
915.47	4227
915.583	4299
915.696	4314
915.809	4402
915.921	4436
916.034	4295
916.146	4299
916.259	4207
916.371	4379
916.483	4352
916.595	4276
916.708	4348
916.82	4341
916.932	4272
917.044	4333
917.156	4322
917.268	4230
917.38	4268
917.491	4265
917.603	4367
917.715	4478
917.826	4470
917.938	4379
918.049	4261
918.161	4409
918.272	4550
918.384	4485
918.495	4489
918.606	4306
918.717	4246
918.828	4314
918.939	4383
919.05	4280
919.161	4344
919.272	4139
919.383	4234
919.494	4466
919.604	4637
919.715	4421
919.826	4375
919.936	4371
920.047	4527
920.157	4500
920.267	4683
920.378	4554
920.488	4500
920.598	4744
920.708	4900
920.818	4771
920.928	4778
921.038	5003
921.148	4930
921.258	4573
921.368	4588
921.477	4519
921.587	4443
921.697	4367
921.806	4538
921.916	4409
922.025	4295
922.134	4310
922.244	4280
922.353	4375
922.462	4169
922.571	4112
922.68	3994
922.789	3994
922.898	4040
923.007	4002
923.116	4067
923.224	4128
923.333	4067
923.442	4010
923.55	4002
923.659	4067
923.767	4097
923.876	3960
923.984	4131
924.092	4040
924.201	4063
924.309	4059
924.417	4093
924.525	4093
924.633	4067
924.741	5067
924.849	3922
924.956	4143
925.064	3922
925.172	3911
925.279	3979
925.387	4010
925.494	4082
925.602	4188
925.709	4215
925.816	4036
925.924	4177
926.031	4207
926.138	4181
926.245	4219
926.352	4112
926.459	4223
926.566	4295
926.673	4211
926.779	4063
926.886	4093
926.993	4032
927.099	3998
927.206	3918
927.312	3915
927.419	3998
927.525	4021
927.631	4059
927.737	3949
927.843	3979
927.95	3827
928.056	3979
928.162	4032
928.267	4029
928.373	4683
928.479	4139
928.585	3865
928.69	3991
928.796	4097
928.901	4002
929.007	3869
929.112	4032
929.218	3934
929.323	3949
929.428	3892
929.533	4116
929.638	3949
929.743	3945
929.848	4063
929.953	3983
930.058	3941
930.163	3819
930.267	3804
930.372	3987
930.477	3808
930.581	4090
930.685	3926
930.79	3835
930.894	3941
930.998	3884
931.103	4067
931.207	3728
931.311	3698
931.415	3686
931.519	3526
931.623	3538
