Data from test_V78500241_513.txt Node
Date: Fri Mar 25 16:52:34 CST 2022
User: usil
Spectrometer: V785-0024
Trigger mode: 0
Integration Time (sec): 4.000000E-1
Scans to average: 1
Nonlinearity correction enabled: false
Boxcar width: 0
Storing dark spectrum: false
XAxis mode: Wavelengths
Number of Pixels in Spectrum: 1024
>>>>>Begin Spectral Data<<<<<
801.071	8054
801.214	7986
801.356	7947
801.499	7921
801.641	7871
801.783	7909
801.926	8065
802.068	8081
802.211	8039
802.353	8065
802.496	7890
802.638	7917
802.78	7982
802.923	7936
803.065	7879
803.208	7932
803.35	7967
803.492	8031
803.635	8142
803.777	8012
803.919	8138
804.061	8431
804.204	8195
804.346	8058
804.488	7963
804.63	8107
804.773	8046
804.915	8191
805.057	8317
805.199	8244
805.341	8244
805.483	8320
805.626	8240
805.768	8111
805.91	8233
806.052	8237
806.194	8183
806.336	8336
806.478	8149
806.62	8077
806.762	8176
806.904	8298
807.046	8476
807.188	8374
807.33	8271
807.472	8259
807.614	8176
807.756	8164
807.898	7951
808.04	7898
808.182	7887
808.324	7921
808.465	7902
808.607	8058
808.749	8119
808.891	8233
809.033	8267
809.174	8138
809.316	8081
809.458	8050
809.6	7982
809.741	8005
809.883	8073
810.025	8054
810.166	8062
810.308	8077
810.45	8069
810.591	7913
810.733	7765
810.875	7696
811.016	7537
811.158	7502
811.299	7628
811.441	7788
811.582	7784
811.724	7601
811.865	7578
812.007	7616
812.148	7613
812.29	7685
812.431	7750
812.573	7970
812.714	8039
812.855	8119
812.997	8218
813.138	8286
813.279	8206
813.421	8164
813.562	8031
813.703	7890
813.845	7940
813.986	7594
814.127	7403
814.268	7285
814.41	7270
814.551	7285
814.692	7244
814.833	7145
814.974	7129
815.115	7152
815.256	7012
815.397	6924
815.539	7023
815.68	6844
815.821	6848
815.962	6973
816.103	6840
816.244	6719
816.385	6642
816.526	6646
816.666	6532
816.807	6350
816.948	6429
817.089	6525
817.23	6486
817.371	6372
817.512	6429
817.653	6448
817.793	6372
817.934	6460
818.075	6448
818.216	6525
818.356	6418
818.497	6258
818.638	6163
818.778	6182
818.919	6140
819.06	6152
819.2	6319
819.341	6338
819.481	6342
819.622	6540
819.762	6703
819.903	6707
820.043	6604
820.184	6593
820.324	6566
820.465	6677
820.605	6654
820.746	6650
820.886	6544
821.026	6688
821.167	6726
821.307	6825
821.447	6783
821.588	6707
821.728	6593
821.868	6490
822.008	6365
822.149	6376
822.289	6357
822.429	6175
822.569	6106
822.709	6133
822.849	5973
822.99	5882
823.13	5950
823.27	5961
823.41	5805
823.55	5840
823.69	5813
823.83	5844
823.97	5680
824.11	5570
824.25	5551
824.389	5577
824.529	5665
824.669	5528
824.809	5691
824.949	5638
825.089	5600
825.228	5592
825.368	5417
825.508	5337
825.648	5376
825.787	5421
825.927	5383
826.067	5360
826.206	5326
826.346	5421
826.485	5395
826.625	5421
826.765	5535
826.904	5421
827.044	5318
827.183	5216
827.323	5155
827.462	5250
827.601	5185
827.741	5208
827.88	5181
828.02	5124
828.159	5227
828.298	5357
828.437	5376
828.577	5303
828.716	5474
828.855	5357
828.994	5204
829.134	5155
829.273	5239
829.412	5201
829.551	5197
829.69	5181
829.829	5246
829.968	5376
830.107	5258
830.246	5246
830.385	5201
830.524	5197
830.663	5121
830.802	4980
830.941	4866
831.08	4930
831.219	5022
831.357	5018
831.496	5239
831.635	4972
831.774	4843
831.913	4831
832.051	4790
832.19	4778
832.329	4820
832.467	4714
832.606	4641
832.744	4744
832.883	4729
833.022	4733
833.16	4816
833.299	4820
833.437	4763
833.576	4831
833.714	4927
833.852	4908
833.991	4881
834.129	5022
834.267	4984
834.406	4892
834.544	5003
834.682	5037
834.821	4980
834.959	5151
835.097	4984
835.235	5201
835.373	5109
835.511	5083
835.65	5045
835.788	5079
835.926	4919
836.064	4892
836.202	4919
836.34	5185
836.478	5299
836.615	5128
836.753	5193
836.891	5326
837.029	5277
837.167	5246
837.305	5204
837.443	5162
837.58	5098
837.718	5299
837.856	5117
837.993	5166
838.131	5292
838.269	5242
838.406	5223
838.544	5227
838.681	5071
838.819	5079
838.956	4904
839.094	4953
839.231	4968
839.369	5086
839.506	5482
839.643	5292
839.781	5083
839.918	5010
840.055	5113
840.193	5124
840.33	5109
840.467	5201
840.604	5185
840.742	5482
840.879	5117
841.016	5075
841.153	5231
841.29	5410
841.427	5357
841.564	5299
841.701	5398
841.838	5318
841.975	5277
842.112	5269
842.249	5185
842.385	5128
842.522	5326
842.659	5197
842.796	5166
842.933	5185
843.069	5170
843.206	5178
843.343	5311
843.479	5231
843.616	5273
843.752	5045
843.889	5029
844.025	5250
844.162	5018
844.298	5235
844.435	5128
844.571	5102
844.708	5197
844.844	5341
844.98	5330
845.117	5315
845.253	5174
845.389	5117
845.525	5178
845.661	5159
845.798	5071
845.934	5102
846.07	5041
846.206	5216
846.342	5299
846.478	5250
846.614	5029
846.75	4984
846.886	4987
847.022	5166
847.158	5083
847.294	5056
847.429	5098
847.565	5113
847.701	5337
847.837	4839
847.972	4801
848.108	4987
848.244	4972
848.379	4759
848.515	4767
848.65	4725
848.786	4790
848.921	4816
849.057	4908
849.192	4934
849.328	4835
849.463	4877
849.598	4835
849.734	4763
849.869	4702
850.004	4637
850.14	4706
850.275	4634
850.41	4550
850.545	4596
850.68	4626
850.815	4653
850.95	4649
851.085	4843
851.22	4755
851.355	4679
851.49	4611
851.625	4641
851.76	4603
851.895	4577
852.03	4554
852.165	4679
852.299	4725
852.434	4786
852.569	4790
852.703	4816
852.838	4816
852.973	4938
853.107	4919
853.242	4729
853.376	4736
853.511	4577
853.645	4641
853.78	4839
853.914	4698
854.048	4668
854.183	4653
854.317	4725
854.451	4820
854.585	4698
854.72	4626
854.854	4793
854.988	4664
855.122	4584
855.256	4538
855.39	4660
855.524	4847
855.658	4706
855.792	4706
855.926	4736
856.06	4740
856.194	4797
856.327	4721
856.461	4649
856.595	4622
856.729	4592
856.862	4774
856.996	4691
857.13	4771
857.263	4763
857.397	4835
857.53	4656
857.664	4725
857.797	4729
857.931	4771
858.064	4694
858.197	4706
858.331	4653
858.464	4603
858.597	4504
858.731	4691
858.864	4656
858.997	4592
859.13	4645
859.263	4710
859.396	4656
859.529	4626
859.662	4569
859.795	4531
859.928	4580
860.061	4778
860.194	4752
860.327	4607
860.46	4554
860.592	4702
860.725	4755
860.858	4721
860.99	4588
861.123	4538
861.256	4558
861.388	4607
861.521	5493
861.653	4489
861.786	4485
861.918	4455
862.05	4489
862.183	4615
862.315	4618
862.447	4656
862.58	4573
862.712	4459
862.844	4363
862.976	4470
863.108	4470
863.24	4911
863.372	4341
863.504	4390
863.636	4405
863.768	4481
863.9	4440
864.032	4367
864.164	4417
864.296	4485
864.428	4538
864.559	4634
864.691	4565
864.823	4565
864.954	4462
865.086	4523
865.217	4535
865.349	4436
865.48	4478
865.612	4516
865.743	4649
865.875	4474
866.006	4440
866.137	4421
866.269	4383
866.4	4440
866.531	4432
866.662	4428
866.793	4455
866.924	4436
867.055	4504
867.186	4447
867.317	4417
867.448	4371
867.579	4360
867.71	4405
867.841	4379
867.972	4447
868.103	4459
868.233	4470
868.364	4440
868.495	4466
868.625	4702
868.756	4774
868.886	4584
869.017	4592
869.147	4702
869.278	4797
869.408	4634
869.539	4622
869.669	4740
869.799	4672
869.929	4759
870.06	4755
870.19	4995
870.32	4915
870.45	4915
870.58	4957
870.71	5090
870.84	5090
870.97	4953
871.1	4889
871.23	5132
871.36	5105
871.489	4968
871.619	5113
871.749	5094
871.879	5109
872.008	5128
872.138	5060
872.267	5003
872.397	4850
872.526	4793
872.656	4744
872.785	4786
872.915	4927
873.044	5060
873.173	4965
873.303	4911
873.432	4995
873.561	4991
873.69	4866
873.819	4850
873.948	4908
874.077	4824
874.206	4774
874.335	4816
874.464	4942
874.593	5041
874.722	4991
874.851	5113
874.979	5048
875.108	5064
875.237	4949
875.365	4904
875.494	4900
875.623	5033
875.751	4831
875.88	4930
876.008	5003
876.136	5056
876.265	5189
876.393	5357
876.521	5284
876.65	5220
876.778	5159
876.906	5086
877.034	5025
877.162	5090
877.29	5045
877.418	5003
877.546	5003
877.674	5102
877.802	5018
877.93	5033
878.058	4976
878.185	4938
878.313	4953
878.441	4957
878.568	4816
878.696	4896
878.824	4965
878.951	5025
879.079	5113
879.206	5280
879.333	5124
879.461	5003
879.588	5041
879.715	5124
879.842	5227
879.97	5003
880.097	4801
880.224	4725
880.351	4828
880.478	4854
880.605	4782
880.732	4839
880.859	5136
880.986	4904
881.112	4904
881.239	4843
881.366	4672
881.493	4634
881.619	4649
881.746	4668
881.872	4733
881.999	4675
882.125	4660
882.252	4797
882.378	4858
882.505	4946
882.631	4866
882.757	4721
882.883	4771
883.01	4733
883.136	4721
883.262	4618
883.388	4607
883.514	4782
883.64	4915
883.766	4782
883.892	4694
884.018	4752
884.143	4892
884.269	4987
884.395	4710
884.52	4656
884.646	4656
884.772	4573
884.897	4565
885.023	4672
885.148	4809
885.274	4831
885.399	4797
885.524	4744
885.65	4683
885.775	4755
885.9	4691
886.025	4877
886.15	4820
886.275	4725
886.4	4675
886.525	4710
886.65	4729
886.775	4714
886.9	4949
887.025	5025
887.149	4812
887.274	4698
887.399	4615
887.523	4580
887.648	4550
887.773	4554
887.897	4755
888.021	4797
888.146	4675
888.27	4843
888.395	4900
888.519	4790
888.643	4812
888.767	4778
888.891	4656
889.015	4558
889.139	4626
889.263	4618
889.387	4767
889.511	4892
889.635	4790
889.759	4687
889.883	4634
890.006	4763
890.13	4843
890.254	4603
890.377	4683
890.501	4561
890.624	4550
890.748	4622
890.871	4489
890.995	4417
891.118	4417
891.241	4500
891.364	4550
891.488	4607
891.611	4493
891.734	4554
891.857	4596
891.98	4596
892.103	4630
892.226	4588
892.349	4535
892.471	4390
892.594	4527
892.717	4630
892.839	4577
892.962	4637
893.085	4637
893.207	4542
893.33	4470
893.452	4527
893.575	4672
893.697	4592
893.819	4809
893.941	4843
894.064	4786
894.186	4561
894.308	4588
894.43	4714
894.552	4824
894.674	4752
894.796	4569
894.918	4615
895.04	4569
895.161	4729
895.283	4622
895.405	4584
895.526	4653
895.648	4679
895.769	4637
895.891	4698
896.012	4755
896.134	4729
896.255	4694
896.376	4637
896.498	4653
896.619	4721
896.74	4649
896.861	4618
896.982	4968
897.103	5109
897.224	4877
897.345	4729
897.466	4664
897.587	4675
897.708	4847
897.828	4801
897.949	4653
898.07	4622
898.19	4622
898.311	4767
898.431	4668
898.552	4748
898.672	4831
898.792	4824
898.913	4729
899.033	4641
899.153	4493
899.273	4455
899.393	4493
899.513	4485
899.633	4535
899.753	4512
899.873	4561
899.993	4561
900.113	4546
900.232	4584
900.352	4577
900.472	4489
900.591	4405
900.711	4493
900.83	4424
900.95	4588
901.069	4694
901.189	4504
901.308	4386
901.427	4329
901.546	4375
901.665	4523
901.784	4504
901.904	4348
902.023	4352
902.141	4200
902.26	4173
902.379	4322
902.498	4272
902.617	4223
902.735	4344
902.854	4424
902.973	4405
903.091	4272
903.21	4234
903.328	4295
903.446	4280
903.565	4272
903.683	4341
903.801	4291
903.919	4421
904.038	4394
904.156	4303
904.274	4424
904.392	4424
904.51	4451
904.627	4455
904.745	4535
904.863	4615
904.981	4341
905.098	4310
905.216	4344
905.334	4493
905.451	4409
905.569	4455
905.686	4531
905.803	4584
905.921	4405
906.038	4592
906.155	4478
906.272	4398
906.389	4459
906.506	4375
906.623	4394
906.74	4447
906.857	4356
906.974	4421
907.091	4565
907.208	4683
907.324	4588
907.441	4512
907.557	4318
907.674	4360
907.79	4318
907.907	4428
908.023	4481
908.139	4481
908.256	4402
908.372	4478
908.488	4424
908.604	4386
908.72	4352
908.836	4386
908.952	4383
909.068	4413
909.184	4558
909.3	4516
909.415	4626
909.531	4538
909.647	4363
909.762	4386
909.878	4329
909.993	4440
910.108	4413
910.224	4413
910.339	4535
910.454	4440
910.57	4386
910.685	4306
910.8	4668
910.915	4618
911.03	4493
911.145	4371
911.259	4303
911.374	4394
911.489	4299
911.604	4291
911.718	4162
911.833	4196
911.947	4044
912.062	4032
912.176	4192
912.291	4249
912.405	4238
912.519	4455
912.633	4512
912.748	4424
912.862	4310
912.976	4227
913.09	4067
913.204	4177
913.318	4272
913.431	4375
913.545	4386
913.659	4451
913.772	4379
913.886	4219
914	4200
914.113	4413
914.226	4428
914.34	4383
914.453	4238
914.566	4470
914.68	4325
914.793	4303
914.906	4158
915.019	4139
915.132	4093
915.245	4188
915.358	4238
915.47	4211
915.583	4276
915.696	4291
915.809	4390
915.921	4436
916.034	4284
916.146	4234
916.259	4211
916.371	4402
916.483	4356
916.595	4306
916.708	4348
916.82	4306
916.932	4341
917.044	4333
917.156	4299
917.268	4291
917.38	4337
917.491	4242
917.603	4356
917.715	4470
917.826	4455
917.938	4314
918.049	4261
918.161	4367
918.272	4523
918.384	4512
918.495	4504
918.606	4261
918.717	4265
918.828	4367
918.939	4360
919.05	4265
919.161	4325
919.272	4181
919.383	4211
919.494	4462
919.604	4649
919.715	4421
919.826	4360
919.936	4447
920.047	4546
920.157	4508
920.267	4691
920.378	4462
920.488	4493
920.598	4733
920.708	4896
920.818	4790
920.928	4767
921.038	4911
921.148	4911
921.258	4603
921.368	4538
921.477	4504
921.587	4500
921.697	4398
921.806	4569
921.916	4474
922.025	4276
922.134	4261
922.244	4246
922.353	4325
922.462	4154
922.571	4124
922.68	4021
922.789	3956
922.898	4078
923.007	4025
923.116	4116
923.224	4074
923.333	4063
923.442	4013
923.55	4002
923.659	4006
923.767	4086
923.876	4013
923.984	4124
924.092	3979
924.201	4074
924.309	4112
924.417	4082
924.525	4055
924.633	4097
924.741	5067
924.849	3918
924.956	4158
925.064	3968
925.172	3930
925.279	3964
925.387	4074
925.494	4063
925.602	4230
925.709	4150
925.816	4017
925.924	4105
926.031	4219
926.138	4188
926.245	4249
926.352	4097
926.459	4246
926.566	4341
926.673	4169
926.779	4105
926.886	4154
926.993	3968
927.099	3956
927.206	3934
927.312	3934
927.419	4032
927.525	4067
927.631	4048
927.737	3987
927.843	3926
927.95	3835
928.056	3956
928.162	4006
928.267	4036
928.373	4641
928.479	4112
928.585	3842
928.69	4040
928.796	4044
928.901	3968
929.007	3800
929.112	4006
929.218	4021
929.323	3949
929.428	3991
929.533	4147
929.638	3880
929.743	3953
929.848	4025
929.953	3972
930.058	3934
930.163	3762
930.267	3865
930.372	3979
930.477	3819
930.581	4112
930.685	3934
930.79	3793
930.894	3880
930.998	3892
931.103	4074
931.207	3770
931.311	3686
931.415	3679
931.519	3488
931.623	3534
