Data from test_V78500241_2449.txt Node
Date: Fri Mar 25 17:06:01 CST 2022
User: usil
Spectrometer: V785-0024
Trigger mode: 0
Integration Time (sec): 4.000000E-1
Scans to average: 1
Nonlinearity correction enabled: false
Boxcar width: 0
Storing dark spectrum: false
XAxis mode: Wavelengths
Number of Pixels in Spectrum: 1024
>>>>>Begin Spectral Data<<<<<
801.071	7997
801.214	8005
801.356	7875
801.499	7818
801.641	7765
801.783	7845
801.926	7967
802.068	7993
802.211	7959
802.353	8069
802.496	7852
802.638	7887
802.78	7875
802.923	7879
803.065	7864
803.208	7852
803.35	8016
803.492	8107
803.635	8119
803.777	8020
803.919	8096
804.061	8404
804.204	8195
804.346	8100
804.488	7982
804.63	8107
804.773	8024
804.915	8077
805.057	8301
805.199	8206
805.341	8164
805.483	8279
805.626	8271
805.768	8138
805.91	8225
806.052	8225
806.194	8107
806.336	8279
806.478	8100
806.62	8130
806.762	8145
806.904	8176
807.046	8431
807.188	8305
807.33	8263
807.472	8412
807.614	8119
807.756	8138
807.898	7986
808.04	7814
808.182	7917
808.324	7868
808.465	7871
808.607	8115
808.749	8126
808.891	8157
809.033	8313
809.174	8206
809.316	8130
809.458	8111
809.6	7963
809.741	8024
809.883	7925
810.025	8149
810.166	8031
810.308	7959
810.45	8050
810.591	7909
810.733	7700
810.875	7632
811.016	7601
811.158	7510
811.299	7571
811.441	7742
811.582	7681
811.724	7571
811.865	7457
812.007	7624
812.148	7582
812.29	7578
812.431	7734
812.573	7814
812.714	8016
812.855	8096
812.997	8199
813.138	8214
813.279	8202
813.421	8012
813.562	7944
813.703	7841
813.845	7708
813.986	7392
814.127	7270
814.268	7168
814.41	7247
814.551	7225
814.692	7236
814.833	7008
814.974	7095
815.115	7095
815.256	6935
815.397	6993
815.539	6954
815.68	6802
815.821	6768
815.962	6894
816.103	6806
816.244	6696
816.385	6620
816.526	6707
816.666	6528
816.807	6311
816.948	6407
817.089	6410
817.23	6452
817.371	6422
817.512	6426
817.653	6372
817.793	6380
817.934	6433
818.075	6464
818.216	6429
818.356	6418
818.497	6296
818.638	6136
818.778	6076
818.919	6079
819.06	6114
819.2	6365
819.341	6300
819.481	6334
819.622	6547
819.762	6719
819.903	6707
820.043	6665
820.184	6589
820.324	6635
820.465	6654
820.605	6734
820.746	6696
820.886	6559
821.026	6703
821.167	6730
821.307	6897
821.447	6791
821.588	6734
821.728	6654
821.868	6486
822.008	6353
822.149	6399
822.289	6395
822.429	6220
822.569	6175
822.709	6117
822.849	5996
822.99	5893
823.13	5977
823.27	5961
823.41	5855
823.55	5836
823.69	5790
823.83	5847
823.97	5703
824.11	5596
824.25	5573
824.389	5596
824.529	5608
824.669	5558
824.809	5680
824.949	5703
825.089	5630
825.228	5562
825.368	5391
825.508	5417
825.648	5387
825.787	5440
825.927	5444
826.067	5372
826.206	5307
826.346	5357
826.485	5425
826.625	5448
826.765	5600
826.904	5547
827.044	5341
827.183	5239
827.323	5151
827.462	5307
827.601	5185
827.741	5246
827.88	5273
828.02	5151
828.159	5296
828.298	5311
828.437	5368
828.577	5330
828.716	5486
828.855	5322
828.994	5231
829.134	5216
829.273	5254
829.412	5193
829.551	5151
829.69	5212
829.829	5288
829.968	5402
830.107	5284
830.246	5292
830.385	5189
830.524	5151
830.663	5090
830.802	5010
830.941	4915
831.08	4896
831.219	5033
831.357	5018
831.496	5239
831.635	4942
831.774	4862
831.913	4957
832.051	4797
832.19	4774
832.329	4850
832.467	4683
832.606	4672
832.744	4755
832.883	4778
833.022	4755
833.16	4835
833.299	4862
833.437	4870
833.576	4881
833.714	4900
833.852	4942
833.991	4938
834.129	4987
834.267	5006
834.406	4934
834.544	4980
834.682	4949
834.821	5022
834.959	5223
835.097	5056
835.235	5201
835.373	5132
835.511	5132
835.65	5045
835.788	5052
835.926	4949
836.064	4900
836.202	4995
836.34	5189
836.478	5292
836.615	5223
836.753	5265
836.891	5326
837.029	5280
837.167	5216
837.305	5170
837.443	5155
837.58	5185
837.718	5299
837.856	5223
837.993	5151
838.131	5277
838.269	5223
838.406	5208
838.544	5216
838.681	5067
838.819	5014
838.956	4911
839.094	4942
839.231	5003
839.369	5075
839.506	5455
839.643	5368
839.781	5052
839.918	5056
840.055	5181
840.193	5109
840.33	5166
840.467	5181
840.604	5189
840.742	5433
840.879	5121
841.016	5109
841.153	5204
841.29	5425
841.427	5436
841.564	5318
841.701	5421
841.838	5334
841.975	5288
842.112	5292
842.249	5204
842.385	5181
842.522	5330
842.659	5239
842.796	5193
842.933	5231
843.069	5185
843.206	5174
843.343	5307
843.479	5178
843.616	5265
843.752	5010
843.889	5041
844.025	5231
844.162	5098
844.298	5269
844.435	5109
844.571	5090
844.708	5250
844.844	5303
844.98	5357
845.117	5326
845.253	5136
845.389	5113
845.525	5174
845.661	5181
845.798	5086
845.934	5170
846.07	5109
846.206	5239
846.342	5284
846.478	5170
846.614	5056
846.75	5018
846.886	4984
847.022	5174
847.158	5022
847.294	5079
847.429	5083
847.565	5060
847.701	5360
847.837	4900
847.972	4812
848.108	5006
848.244	4961
848.379	4885
848.515	4782
848.65	4763
848.786	4763
848.921	4767
849.057	4873
849.192	4930
849.328	4824
849.463	4919
849.598	4782
849.734	4805
849.869	4763
850.004	4641
850.14	4702
850.275	4664
850.41	4607
850.545	4626
850.68	4679
850.815	4630
850.95	4660
851.085	4858
851.22	4740
851.355	4706
851.49	4656
851.625	4733
851.76	4694
851.895	4573
852.03	4531
852.165	4672
852.299	4763
852.434	4835
852.569	4752
852.703	4771
852.838	4854
852.973	4965
853.107	4961
853.242	4778
853.376	4683
853.511	4558
853.645	4653
853.78	4835
853.914	4771
854.048	4694
854.183	4714
854.317	4736
854.451	4900
854.585	4733
854.72	4653
854.854	4778
854.988	4637
855.122	4649
855.256	4573
855.39	4717
855.524	4847
855.658	4805
855.792	4717
855.926	4744
856.06	4782
856.194	4831
856.327	4717
856.461	4660
856.595	4687
856.729	4645
856.862	4793
856.996	4740
857.13	4782
857.263	4778
857.397	4824
857.53	4691
857.664	4748
857.797	4805
857.931	4824
858.064	4736
858.197	4748
858.331	4683
858.464	4626
858.597	4577
858.731	4698
858.864	4656
858.997	4607
859.13	4694
859.263	4683
859.396	4733
859.529	4611
859.662	4569
859.795	4538
859.928	4615
860.061	4767
860.194	4771
860.327	4607
860.46	4626
860.592	4797
860.725	4725
860.858	4736
860.99	4596
861.123	4554
861.256	4558
861.388	4637
861.521	5315
861.653	4504
861.786	4428
861.918	4527
862.05	4500
862.183	4550
862.315	4626
862.447	4679
862.58	4565
862.712	4428
862.844	4383
862.976	4512
863.108	4481
863.24	4805
863.372	4413
863.504	4421
863.636	4405
863.768	4481
863.9	4436
864.032	4367
864.164	4462
864.296	4500
864.428	4588
864.559	4588
864.691	4580
864.823	4569
864.954	4508
865.086	4516
865.217	4478
865.349	4421
865.48	4466
865.612	4489
865.743	4656
865.875	4478
866.006	4474
866.137	4447
866.269	4470
866.4	4443
866.531	4459
866.662	4398
866.793	4440
866.924	4428
867.055	4554
867.186	4493
867.317	4436
867.448	4409
867.579	4413
867.71	4462
867.841	4405
867.972	4432
868.103	4436
868.233	4455
868.364	4443
868.495	4485
868.625	4679
868.756	4755
868.886	4599
869.017	4656
869.147	4786
869.278	4774
869.408	4702
869.539	4675
869.669	4725
869.799	4679
869.929	4733
870.06	4782
870.19	4972
870.32	4938
870.45	4946
870.58	4995
870.71	5132
870.84	5083
870.97	5014
871.1	4919
871.23	5159
871.36	5174
871.489	5048
871.619	5128
871.749	5098
871.879	5143
872.008	5201
872.138	5083
872.267	5022
872.397	4892
872.526	4809
872.656	4771
872.785	4824
872.915	4923
873.044	5010
873.173	4965
873.303	5018
873.432	4999
873.561	4976
873.69	4892
873.819	4866
873.948	4949
874.077	4854
874.206	4771
874.335	4824
874.464	4995
874.593	5105
874.722	4984
874.851	5121
874.979	5079
875.108	5018
875.237	4915
875.365	4839
875.494	4908
875.623	4984
875.751	4820
875.88	4919
876.008	5014
876.136	5056
876.265	5227
876.393	5326
876.521	5277
876.65	5265
876.778	5147
876.906	5067
877.034	5029
877.162	5048
877.29	5056
877.418	5086
877.546	5037
877.674	5060
877.802	5014
877.93	4984
878.058	4927
878.185	4847
878.313	4999
878.441	4965
878.568	4866
878.696	4923
878.824	4995
878.951	5014
879.079	5155
879.206	5330
879.333	5086
879.461	4976
879.588	4991
879.715	5117
879.842	5204
879.97	5056
880.097	4809
880.224	4774
880.351	4805
880.478	4877
880.605	4809
880.732	4809
880.859	5075
880.986	4919
881.112	4946
881.239	4809
881.366	4672
881.493	4611
881.619	4561
881.746	4618
881.872	4672
881.999	4702
882.125	4710
882.252	4835
882.378	4862
882.505	4995
882.631	4831
882.757	4698
882.883	4816
883.01	4717
883.136	4683
883.262	4641
883.388	4630
883.514	4839
883.64	4881
883.766	4850
883.892	4687
884.018	4755
884.143	4930
884.269	5071
884.395	4672
884.52	4588
884.646	4675
884.772	4634
884.897	4569
885.023	4710
885.148	4809
885.274	4957
885.399	4854
885.524	4752
885.65	4694
885.775	4782
885.9	4714
886.025	4850
886.15	4793
886.275	4755
886.4	4668
886.525	4744
886.65	4736
886.775	4615
886.9	4873
887.025	5071
887.149	4843
887.274	4683
887.399	4580
887.523	4558
887.648	4618
887.773	4592
887.897	4790
888.021	4793
888.146	4664
888.27	4843
888.395	4896
888.519	4835
888.643	4835
888.767	4809
888.891	4672
889.015	4622
889.139	4675
889.263	4630
889.387	4759
889.511	4858
889.635	4786
889.759	4634
889.883	4641
890.006	4778
890.13	4854
890.254	4641
890.377	4702
890.501	4550
890.624	4519
890.748	4615
890.871	4550
890.995	4443
891.118	4390
891.241	4558
891.364	4558
891.488	4618
891.611	4455
891.734	4554
891.857	4630
891.98	4599
892.103	4698
892.226	4668
892.349	4508
892.471	4451
892.594	4504
892.717	4607
892.839	4573
892.962	4611
893.085	4714
893.207	4622
893.33	4519
893.452	4497
893.575	4672
893.697	4577
893.819	4812
893.941	4820
894.064	4763
894.186	4592
894.308	4580
894.43	4744
894.552	4854
894.674	4717
894.796	4527
894.918	4607
895.04	4607
895.161	4733
895.283	4668
895.405	4565
895.526	4634
895.648	4672
895.769	4694
895.891	4733
896.012	4748
896.134	4679
896.255	4672
896.376	4645
896.498	4577
896.619	4664
896.74	4634
896.861	4645
896.982	4915
897.103	5090
897.224	4812
897.345	4736
897.466	4653
897.587	4702
897.708	4843
897.828	4790
897.949	4717
898.07	4603
898.19	4683
898.311	4862
898.431	4634
898.552	4736
898.672	4801
898.792	4790
898.913	4755
899.033	4660
899.153	4500
899.273	4443
899.393	4523
899.513	4550
899.633	4500
899.753	4504
899.873	4554
899.993	4565
900.113	4558
900.232	4531
900.352	4565
900.472	4500
900.591	4379
900.711	4481
900.83	4428
900.95	4615
901.069	4672
901.189	4516
901.308	4344
901.427	4367
901.546	4383
901.665	4508
901.784	4561
901.904	4383
902.023	4379
902.141	4215
902.26	4227
902.379	4322
902.498	4230
902.617	4295
902.735	4348
902.854	4367
902.973	4375
903.091	4154
903.21	4242
903.328	4325
903.446	4280
903.565	4261
903.683	4367
903.801	4287
903.919	4402
904.038	4497
904.156	4329
904.274	4443
904.392	4405
904.51	4421
904.627	4443
904.745	4611
904.863	4634
904.981	4421
905.098	4318
905.216	4356
905.334	4462
905.451	4424
905.569	4440
905.686	4622
905.803	4592
905.921	4402
906.038	4565
906.155	4474
906.272	4436
906.389	4497
906.506	4344
906.623	4398
906.74	4413
906.857	4314
906.974	4383
907.091	4588
907.208	4729
907.324	4561
907.441	4516
907.557	4375
907.674	4314
907.79	4367
907.907	4405
908.023	4474
908.139	4478
908.256	4402
908.372	4481
908.488	4459
908.604	4383
908.72	4329
908.836	4341
908.952	4413
909.068	4417
909.184	4603
909.3	4500
909.415	4611
909.531	4542
909.647	4360
909.762	4447
909.878	4352
909.993	4455
910.108	4428
910.224	4440
910.339	4493
910.454	4417
910.57	4356
910.685	4287
910.8	4641
910.915	4607
911.03	4462
911.145	4379
911.259	4394
911.374	4371
911.489	4322
911.604	4306
911.718	4162
911.833	4223
911.947	4105
912.062	4029
912.176	4227
912.291	4230
912.405	4280
912.519	4519
912.633	4516
912.748	4413
912.862	4299
912.976	4219
913.09	4074
913.204	4154
913.318	4238
913.431	4398
913.545	4394
913.659	4459
913.772	4390
913.886	4265
914	4238
914.113	4371
914.226	4409
914.34	4405
914.453	4238
914.566	4398
914.68	4325
914.793	4352
914.906	4135
915.019	4116
915.132	4051
915.245	4207
915.358	4211
915.47	4192
915.583	4257
915.696	4265
915.809	4386
915.921	4390
916.034	4253
916.146	4223
916.259	4204
916.371	4409
916.483	4379
916.595	4265
916.708	4284
916.82	4322
916.932	4303
917.044	4325
917.156	4337
917.268	4249
917.38	4284
917.491	4272
917.603	4333
917.715	4413
917.826	4447
917.938	4291
918.049	4230
918.161	4432
918.272	4523
918.384	4561
918.495	4466
918.606	4306
918.717	4257
918.828	4348
918.939	4341
919.05	4261
919.161	4318
919.272	4139
919.383	4234
919.494	4447
919.604	4618
919.715	4443
919.826	4337
919.936	4367
920.047	4546
920.157	4504
920.267	4660
920.378	4519
920.488	4500
920.598	4729
920.708	4858
920.818	4786
920.928	4767
921.038	4889
921.148	4877
921.258	4607
921.368	4535
921.477	4493
921.587	4512
921.697	4390
921.806	4546
921.916	4451
922.025	4238
922.134	4257
922.244	4185
922.353	4337
922.462	4143
922.571	4166
922.68	4013
922.789	3983
922.898	4059
923.007	3998
923.116	4090
923.224	4059
923.333	4112
923.442	4002
923.55	4017
923.659	4025
923.767	4078
923.876	3998
923.984	4116
924.092	3964
924.201	4086
924.309	4112
924.417	4109
924.525	4063
924.633	4101
924.741	5033
924.849	3892
924.956	4143
925.064	3960
925.172	3907
925.279	3975
925.387	4040
925.494	4097
925.602	4192
925.709	4158
925.816	4025
925.924	4131
926.031	4234
926.138	4158
926.245	4230
926.352	4105
926.459	4246
926.566	4318
926.673	4169
926.779	4082
926.886	4071
926.993	4010
927.099	3934
927.206	3968
927.312	3972
927.419	4067
927.525	4036
927.631	4086
927.737	3964
927.843	3945
927.95	3816
928.056	3979
928.162	3975
928.267	4093
928.373	4683
928.479	4139
928.585	3838
928.69	4013
928.796	4032
928.901	3915
929.007	3850
929.112	4006
929.218	4013
929.323	3953
929.428	3941
929.533	4112
929.638	3896
929.743	3953
929.848	4082
929.953	3998
930.058	3937
930.163	3743
930.267	3774
930.372	3960
930.477	3819
930.581	4120
930.685	3972
930.79	3800
930.894	3873
930.998	3857
931.103	4040
931.207	3732
931.311	3694
931.415	3713
931.519	3492
931.623	3511
