Data from test_V78500241_1591.txt Node
Date: Fri Mar 25 17:00:03 CST 2022
User: usil
Spectrometer: V785-0024
Trigger mode: 0
Integration Time (sec): 4.000000E-1
Scans to average: 1
Nonlinearity correction enabled: false
Boxcar width: 0
Storing dark spectrum: false
XAxis mode: Wavelengths
Number of Pixels in Spectrum: 1024
>>>>>Begin Spectral Data<<<<<
801.071	8005
801.214	8031
801.356	7890
801.499	7883
801.641	7795
801.783	7833
801.926	7978
802.068	7932
802.211	8050
802.353	8039
802.496	7830
802.638	7830
802.78	7898
802.923	7967
803.065	7898
803.208	7860
803.35	7982
803.492	8096
803.635	8145
803.777	8035
803.919	8134
804.061	8457
804.204	8187
804.346	8012
804.488	7959
804.63	8119
804.773	8046
804.915	8142
805.057	8275
805.199	8138
805.341	8180
805.483	8343
805.626	8123
805.768	8126
805.91	8180
806.052	8259
806.194	8161
806.336	8286
806.478	8107
806.62	8069
806.762	8134
806.904	8225
807.046	8469
807.188	8370
807.33	8343
807.472	8317
807.614	8187
807.756	8126
807.898	8020
808.04	7967
808.182	7890
808.324	7909
808.465	7921
808.607	8111
808.749	8161
808.891	8256
809.033	8298
809.174	8252
809.316	8088
809.458	8054
809.6	8031
809.741	7993
809.883	8058
810.025	8107
810.166	8111
810.308	8058
810.45	8058
810.591	7795
810.733	7753
810.875	7632
811.016	7537
811.158	7518
811.299	7548
811.441	7738
811.582	7681
811.724	7643
811.865	7548
812.007	7552
812.148	7632
812.29	7620
812.431	7750
812.573	7887
812.714	7967
812.855	8164
812.997	8164
813.138	8374
813.279	8164
813.421	8107
813.562	8001
813.703	7826
813.845	7715
813.986	7453
814.127	7259
814.268	7217
814.41	7225
814.551	7183
814.692	7198
814.833	7126
814.974	7122
815.115	7099
815.256	6947
815.397	6924
815.539	6973
815.68	6821
815.821	6810
815.962	6837
816.103	6749
816.244	6700
816.385	6612
816.526	6612
816.666	6490
816.807	6296
816.948	6445
817.089	6486
817.23	6456
817.371	6384
817.512	6384
817.653	6426
817.793	6311
817.934	6418
818.075	6483
818.216	6346
818.356	6380
818.497	6292
818.638	6041
818.778	6140
818.919	6125
819.06	6133
819.2	6270
819.341	6338
819.481	6342
819.622	6585
819.762	6673
819.903	6696
820.043	6673
820.184	6593
820.324	6654
820.465	6703
820.605	6662
820.746	6703
820.886	6525
821.026	6646
821.167	6658
821.307	6791
821.447	6791
821.588	6616
821.728	6616
821.868	6471
822.008	6289
822.149	6334
822.289	6369
822.429	6171
822.569	6060
822.709	6167
822.849	5878
822.99	5935
823.13	5893
823.27	5916
823.41	5764
823.55	5783
823.69	5733
823.83	5802
823.97	5657
824.11	5543
824.25	5532
824.389	5577
824.529	5600
824.669	5512
824.809	5642
824.949	5668
825.089	5585
825.228	5520
825.368	5398
825.508	5387
825.648	5307
825.787	5360
825.927	5387
826.067	5288
826.206	5330
826.346	5379
826.485	5421
826.625	5421
826.765	5585
826.904	5471
827.044	5277
827.183	5227
827.323	5166
827.462	5231
827.601	5121
827.741	5185
827.88	5193
828.02	5117
828.159	5204
828.298	5303
828.437	5360
828.577	5265
828.716	5501
828.855	5318
828.994	5147
829.134	5140
829.273	5170
829.412	5170
829.551	5143
829.69	5151
829.829	5284
829.968	5410
830.107	5269
830.246	5235
830.385	5159
830.524	5159
830.663	5067
830.802	4938
830.941	4889
831.08	4870
831.219	4957
831.357	4991
831.496	5086
831.635	4927
831.774	4850
831.913	4835
832.051	4691
832.19	4774
832.329	4839
832.467	4706
832.606	4626
832.744	4706
832.883	4740
833.022	4725
833.16	4774
833.299	4812
833.437	4786
833.576	4816
833.714	4850
833.852	4900
833.991	4953
834.129	4991
834.267	4972
834.406	4911
834.544	4972
834.682	4984
834.821	4934
834.959	5124
835.097	4980
835.235	5136
835.373	5075
835.511	5064
835.65	5060
835.788	5010
835.926	4908
836.064	4885
836.202	4953
836.34	5128
836.478	5223
836.615	5155
836.753	5242
836.891	5265
837.029	5231
837.167	5132
837.305	5166
837.443	5132
837.58	5071
837.718	5284
837.856	5231
837.993	5147
838.131	5269
838.269	5258
838.406	5178
838.544	5128
838.681	5029
838.819	5067
838.956	4866
839.094	4968
839.231	5010
839.369	5151
839.506	5455
839.643	5318
839.781	5079
839.918	5033
840.055	5098
840.193	5124
840.33	5121
840.467	5071
840.604	5174
840.742	5455
840.879	5071
841.016	5128
841.153	5094
841.29	5395
841.427	5337
841.564	5357
841.701	5326
841.838	5318
841.975	5223
842.112	5258
842.249	5132
842.385	5140
842.522	5353
842.659	5181
842.796	5128
842.933	5201
843.069	5140
843.206	5140
843.343	5318
843.479	5254
843.616	5223
843.752	4972
843.889	4972
844.025	5162
844.162	5010
844.298	5250
844.435	5090
844.571	5010
844.708	5223
844.844	5246
844.98	5341
845.117	5254
845.253	5162
845.389	5025
845.525	5151
845.661	5143
845.798	5025
845.934	5140
846.07	5022
846.206	5162
846.342	5273
846.478	5201
846.614	4991
846.75	4968
846.886	4991
847.022	5102
847.158	4968
847.294	5071
847.429	5113
847.565	5071
847.701	5322
847.837	4835
847.972	4820
848.108	4980
848.244	4934
848.379	4801
848.515	4698
848.65	4698
848.786	4733
848.921	4752
849.057	4870
849.192	4889
849.328	4767
849.463	4828
849.598	4797
849.734	4812
849.869	4702
850.004	4577
850.14	4664
850.275	4607
850.41	4565
850.545	4603
850.68	4569
850.815	4630
850.95	4672
851.085	4854
851.22	4755
851.355	4698
851.49	4615
851.625	4641
851.76	4645
851.895	4558
852.03	4493
852.165	4668
852.299	4717
852.434	4763
852.569	4721
852.703	4763
852.838	4831
852.973	4934
853.107	4976
853.242	4721
853.376	4641
853.511	4561
853.645	4611
853.78	4755
853.914	4668
854.048	4626
854.183	4679
854.317	4660
854.451	4801
854.585	4683
854.72	4611
854.854	4710
854.988	4599
855.122	4649
855.256	4485
855.39	4637
855.524	4755
855.658	4736
855.792	4714
855.926	4698
856.06	4729
856.194	4786
856.327	4691
856.461	4634
856.595	4645
856.729	4588
856.862	4744
856.996	4721
857.13	4755
857.263	4759
857.397	4786
857.53	4641
857.664	4687
857.797	4774
857.931	4729
858.064	4687
858.197	4740
858.331	4588
858.464	4599
858.597	4519
858.731	4653
858.864	4664
858.997	4603
859.13	4645
859.263	4691
859.396	4653
859.529	4618
859.662	4592
859.795	4592
859.928	4664
860.061	4740
860.194	4797
860.327	4645
860.46	4580
860.592	4672
860.725	4717
860.858	4679
860.99	4596
861.123	4519
861.256	4504
861.388	4611
861.521	5254
861.653	4466
861.786	4443
861.918	4447
862.05	4535
862.183	4538
862.315	4580
862.447	4649
862.58	4531
862.712	4371
862.844	4318
862.976	4413
863.108	4455
863.24	4801
863.372	4280
863.504	4440
863.636	4428
863.768	4447
863.9	4386
864.032	4371
864.164	4360
864.296	4451
864.428	4561
864.559	4599
864.691	4531
864.823	4485
864.954	4493
865.086	4474
865.217	4417
865.349	4398
865.48	4474
865.612	4493
865.743	4607
865.875	4424
866.006	4413
866.137	4481
866.269	4436
866.4	4436
866.531	4436
866.662	4424
866.793	4402
866.924	4451
867.055	4485
867.186	4413
867.317	4394
867.448	4386
867.579	4322
867.71	4413
867.841	4447
867.972	4455
868.103	4462
868.233	4459
868.364	4459
868.495	4489
868.625	4683
868.756	4790
868.886	4588
869.017	4599
869.147	4759
869.278	4714
869.408	4645
869.539	4626
869.669	4691
869.799	4634
869.929	4740
870.06	4729
870.19	4892
870.32	4896
870.45	4949
870.58	5006
870.71	5025
870.84	5113
870.97	4911
871.1	4862
871.23	5121
871.36	5128
871.489	4999
871.619	5060
871.749	5033
871.879	5159
872.008	5147
872.138	5045
872.267	4987
872.397	4824
872.526	4782
872.656	4717
872.785	4793
872.915	4957
873.044	4995
873.173	4961
873.303	4919
873.432	5037
873.561	4930
873.69	4904
873.819	4847
873.948	4930
874.077	4866
874.206	4759
874.335	4877
874.464	4900
874.593	5067
874.722	4984
874.851	5094
874.979	5018
875.108	5037
875.237	4930
875.365	4892
875.494	4900
875.623	4987
875.751	4797
875.88	4889
876.008	4949
876.136	5079
876.265	5212
876.393	5337
876.521	5235
876.65	5273
876.778	5185
876.906	5090
877.034	5060
877.162	5029
877.29	5033
877.418	5029
877.546	5075
877.674	5041
877.802	5045
877.93	5014
878.058	4953
878.185	4881
878.313	4911
878.441	4965
878.568	4740
878.696	4831
878.824	4904
878.951	4915
879.079	5128
879.206	5315
879.333	5109
879.461	4949
879.588	4999
879.715	5090
879.842	5189
879.97	4995
880.097	4816
880.224	4752
880.351	4778
880.478	4843
880.605	4736
880.732	4725
880.859	5113
880.986	4873
881.112	4889
881.239	4816
881.366	4710
881.493	4649
881.619	4603
881.746	4630
881.872	4668
881.999	4637
882.125	4668
882.252	4786
882.378	4805
882.505	4953
882.631	4767
882.757	4649
882.883	4744
883.01	4725
883.136	4675
883.262	4607
883.388	4603
883.514	4805
883.64	4831
883.766	4790
883.892	4683
884.018	4668
884.143	4919
884.269	4942
884.395	4683
884.52	4637
884.646	4653
884.772	4607
884.897	4527
885.023	4637
885.148	4771
885.274	4862
885.399	4778
885.524	4698
885.65	4702
885.775	4763
885.9	4725
886.025	4843
886.15	4790
886.275	4691
886.4	4637
886.525	4733
886.65	4710
886.775	4679
886.9	4953
887.025	5010
887.149	4801
887.274	4637
887.399	4558
887.523	4584
887.648	4569
887.773	4516
887.897	4721
888.021	4771
888.146	4668
888.27	4835
888.395	4900
888.519	4755
888.643	4767
888.767	4824
888.891	4664
889.015	4637
889.139	4630
889.263	4615
889.387	4752
889.511	4873
889.635	4790
889.759	4641
889.883	4656
890.006	4710
890.13	4843
890.254	4611
890.377	4687
890.501	4550
890.624	4538
890.748	4683
890.871	4546
890.995	4428
891.118	4409
891.241	4554
891.364	4508
891.488	4637
891.611	4462
891.734	4531
891.857	4584
891.98	4558
892.103	4660
892.226	4596
892.349	4519
892.471	4402
892.594	4531
892.717	4599
892.839	4596
892.962	4569
893.085	4660
893.207	4622
893.33	4481
893.452	4508
893.575	4683
893.697	4535
893.819	4790
893.941	4858
894.064	4778
894.186	4531
894.308	4569
894.43	4752
894.552	4759
894.674	4721
894.796	4508
894.918	4554
895.04	4577
895.161	4668
895.283	4630
895.405	4554
895.526	4634
895.648	4672
895.769	4683
895.891	4683
896.012	4710
896.134	4729
896.255	4672
896.376	4637
896.498	4607
896.619	4668
896.74	4637
896.861	4656
896.982	4930
897.103	5018
897.224	4812
897.345	4725
897.466	4656
897.587	4729
897.708	4805
897.828	4748
897.949	4664
898.07	4565
898.19	4634
898.311	4839
898.431	4649
898.552	4710
898.672	4774
898.792	4805
898.913	4717
899.033	4641
899.153	4462
899.273	4421
899.393	4459
899.513	4538
899.633	4493
899.753	4542
899.873	4497
899.993	4577
900.113	4504
900.232	4546
900.352	4523
900.472	4466
900.591	4413
900.711	4478
900.83	4417
900.95	4577
901.069	4698
901.189	4489
901.308	4341
901.427	4356
901.546	4337
901.665	4478
901.784	4512
901.904	4383
902.023	4314
902.141	4185
902.26	4128
902.379	4337
902.498	4253
902.617	4207
902.735	4303
902.854	4348
902.973	4371
903.091	4242
903.21	4188
903.328	4291
903.446	4227
903.565	4242
903.683	4318
903.801	4280
903.919	4363
904.038	4451
904.156	4322
904.274	4409
904.392	4470
904.51	4443
904.627	4470
904.745	4565
904.863	4607
904.981	4360
905.098	4284
905.216	4371
905.334	4470
905.451	4443
905.569	4451
905.686	4554
905.803	4538
905.921	4447
906.038	4546
906.155	4459
906.272	4386
906.389	4478
906.506	4291
906.623	4352
906.74	4405
906.857	4318
906.974	4341
907.091	4519
907.208	4683
907.324	4599
907.441	4447
907.557	4287
907.674	4310
907.79	4367
907.907	4363
908.023	4470
908.139	4459
908.256	4440
908.372	4428
908.488	4409
908.604	4402
908.72	4360
908.836	4383
908.952	4325
909.068	4424
909.184	4565
909.3	4443
909.415	4580
909.531	4523
909.647	4310
909.762	4352
909.878	4295
909.993	4428
910.108	4417
910.224	4405
910.339	4504
910.454	4417
910.57	4348
910.685	4337
910.8	4645
910.915	4622
911.03	4508
911.145	4280
911.259	4329
911.374	4360
911.489	4268
911.604	4265
911.718	4177
911.833	4185
911.947	4090
912.062	4040
912.176	4230
912.291	4249
912.405	4268
912.519	4474
912.633	4459
912.748	4329
912.862	4295
912.976	4215
913.09	4101
913.204	4200
913.318	4253
913.431	4383
913.545	4398
913.659	4421
913.772	4348
913.886	4223
914	4227
914.113	4405
914.226	4379
914.34	4375
914.453	4215
914.566	4409
914.68	4287
914.793	4310
914.906	4169
915.019	4185
915.132	4067
915.245	4166
915.358	4238
915.47	4227
915.583	4276
915.696	4295
915.809	4394
915.921	4421
916.034	4242
916.146	4242
916.259	4219
916.371	4394
916.483	4379
916.595	4257
916.708	4284
916.82	4253
916.932	4333
917.044	4367
917.156	4306
917.268	4246
917.38	4268
917.491	4268
917.603	4352
917.715	4390
917.826	4485
917.938	4329
918.049	4242
918.161	4379
918.272	4538
918.384	4531
918.495	4447
918.606	4280
918.717	4211
918.828	4303
918.939	4409
919.05	4261
919.161	4299
919.272	4158
919.383	4230
919.494	4428
919.604	4698
919.715	4455
919.826	4333
919.936	4432
920.047	4535
920.157	4493
920.267	4660
920.378	4538
920.488	4485
920.598	4717
920.708	4831
920.818	4744
920.928	4767
921.038	4923
921.148	4892
921.258	4622
921.368	4523
921.477	4535
921.587	4474
921.697	4371
921.806	4474
921.916	4405
922.025	4246
922.134	4249
922.244	4223
922.353	4356
922.462	4204
922.571	4139
922.68	4032
922.789	3968
922.898	4010
923.007	3998
923.116	4112
923.224	4051
923.333	4051
923.442	3979
923.55	3937
923.659	4025
923.767	4086
923.876	3968
923.984	4112
924.092	3998
924.201	4078
924.309	4071
924.417	4086
924.525	4071
924.633	4112
924.741	4911
924.849	3918
924.956	4112
925.064	3972
925.172	3926
925.279	3945
925.387	4055
925.494	4021
925.602	4219
925.709	4185
925.816	4025
925.924	4124
926.031	4227
926.138	4181
926.245	4196
926.352	4128
926.459	4223
926.566	4291
926.673	4177
926.779	4074
926.886	4082
926.993	3994
927.099	3998
927.206	3964
927.312	3953
927.419	4071
927.525	4086
927.631	4082
927.737	3964
927.843	3934
927.95	3816
928.056	3964
928.162	3983
928.267	4074
928.373	4584
928.479	4090
928.585	3873
928.69	4044
928.796	4090
928.901	3972
929.007	3873
929.112	3960
929.218	3937
929.323	3968
929.428	3918
929.533	4063
929.638	3896
929.743	3998
929.848	4048
929.953	3998
930.058	3892
930.163	3766
930.267	3793
930.372	3949
930.477	3838
930.581	4101
930.685	3918
930.79	3835
930.894	3884
930.998	3831
931.103	4059
931.207	3713
931.311	3660
931.415	3675
931.519	3564
931.623	3526
