Data from test_V78500241_1295.txt Node
Date: Fri Mar 25 16:58:00 CST 2022
User: usil
Spectrometer: V785-0024
Trigger mode: 0
Integration Time (sec): 4.000000E-1
Scans to average: 1
Nonlinearity correction enabled: false
Boxcar width: 0
Storing dark spectrum: false
XAxis mode: Wavelengths
Number of Pixels in Spectrum: 1024
>>>>>Begin Spectral Data<<<<<
801.071	7951
801.214	7955
801.356	7833
801.499	7864
801.641	7780
801.783	7784
801.926	7871
802.068	7936
802.211	7955
802.353	7989
802.496	7860
802.638	7890
802.78	7898
802.923	7921
803.065	7887
803.208	7822
803.35	8054
803.492	8069
803.635	8115
803.777	7978
803.919	8058
804.061	8431
804.204	8172
804.346	7997
804.488	7982
804.63	8035
804.773	7963
804.915	8065
805.057	8259
805.199	8123
805.341	8214
805.483	8206
805.626	8153
805.768	8130
805.91	8149
806.052	8119
806.194	8111
806.336	8214
806.478	8008
806.62	8039
806.762	8111
806.904	8275
807.046	8450
807.188	8286
807.33	8279
807.472	8263
807.614	8142
807.756	8054
807.898	8035
808.04	7890
808.182	7879
808.324	7883
808.465	7909
808.607	8077
808.749	8092
808.891	8199
809.033	8271
809.174	8168
809.316	8046
809.458	8008
809.6	7955
809.741	8008
809.883	7955
810.025	8008
810.166	8050
810.308	7970
810.45	7959
810.591	7849
810.733	7723
810.875	7628
811.016	7499
811.158	7480
811.299	7594
811.441	7712
811.582	7727
811.724	7540
811.865	7567
812.007	7575
812.148	7636
812.29	7578
812.431	7677
812.573	7837
812.714	7974
812.855	8050
812.997	8172
813.138	8286
813.279	8180
813.421	8145
813.562	8008
813.703	7860
813.845	7750
813.986	7499
814.127	7282
814.268	7274
814.41	7217
814.551	7118
814.692	7145
814.833	7107
814.974	7133
815.115	7080
815.256	6954
815.397	6916
815.539	6981
815.68	6897
815.821	6760
815.962	6920
816.103	6871
816.244	6741
816.385	6684
816.526	6646
816.666	6528
816.807	6300
816.948	6452
817.089	6494
817.23	6445
817.371	6395
817.512	6391
817.653	6422
817.793	6361
817.934	6395
818.075	6532
818.216	6464
818.356	6346
818.497	6338
818.638	6083
818.778	6228
818.919	6144
819.06	6159
819.2	6296
819.341	6357
819.481	6448
819.622	6566
819.762	6703
819.903	6734
820.043	6662
820.184	6570
820.324	6563
820.465	6711
820.605	6692
820.746	6669
820.886	6559
821.026	6719
821.167	6684
821.307	6810
821.447	6787
821.588	6654
821.728	6593
821.868	6506
822.008	6338
822.149	6369
822.289	6372
822.429	6159
822.569	6171
822.709	6167
822.849	5923
822.99	5939
823.13	5969
823.27	5912
823.41	5817
823.55	5771
823.69	5790
823.83	5802
823.97	5665
824.11	5554
824.25	5516
824.389	5611
824.529	5600
824.669	5573
824.809	5623
824.949	5710
825.089	5668
825.228	5547
825.368	5410
825.508	5357
825.648	5379
825.787	5387
825.927	5425
826.067	5292
826.206	5303
826.346	5372
826.485	5429
826.625	5482
826.765	5573
826.904	5516
827.044	5258
827.183	5246
827.323	5162
827.462	5277
827.601	5220
827.741	5193
827.88	5181
828.02	5174
828.159	5315
828.298	5315
828.437	5353
828.577	5273
828.716	5482
828.855	5395
828.994	5155
829.134	5132
829.273	5201
829.412	5159
829.551	5185
829.69	5155
829.829	5280
829.968	5429
830.107	5235
830.246	5299
830.385	5246
830.524	5140
830.663	5064
830.802	4987
830.941	4858
831.08	4862
831.219	4984
831.357	4972
831.496	5170
831.635	4934
831.774	4831
831.913	4896
832.051	4733
832.19	4755
832.329	4850
832.467	4736
832.606	4672
832.744	4733
832.883	4717
833.022	4771
833.16	4835
833.299	4870
833.437	4847
833.576	4831
833.714	4858
833.852	4904
833.991	4915
834.129	4957
834.267	4995
834.406	4919
834.544	5052
834.682	4976
834.821	4991
834.959	5178
835.097	5052
835.235	5140
835.373	5075
835.511	5181
835.65	5056
835.788	5006
835.926	4889
836.064	4892
836.202	4892
836.34	5193
836.478	5269
836.615	5147
836.753	5265
836.891	5288
837.029	5258
837.167	5227
837.305	5178
837.443	5204
837.58	5094
837.718	5292
837.856	5197
837.993	5201
838.131	5216
838.269	5235
838.406	5212
838.544	5201
838.681	5029
838.819	5018
838.956	4923
839.094	4904
839.231	5048
839.369	5121
839.506	5429
839.643	5231
839.781	5067
839.918	5014
840.055	5117
840.193	5185
840.33	5155
840.467	5132
840.604	5235
840.742	5410
840.879	5128
841.016	5094
841.153	5151
841.29	5379
841.427	5395
841.564	5326
841.701	5360
841.838	5303
841.975	5254
842.112	5254
842.249	5143
842.385	5102
842.522	5353
842.659	5147
842.796	5181
842.933	5204
843.069	5159
843.206	5212
843.343	5292
843.479	5311
843.616	5277
843.752	5033
843.889	5041
844.025	5258
844.162	5045
844.298	5204
844.435	5109
844.571	5071
844.708	5220
844.844	5296
844.98	5349
845.117	5318
845.253	5132
845.389	5086
845.525	5147
845.661	5136
845.798	5052
845.934	5162
846.07	5071
846.206	5212
846.342	5307
846.478	5181
846.614	5094
846.75	4953
846.886	4938
847.022	5170
847.158	5045
847.294	5102
847.429	5162
847.565	5075
847.701	5353
847.837	4847
847.972	4812
848.108	4953
848.244	4949
848.379	4805
848.515	4740
848.65	4744
848.786	4763
848.921	4763
849.057	4877
849.192	4946
849.328	4824
849.463	4862
849.598	4858
849.734	4725
849.869	4717
850.004	4634
850.14	4668
850.275	4649
850.41	4584
850.545	4550
850.68	4615
850.815	4626
850.95	4649
851.085	4790
851.22	4752
851.355	4660
851.49	4596
851.625	4649
851.76	4672
851.895	4542
852.03	4584
852.165	4611
852.299	4767
852.434	4790
852.569	4714
852.703	4801
852.838	4839
852.973	4911
853.107	4908
853.242	4755
853.376	4710
853.511	4599
853.645	4615
853.78	4812
853.914	4702
854.048	4698
854.183	4668
854.317	4729
854.451	4843
854.585	4748
854.72	4672
854.854	4733
854.988	4580
855.122	4626
855.256	4584
855.39	4611
855.524	4786
855.658	4710
855.792	4725
855.926	4748
856.06	4729
856.194	4839
856.327	4664
856.461	4599
856.595	4626
856.729	4645
856.862	4797
856.996	4691
857.13	4725
857.263	4824
857.397	4797
857.53	4653
857.664	4748
857.797	4752
857.931	4820
858.064	4660
858.197	4797
858.331	4664
858.464	4603
858.597	4523
858.731	4641
858.864	4634
858.997	4611
859.13	4660
859.263	4702
859.396	4721
859.529	4577
859.662	4607
859.795	4577
859.928	4668
860.061	4755
860.194	4778
860.327	4622
860.46	4577
860.592	4672
860.725	4790
860.858	4714
860.99	4592
861.123	4500
861.256	4523
861.388	4622
861.521	5185
861.653	4493
861.786	4428
861.918	4485
862.05	4519
862.183	4580
862.315	4626
862.447	4668
862.58	4603
862.712	4413
862.844	4325
862.976	4481
863.108	4497
863.24	4854
863.372	4322
863.504	4405
863.636	4383
863.768	4455
863.9	4455
864.032	4379
864.164	4432
864.296	4474
864.428	4554
864.559	4611
864.691	4554
864.823	4546
864.954	4512
865.086	4577
865.217	4432
865.349	4413
865.48	4481
865.612	4459
865.743	4622
865.875	4462
866.006	4451
866.137	4451
866.269	4462
866.4	4447
866.531	4474
866.662	4371
866.793	4428
866.924	4409
867.055	4489
867.186	4451
867.317	4413
867.448	4383
867.579	4409
867.71	4325
867.841	4341
867.972	4432
868.103	4478
868.233	4455
868.364	4447
868.495	4512
868.625	4675
868.756	4755
868.886	4512
869.017	4615
869.147	4828
869.278	4824
869.408	4649
869.539	4603
869.669	4721
869.799	4637
869.929	4778
870.06	4725
870.19	4946
870.32	4911
870.45	4949
870.58	5014
870.71	5075
870.84	5113
870.97	4934
871.1	4911
871.23	5136
871.36	5109
871.489	5075
871.619	5071
871.749	5083
871.879	5140
872.008	5235
872.138	5102
872.267	4987
872.397	4873
872.526	4774
872.656	4755
872.785	4828
872.915	5014
873.044	4999
873.173	4961
873.303	4968
873.432	4961
873.561	4949
873.69	4900
873.819	4870
873.948	4885
874.077	4801
874.206	4744
874.335	4824
874.464	4946
874.593	5052
874.722	5003
874.851	5105
874.979	5037
875.108	5041
875.237	4885
875.365	4881
875.494	4896
875.623	4991
875.751	4816
875.88	4881
876.008	5014
876.136	5037
876.265	5227
876.393	5368
876.521	5246
876.65	5246
876.778	5147
876.906	5067
877.034	5029
877.162	5041
877.29	4961
877.418	5064
877.546	5067
877.674	5029
877.802	5056
877.93	5060
878.058	4919
878.185	4919
878.313	4987
878.441	4934
878.568	4774
878.696	4881
878.824	4995
878.951	4953
879.079	5109
879.206	5292
879.333	5075
879.461	4984
879.588	5018
879.715	5109
879.842	5239
879.97	5029
880.097	4774
880.224	4778
880.351	4793
880.478	4801
880.605	4816
880.732	4816
880.859	5105
880.986	4930
881.112	4953
881.239	4828
881.366	4668
881.493	4611
881.619	4588
881.746	4607
881.872	4656
881.999	4656
882.125	4694
882.252	4820
882.378	4839
882.505	4949
882.631	4816
882.757	4706
882.883	4748
883.01	4812
883.136	4660
883.262	4618
883.388	4622
883.514	4828
883.64	4881
883.766	4809
883.892	4611
884.018	4714
884.143	4904
884.269	4972
884.395	4691
884.52	4634
884.646	4668
884.772	4672
884.897	4603
885.023	4645
885.148	4816
885.274	4877
885.399	4812
885.524	4691
885.65	4706
885.775	4774
885.9	4714
886.025	4843
886.15	4801
886.275	4729
886.4	4653
886.525	4733
886.65	4714
886.775	4679
886.9	4915
887.025	5014
887.149	4824
887.274	4653
887.399	4546
887.523	4588
887.648	4580
887.773	4580
887.897	4774
888.021	4793
888.146	4725
888.27	4850
888.395	4934
888.519	4786
888.643	4824
888.767	4831
888.891	4653
889.015	4611
889.139	4660
889.263	4641
889.387	4767
889.511	4866
889.635	4793
889.759	4649
889.883	4698
890.006	4710
890.13	4816
890.254	4615
890.377	4702
890.501	4519
890.624	4478
890.748	4637
890.871	4493
890.995	4417
891.118	4375
891.241	4504
891.364	4558
891.488	4599
891.611	4504
891.734	4535
891.857	4577
891.98	4637
892.103	4637
892.226	4573
892.349	4531
892.471	4432
892.594	4550
892.717	4565
892.839	4573
892.962	4626
893.085	4649
893.207	4622
893.33	4481
893.452	4516
893.575	4691
893.697	4538
893.819	4820
893.941	4805
894.064	4755
894.186	4580
894.308	4569
894.43	4714
894.552	4835
894.674	4725
894.796	4538
894.918	4569
895.04	4504
895.161	4672
895.283	4660
895.405	4615
895.526	4656
895.648	4645
895.769	4645
895.891	4733
896.012	4740
896.134	4740
896.255	4675
896.376	4645
896.498	4603
896.619	4698
896.74	4622
896.861	4679
896.982	4908
897.103	5090
897.224	4839
897.345	4729
897.466	4698
897.587	4710
897.708	4919
897.828	4744
897.949	4660
898.07	4607
898.19	4641
898.311	4835
898.431	4706
898.552	4755
898.672	4797
898.792	4774
898.913	4706
899.033	4611
899.153	4523
899.273	4443
899.393	4493
899.513	4527
899.633	4516
899.753	4542
899.873	4481
899.993	4588
900.113	4535
900.232	4565
900.352	4558
900.472	4459
900.591	4417
900.711	4478
900.83	4470
900.95	4596
901.069	4664
901.189	4523
901.308	4371
901.427	4318
901.546	4356
901.665	4440
901.784	4512
901.904	4402
902.023	4379
902.141	4181
902.26	4261
902.379	4322
902.498	4257
902.617	4253
902.735	4413
902.854	4383
902.973	4352
903.091	4162
903.21	4253
903.328	4295
903.446	4257
903.565	4249
903.683	4352
903.801	4322
903.919	4375
904.038	4455
904.156	4329
904.274	4436
904.392	4375
904.51	4451
904.627	4459
904.745	4573
904.863	4626
904.981	4341
905.098	4280
905.216	4375
905.334	4413
905.451	4478
905.569	4478
905.686	4474
905.803	4550
905.921	4436
906.038	4569
906.155	4459
906.272	4451
906.389	4451
906.506	4322
906.623	4409
906.74	4390
906.857	4322
906.974	4344
907.091	4592
907.208	4675
907.324	4561
907.441	4504
907.557	4352
907.674	4329
907.79	4314
907.907	4424
908.023	4402
908.139	4462
908.256	4394
908.372	4447
908.488	4451
908.604	4348
908.72	4329
908.836	4375
908.952	4356
909.068	4386
909.184	4588
909.3	4466
909.415	4592
909.531	4569
909.647	4371
909.762	4325
909.878	4352
909.993	4474
910.108	4363
910.224	4432
910.339	4474
910.454	4428
910.57	4383
910.685	4284
910.8	4626
910.915	4580
911.03	4432
911.145	4371
911.259	4303
911.374	4424
911.489	4272
911.604	4272
911.718	4158
911.833	4192
911.947	4063
912.062	4063
912.176	4227
912.291	4253
912.405	4257
912.519	4474
912.633	4428
912.748	4386
912.862	4322
912.976	4173
913.09	4124
913.204	4147
913.318	4227
913.431	4379
913.545	4383
913.659	4443
913.772	4348
913.886	4219
914	4207
914.113	4363
914.226	4443
914.34	4375
914.453	4200
914.566	4428
914.68	4272
914.793	4341
914.906	4188
915.019	4097
915.132	4071
915.245	4154
915.358	4207
915.47	4246
915.583	4261
915.696	4333
915.809	4394
915.921	4409
916.034	4223
916.146	4246
916.259	4253
916.371	4356
916.483	4341
916.595	4215
916.708	4306
916.82	4325
916.932	4284
917.044	4276
917.156	4337
917.268	4291
917.38	4291
917.491	4280
917.603	4325
917.715	4428
917.826	4455
917.938	4390
918.049	4249
918.161	4413
918.272	4542
918.384	4527
918.495	4443
918.606	4295
918.717	4238
918.828	4356
918.939	4405
919.05	4253
919.161	4348
919.272	4120
919.383	4219
919.494	4493
919.604	4546
919.715	4443
919.826	4325
919.936	4398
920.047	4508
920.157	4478
920.267	4691
920.378	4535
920.488	4523
920.598	4637
920.708	4911
920.818	4767
920.928	4714
921.038	4949
921.148	4900
921.258	4615
921.368	4561
921.477	4523
921.587	4459
921.697	4383
921.806	4550
921.916	4424
922.025	4246
922.134	4230
922.244	4242
922.353	4337
922.462	4143
922.571	4112
922.68	4010
922.789	3987
922.898	4059
923.007	4029
923.116	4105
923.224	4071
923.333	4093
923.442	3998
923.55	3987
923.659	3979
923.767	4074
923.876	4017
923.984	4093
924.092	3979
924.201	4059
924.309	4090
924.417	4109
924.525	4067
924.633	4067
924.741	5022
924.849	3915
924.956	4116
925.064	3998
925.172	3892
925.279	3964
925.387	4051
925.494	4063
925.602	4204
925.709	4154
925.816	3991
925.924	4109
926.031	4211
926.138	4128
926.245	4173
926.352	4074
926.459	4181
926.566	4295
926.673	4200
926.779	4048
926.886	4074
926.993	3968
927.099	4002
927.206	3918
927.312	3922
927.419	4074
927.525	3998
927.631	4082
927.737	3937
927.843	3907
927.95	3854
928.056	3922
928.162	3987
928.267	4063
928.373	4664
928.479	4090
928.585	3873
928.69	3987
928.796	4055
928.901	4013
929.007	3838
929.112	4025
929.218	4021
929.323	3968
929.428	3998
929.533	4162
929.638	3911
929.743	4002
929.848	4055
929.953	3998
930.058	3953
930.163	3766
930.267	3778
930.372	3953
930.477	3804
930.581	4139
930.685	3926
930.79	3789
930.894	3827
930.998	3823
931.103	3998
931.207	3663
931.311	3679
931.415	3694
931.519	3507
931.623	3557
