Data from test_V78500241_247.txt Node
Date: Fri Mar 25 16:50:43 CST 2022
User: usil
Spectrometer: V785-0024
Trigger mode: 0
Integration Time (sec): 4.000000E-1
Scans to average: 1
Nonlinearity correction enabled: false
Boxcar width: 0
Storing dark spectrum: false
XAxis mode: Wavelengths
Number of Pixels in Spectrum: 1024
>>>>>Begin Spectral Data<<<<<
801.071	8043
801.214	7982
801.356	7871
801.499	7860
801.641	7788
801.783	7795
801.926	7982
802.068	7978
802.211	7955
802.353	7986
802.496	7898
802.638	7887
802.78	7947
802.923	7967
803.065	7902
803.208	7841
803.35	7947
803.492	8039
803.635	8130
803.777	8020
803.919	8065
804.061	8442
804.204	8176
804.346	8084
804.488	7970
804.63	8088
804.773	7963
804.915	8062
805.057	8225
805.199	8142
805.341	8210
805.483	8256
805.626	8161
805.768	8024
805.91	8195
806.052	8191
806.194	8096
806.336	8286
806.478	8119
806.62	8012
806.762	8107
806.904	8210
807.046	8431
807.188	8309
807.33	8301
807.472	8294
807.614	8138
807.756	8073
807.898	7989
808.04	7833
808.182	7887
808.324	7932
808.465	7955
808.607	8046
808.749	8123
808.891	8229
809.033	8263
809.174	8195
809.316	7986
809.458	8065
809.6	7963
809.741	7978
809.883	8050
810.025	8054
810.166	8046
810.308	8069
810.45	8065
810.591	7879
810.733	7704
810.875	7689
811.016	7487
811.158	7464
811.299	7567
811.441	7761
811.582	7651
811.724	7537
811.865	7601
812.007	7616
812.148	7609
812.29	7651
812.431	7727
812.573	7917
812.714	8005
812.855	8123
812.997	8256
813.138	8370
813.279	8240
813.421	8081
813.562	8043
813.703	7864
813.845	7723
813.986	7438
814.127	7259
814.268	7301
814.41	7293
814.551	7133
814.692	7236
814.833	7076
814.974	7057
815.115	7099
815.256	6981
815.397	6886
815.539	6909
815.68	6802
815.821	6768
815.962	6806
816.103	6825
816.244	6700
816.385	6623
816.526	6654
816.666	6517
816.807	6365
816.948	6452
817.089	6414
817.23	6437
817.371	6403
817.512	6433
817.653	6361
817.793	6346
817.934	6403
818.075	6475
818.216	6429
818.356	6418
818.497	6155
818.638	6129
818.778	6095
818.919	6125
819.06	6136
819.2	6292
819.341	6361
819.481	6357
819.622	6452
819.762	6688
819.903	6623
820.043	6555
820.184	6544
820.324	6623
820.465	6673
820.605	6623
820.746	6681
820.886	6521
821.026	6654
821.167	6620
821.307	6753
821.447	6776
821.588	6631
821.728	6582
821.868	6479
822.008	6350
822.149	6327
822.289	6350
822.429	6125
822.569	6091
822.709	6110
822.849	5889
822.99	5958
823.13	5874
823.27	5885
823.41	5760
823.55	5798
823.69	5798
823.83	5821
823.97	5737
824.11	5524
824.25	5501
824.389	5604
824.529	5539
824.669	5512
824.809	5668
824.949	5638
825.089	5642
825.228	5547
825.368	5360
825.508	5303
825.648	5372
825.787	5421
825.927	5372
826.067	5292
826.206	5311
826.346	5360
826.485	5383
826.625	5391
826.765	5570
826.904	5482
827.044	5284
827.183	5216
827.323	5121
827.462	5231
827.601	5143
827.741	5220
827.88	5246
828.02	5056
828.159	5201
828.298	5307
828.437	5353
828.577	5258
828.716	5490
828.855	5345
828.994	5147
829.134	5159
829.273	5178
829.412	5162
829.551	5185
829.69	5204
829.829	5284
829.968	5364
830.107	5162
830.246	5307
830.385	5216
830.524	5109
830.663	5071
830.802	4991
830.941	4915
831.08	4904
831.219	5029
831.357	4957
831.496	5124
831.635	4923
831.774	4854
831.913	4858
832.051	4725
832.19	4694
832.329	4850
832.467	4702
832.606	4668
832.744	4725
832.883	4774
833.022	4698
833.16	4763
833.299	4843
833.437	4812
833.576	4870
833.714	4824
833.852	4866
833.991	4927
834.129	4976
834.267	4961
834.406	4896
834.544	4968
834.682	5006
834.821	4980
834.959	5174
835.097	4995
835.235	5178
835.373	5105
835.511	5086
835.65	5018
835.788	5052
835.926	4919
836.064	4911
836.202	4934
836.34	5113
836.478	5181
836.615	5124
836.753	5277
836.891	5307
837.029	5239
837.167	5170
837.305	5166
837.443	5143
837.58	5140
837.718	5292
837.856	5159
837.993	5121
838.131	5246
838.269	5220
838.406	5212
838.544	5201
838.681	4953
838.819	5022
838.956	4881
839.094	4881
839.231	4987
839.369	5056
839.506	5406
839.643	5269
839.781	5064
839.918	5010
840.055	5132
840.193	5067
840.33	5132
840.467	5147
840.604	5178
840.742	5421
840.879	5029
841.016	5071
841.153	5170
841.29	5383
841.427	5322
841.564	5292
841.701	5368
841.838	5292
841.975	5258
842.112	5261
842.249	5166
842.385	5132
842.522	5341
842.659	5151
842.796	5162
842.933	5223
843.069	5166
843.206	5075
843.343	5303
843.479	5250
843.616	5292
843.752	5003
843.889	5048
844.025	5208
844.162	5029
844.298	5201
844.435	5113
844.571	5075
844.708	5162
844.844	5334
844.98	5330
845.117	5292
845.253	5143
845.389	5098
845.525	5136
845.661	5166
845.798	5071
845.934	5086
846.07	5086
846.206	5212
846.342	5288
846.478	5178
846.614	5033
846.75	4980
846.886	4949
847.022	5181
847.158	5037
847.294	5022
847.429	5128
847.565	5041
847.701	5379
847.837	4831
847.972	4839
848.108	4949
848.244	4946
848.379	4778
848.515	4740
848.65	4714
848.786	4725
848.921	4740
849.057	4835
849.192	4877
849.328	4790
849.463	4850
849.598	4805
849.734	4748
849.869	4683
850.004	4596
850.14	4668
850.275	4588
850.41	4546
850.545	4538
850.68	4622
850.815	4603
850.95	4622
851.085	4847
851.22	4767
851.355	4710
851.49	4599
851.625	4668
851.76	4630
851.895	4584
852.03	4512
852.165	4668
852.299	4721
852.434	4774
852.569	4752
852.703	4736
852.838	4843
852.973	4946
853.107	4908
853.242	4797
853.376	4641
853.511	4577
853.645	4637
853.78	4828
853.914	4637
854.048	4656
854.183	4675
854.317	4710
854.451	4862
854.585	4698
854.72	4637
854.854	4740
854.988	4645
855.122	4599
855.256	4588
855.39	4618
855.524	4801
855.658	4733
855.792	4664
855.926	4740
856.06	4752
856.194	4805
856.327	4714
856.461	4645
856.595	4611
856.729	4645
856.862	4714
856.996	4733
857.13	4733
857.263	4729
857.397	4790
857.53	4653
857.664	4752
857.797	4771
857.931	4816
858.064	4710
858.197	4786
858.331	4694
858.464	4603
858.597	4561
858.731	4615
858.864	4599
858.997	4596
859.13	4706
859.263	4744
859.396	4694
859.529	4611
859.662	4569
859.795	4535
859.928	4611
860.061	4790
860.194	4771
860.327	4679
860.46	4565
860.592	4675
860.725	4740
860.858	4729
860.99	4607
861.123	4523
861.256	4531
861.388	4653
861.521	5433
861.653	4489
861.786	4481
861.918	4474
862.05	4519
862.183	4573
862.315	4622
862.447	4694
862.58	4558
862.712	4402
862.844	4310
862.976	4436
863.108	4470
863.24	4881
863.372	4383
863.504	4417
863.636	4417
863.768	4504
863.9	4409
864.032	4386
864.164	4394
864.296	4432
864.428	4584
864.559	4538
864.691	4497
864.823	4588
864.954	4527
865.086	4542
865.217	4455
865.349	4424
865.48	4489
865.612	4504
865.743	4653
865.875	4489
866.006	4459
866.137	4462
866.269	4440
866.4	4409
866.531	4432
866.662	4390
866.793	4402
866.924	4466
867.055	4538
867.186	4466
867.317	4402
867.448	4337
867.579	4386
867.71	4440
867.841	4363
867.972	4462
868.103	4455
868.233	4402
868.364	4455
868.495	4538
868.625	4656
868.756	4778
868.886	4611
869.017	4615
869.147	4831
869.278	4729
869.408	4687
869.539	4645
869.669	4691
869.799	4649
869.929	4748
870.06	4744
870.19	4942
870.32	4919
870.45	4938
870.58	5025
870.71	5121
870.84	5113
870.97	4987
871.1	4854
871.23	5071
871.36	5140
871.489	5090
871.619	5109
871.749	5094
871.879	5132
872.008	5162
872.138	5033
872.267	4938
872.397	4831
872.526	4801
872.656	4721
872.785	4812
872.915	4923
873.044	4999
873.173	4942
873.303	4965
873.432	4984
873.561	4976
873.69	4858
873.819	4816
873.948	4923
874.077	4858
874.206	4755
874.335	4824
874.464	4911
874.593	5075
874.722	4934
874.851	5121
874.979	5025
875.108	5033
875.237	4870
875.365	4892
875.494	4862
875.623	4961
875.751	4862
875.88	4896
876.008	4972
876.136	5025
876.265	5193
876.393	5406
876.521	5235
876.65	5204
876.778	5181
876.906	5143
877.034	5006
877.162	5075
877.29	4968
877.418	5033
877.546	5037
877.674	5064
877.802	4991
877.93	4984
878.058	4885
878.185	4889
878.313	4938
878.441	4972
878.568	4748
878.696	4904
878.824	4919
878.951	4995
879.079	5086
879.206	5269
879.333	5102
879.461	4957
879.588	5022
879.715	5159
879.842	5242
879.97	5022
880.097	4793
880.224	4759
880.351	4790
880.478	4831
880.605	4809
880.732	4812
880.859	5102
880.986	4904
881.112	4930
881.239	4782
881.366	4645
881.493	4653
881.619	4622
881.746	4626
881.872	4618
881.999	4653
882.125	4653
882.252	4767
882.378	4831
882.505	4961
882.631	4801
882.757	4740
882.883	4759
883.01	4755
883.136	4698
883.262	4622
883.388	4656
883.514	4835
883.64	4839
883.766	4774
883.892	4649
884.018	4694
884.143	4889
884.269	5006
884.395	4714
884.52	4622
884.646	4656
884.772	4599
884.897	4596
885.023	4649
885.148	4805
885.274	4862
885.399	4809
885.524	4755
885.65	4725
885.775	4748
885.9	4706
886.025	4839
886.15	4767
886.275	4733
886.4	4588
886.525	4706
886.65	4668
886.775	4706
886.9	4953
887.025	5064
887.149	4812
887.274	4691
887.399	4554
887.523	4615
887.648	4565
887.773	4561
887.897	4752
888.021	4755
888.146	4687
888.27	4793
888.395	4965
888.519	4797
888.643	4835
888.767	4828
888.891	4679
889.015	4626
889.139	4656
889.263	4630
889.387	4782
889.511	4877
889.635	4828
889.759	4599
889.883	4626
890.006	4725
890.13	4812
890.254	4615
890.377	4710
890.501	4615
890.624	4588
890.748	4672
890.871	4558
890.995	4402
891.118	4398
891.241	4531
891.364	4577
891.488	4649
891.611	4508
891.734	4569
891.857	4588
891.98	4546
892.103	4687
892.226	4561
892.349	4489
892.471	4413
892.594	4580
892.717	4596
892.839	4622
892.962	4584
893.085	4615
893.207	4611
893.33	4481
893.452	4512
893.575	4694
893.697	4588
893.819	4839
893.941	4870
894.064	4801
894.186	4615
894.308	4588
894.43	4729
894.552	4850
894.674	4801
894.796	4588
894.918	4611
895.04	4603
895.161	4668
895.283	4626
895.405	4584
895.526	4615
895.648	4664
895.769	4698
895.891	4721
896.012	4763
896.134	4656
896.255	4634
896.376	4653
896.498	4615
896.619	4691
896.74	4603
896.861	4672
896.982	4934
897.103	5064
897.224	4870
897.345	4782
897.466	4660
897.587	4744
897.708	4831
897.828	4824
897.949	4668
898.07	4622
898.19	4641
898.311	4835
898.431	4668
898.552	4698
898.672	4828
898.792	4782
898.913	4748
899.033	4634
899.153	4538
899.273	4478
899.393	4523
899.513	4523
899.633	4478
899.753	4508
899.873	4531
899.993	4497
900.113	4558
900.232	4607
900.352	4580
900.472	4523
900.591	4451
900.711	4527
900.83	4474
900.95	4607
901.069	4656
901.189	4558
901.308	4341
901.427	4341
901.546	4386
901.665	4500
901.784	4497
901.904	4409
902.023	4356
902.141	4249
902.26	4181
902.379	4314
902.498	4265
902.617	4219
902.735	4409
902.854	4356
902.973	4325
903.091	4253
903.21	4242
903.328	4341
903.446	4306
903.565	4230
903.683	4314
903.801	4280
903.919	4379
904.038	4413
904.156	4306
904.274	4485
904.392	4432
904.51	4436
904.627	4497
904.745	4637
904.863	4615
904.981	4409
905.098	4284
905.216	4333
905.334	4413
905.451	4421
905.569	4447
905.686	4542
905.803	4565
905.921	4440
906.038	4603
906.155	4470
906.272	4390
906.389	4451
906.506	4348
906.623	4386
906.74	4443
906.857	4299
906.974	4367
907.091	4573
907.208	4672
907.324	4603
907.441	4508
907.557	4333
907.674	4367
907.79	4314
907.907	4390
908.023	4474
908.139	4474
908.256	4459
908.372	4455
908.488	4478
908.604	4299
908.72	4352
908.836	4405
908.952	4371
909.068	4432
909.184	4554
909.3	4516
909.415	4615
909.531	4596
909.647	4417
909.762	4379
909.878	4405
909.993	4478
910.108	4398
910.224	4386
910.339	4424
910.454	4409
910.57	4379
910.685	4386
910.8	4679
910.915	4607
911.03	4489
911.145	4299
911.259	4314
911.374	4356
911.489	4295
911.604	4299
911.718	4173
911.833	4177
911.947	4090
912.062	4044
912.176	4219
912.291	4223
912.405	4253
912.519	4466
912.633	4519
912.748	4402
912.862	4306
912.976	4211
913.09	4128
913.204	4211
913.318	4272
913.431	4398
913.545	4360
913.659	4443
913.772	4371
913.886	4211
914	4211
914.113	4402
914.226	4402
914.34	4390
914.453	4246
914.566	4428
914.68	4303
914.793	4341
914.906	4204
915.019	4162
915.132	4078
915.245	4219
915.358	4204
915.47	4249
915.583	4272
915.696	4318
915.809	4436
915.921	4455
916.034	4329
916.146	4295
916.259	4272
916.371	4383
916.483	4386
916.595	4284
916.708	4341
916.82	4291
916.932	4314
917.044	4341
917.156	4367
917.268	4249
917.38	4344
917.491	4291
917.603	4333
917.715	4440
917.826	4470
917.938	4356
918.049	4253
918.161	4413
918.272	4584
918.384	4542
918.495	4436
918.606	4329
918.717	4238
918.828	4356
918.939	4402
919.05	4295
919.161	4333
919.272	4124
919.383	4299
919.494	4459
919.604	4672
919.715	4459
919.826	4375
919.936	4360
920.047	4512
920.157	4462
920.267	4694
920.378	4565
920.488	4527
920.598	4679
920.708	4885
920.818	4759
920.928	4805
921.038	4949
921.148	4915
921.258	4626
921.368	4554
921.477	4508
921.587	4409
921.697	4398
921.806	4615
921.916	4474
922.025	4287
922.134	4272
922.244	4230
922.353	4337
922.462	4147
922.571	4131
922.68	4025
922.789	3991
922.898	3964
923.007	3979
923.116	4105
923.224	4063
923.333	4063
923.442	3972
923.55	4029
923.659	4055
923.767	4082
923.876	4048
923.984	4116
924.092	4036
924.201	4055
924.309	4131
924.417	4177
924.525	4097
924.633	4135
924.741	5003
924.849	3930
924.956	4154
925.064	3949
925.172	3979
925.279	3937
925.387	4093
925.494	4063
925.602	4215
925.709	4188
925.816	4071
925.924	4188
926.031	4215
926.138	4200
926.245	4196
926.352	4135
926.459	4280
926.566	4318
926.673	4143
926.779	4078
926.886	4116
926.993	4021
927.099	3983
927.206	3968
927.312	3926
927.419	4055
927.525	4055
927.631	4112
927.737	3953
927.843	3975
927.95	3816
928.056	3945
928.162	4010
928.267	4067
928.373	4603
928.479	4128
928.585	3865
928.69	4025
928.796	4097
928.901	3979
929.007	3850
929.112	3998
929.218	3922
929.323	3903
929.428	3907
929.533	4067
929.638	3941
929.743	3934
929.848	4063
929.953	3975
930.058	3926
930.163	3766
930.267	3865
930.372	3987
930.477	3842
930.581	4112
930.685	3987
930.79	3865
930.894	3838
930.998	3876
931.103	4036
931.207	3736
931.311	3690
931.415	3667
931.519	3542
931.623	3530
