Data from test_V78500241_1278.txt Node
Date: Fri Mar 25 16:57:53 CST 2022
User: usil
Spectrometer: V785-0024
Trigger mode: 0
Integration Time (sec): 4.000000E-1
Scans to average: 1
Nonlinearity correction enabled: false
Boxcar width: 0
Storing dark spectrum: false
XAxis mode: Wavelengths
Number of Pixels in Spectrum: 1024
>>>>>Begin Spectral Data<<<<<
801.071	8065
801.214	8084
801.356	7875
801.499	7860
801.641	7864
801.783	7833
801.926	7970
802.068	7909
802.211	8012
802.353	8020
802.496	7906
802.638	7944
802.78	7951
802.923	7921
803.065	7940
803.208	7883
803.35	8012
803.492	8031
803.635	8210
803.777	8050
803.919	8191
804.061	8488
804.204	8240
804.346	8069
804.488	8024
804.63	8111
804.773	8103
804.915	8157
805.057	8366
805.199	8183
805.341	8294
805.483	8267
805.626	8240
805.768	8138
805.91	8286
806.052	8263
806.194	8046
806.336	8275
806.478	8096
806.62	8077
806.762	8142
806.904	8377
807.046	8495
807.188	8301
807.33	8320
807.472	8374
807.614	8202
807.756	8092
807.898	8008
808.04	7902
808.182	7993
808.324	7963
808.465	7978
808.607	8119
808.749	8126
808.891	8252
809.033	8301
809.174	8172
809.316	8111
809.458	8084
809.6	8050
809.741	8039
809.883	8027
810.025	8084
810.166	8008
810.308	8065
810.45	8126
810.591	7917
810.733	7772
810.875	7639
811.016	7556
811.158	7514
811.299	7662
811.441	7666
811.582	7795
811.724	7628
811.865	7548
812.007	7567
812.148	7647
812.29	7624
812.431	7734
812.573	7887
812.714	8005
812.855	8130
812.997	8199
813.138	8324
813.279	8221
813.421	8157
813.562	7970
813.703	7902
813.845	7822
813.986	7480
814.127	7282
814.268	7221
814.41	7164
814.551	7194
814.692	7240
814.833	7069
814.974	7145
815.115	7118
815.256	7046
815.397	6981
815.539	6970
815.68	6848
815.821	6818
815.962	6856
816.103	6890
816.244	6791
816.385	6669
816.526	6650
816.666	6536
816.807	6327
816.948	6441
817.089	6513
817.23	6433
817.371	6433
817.512	6372
817.653	6388
817.793	6365
817.934	6395
818.075	6513
818.216	6494
818.356	6429
818.497	6251
818.638	6155
818.778	6163
818.919	6197
819.06	6163
819.2	6319
819.341	6270
819.481	6384
819.622	6570
819.762	6741
819.903	6768
820.043	6620
820.184	6604
820.324	6616
820.465	6741
820.605	6677
820.746	6684
820.886	6525
821.026	6642
821.167	6738
821.307	6772
821.447	6791
821.588	6658
821.728	6570
821.868	6521
822.008	6304
822.149	6395
822.289	6346
822.429	6190
822.569	6136
822.709	6163
822.849	5958
822.99	5958
823.13	5908
823.27	5901
823.41	5805
823.55	5767
823.69	5771
823.83	5786
823.97	5642
824.11	5566
824.25	5528
824.389	5562
824.529	5623
824.669	5532
824.809	5688
824.949	5634
825.089	5627
825.228	5570
825.368	5474
825.508	5440
825.648	5402
825.787	5402
825.927	5448
826.067	5284
826.206	5299
826.346	5372
826.485	5436
826.625	5429
826.765	5573
826.904	5482
827.044	5288
827.183	5181
827.323	5181
827.462	5250
827.601	5185
827.741	5178
827.88	5250
828.02	5151
828.159	5280
828.298	5311
828.437	5360
828.577	5292
828.716	5509
828.855	5334
828.994	5098
829.134	5147
829.273	5227
829.412	5136
829.551	5143
829.69	5166
829.829	5258
829.968	5357
830.107	5261
830.246	5292
830.385	5185
830.524	5155
830.663	5025
830.802	4976
830.941	4919
831.08	4900
831.219	4991
831.357	5010
831.496	5208
831.635	4972
831.774	4835
831.913	4843
832.051	4736
832.19	4733
832.329	4896
832.467	4729
832.606	4634
832.744	4714
832.883	4759
833.022	4744
833.16	4812
833.299	4843
833.437	4828
833.576	4816
833.714	4885
833.852	4854
833.991	4965
834.129	4938
834.267	5018
834.406	4908
834.544	5025
834.682	4938
834.821	4976
834.959	5178
835.097	4942
835.235	5178
835.373	5056
835.511	5075
835.65	5102
835.788	5022
835.926	4911
836.064	4892
836.202	4915
836.34	5185
836.478	5227
836.615	5132
836.753	5239
836.891	5334
837.029	5223
837.167	5197
837.305	5216
837.443	5109
837.58	5102
837.718	5201
837.856	5147
837.993	5105
838.131	5212
838.269	5212
838.406	5208
838.544	5181
838.681	5033
838.819	5060
838.956	4942
839.094	4889
839.231	4965
839.369	5151
839.506	5414
839.643	5311
839.781	5064
839.918	5010
840.055	5086
840.193	5094
840.33	5094
840.467	5098
840.604	5189
840.742	5455
840.879	5124
841.016	5132
841.153	5124
841.29	5402
841.427	5353
841.564	5318
841.701	5376
841.838	5254
841.975	5185
842.112	5265
842.249	5147
842.385	5102
842.522	5326
842.659	5155
842.796	5174
842.933	5231
843.069	5136
843.206	5140
843.343	5303
843.479	5220
843.616	5235
843.752	5052
843.889	4991
844.025	5220
844.162	4976
844.298	5197
844.435	5117
844.571	5079
844.708	5231
844.844	5322
844.98	5345
845.117	5273
845.253	5166
845.389	5105
845.525	5181
845.661	5113
845.798	5052
845.934	5159
846.07	5041
846.206	5185
846.342	5250
846.478	5159
846.614	5045
846.75	4938
846.886	4946
847.022	5151
847.158	5086
847.294	5079
847.429	5098
847.565	5033
847.701	5284
847.837	4881
847.972	4782
848.108	5022
848.244	4976
848.379	4774
848.515	4763
848.65	4706
848.786	4778
848.921	4801
849.057	4839
849.192	4904
849.328	4797
849.463	4847
849.598	4816
849.734	4736
849.869	4691
850.004	4653
850.14	4679
850.275	4645
850.41	4535
850.545	4558
850.68	4603
850.815	4622
850.95	4656
851.085	4847
851.22	4759
851.355	4668
851.49	4603
851.625	4679
851.76	4660
851.895	4519
852.03	4497
852.165	4668
852.299	4721
852.434	4831
852.569	4774
852.703	4809
852.838	4843
852.973	4949
853.107	4923
853.242	4790
853.376	4687
853.511	4554
853.645	4618
853.78	4797
853.914	4714
854.048	4679
854.183	4668
854.317	4740
854.451	4831
854.585	4706
854.72	4615
854.854	4736
854.988	4569
855.122	4649
855.256	4569
855.39	4626
855.524	4740
855.658	4736
855.792	4725
855.926	4729
856.06	4733
856.194	4824
856.327	4702
856.461	4615
856.595	4561
856.729	4630
856.862	4725
856.996	4687
857.13	4755
857.263	4733
857.397	4786
857.53	4641
857.664	4759
857.797	4771
857.931	4786
858.064	4683
858.197	4778
858.331	4603
858.464	4599
858.597	4519
858.731	4691
858.864	4649
858.997	4580
859.13	4656
859.263	4645
859.396	4714
859.529	4603
859.662	4577
859.795	4538
859.928	4603
860.061	4714
860.194	4759
860.327	4637
860.46	4546
860.592	4683
860.725	4717
860.858	4714
860.99	4611
861.123	4538
861.256	4516
861.388	4599
861.521	5170
861.653	4462
861.786	4447
861.918	4478
862.05	4497
862.183	4569
862.315	4641
862.447	4675
862.58	4493
862.712	4428
862.844	4272
862.976	4474
863.108	4485
863.24	4870
863.372	4295
863.504	4440
863.636	4402
863.768	4527
863.9	4474
864.032	4371
864.164	4440
864.296	4500
864.428	4538
864.559	4542
864.691	4554
864.823	4535
864.954	4546
865.086	4485
865.217	4421
865.349	4436
865.48	4474
865.612	4470
865.743	4668
865.875	4432
866.006	4432
866.137	4470
866.269	4440
866.4	4474
866.531	4428
866.662	4394
866.793	4455
866.924	4436
867.055	4493
867.186	4485
867.317	4451
867.448	4402
867.579	4390
867.71	4421
867.841	4352
867.972	4470
868.103	4455
868.233	4417
868.364	4394
868.495	4440
868.625	4679
868.756	4812
868.886	4565
869.017	4577
869.147	4752
869.278	4786
869.408	4634
869.539	4634
869.669	4702
869.799	4683
869.929	4714
870.06	4736
870.19	4965
870.32	4927
870.45	4968
870.58	5014
870.71	5060
870.84	5094
870.97	4953
871.1	4908
871.23	5124
871.36	5151
871.489	5060
871.619	5113
871.749	5162
871.879	5094
872.008	5220
872.138	5022
872.267	5003
872.397	4790
872.526	4782
872.656	4725
872.785	4748
872.915	4995
873.044	4999
873.173	4900
873.303	4949
873.432	4938
873.561	4961
873.69	4870
873.819	4812
873.948	4919
874.077	4843
874.206	4755
874.335	4809
874.464	4930
874.593	5064
874.722	4991
874.851	5113
874.979	5041
875.108	5006
875.237	4953
875.365	4839
875.494	4911
875.623	4961
875.751	4790
875.88	4862
876.008	5014
876.136	4987
876.265	5181
876.393	5337
876.521	5254
876.65	5212
876.778	5162
876.906	5045
877.034	5041
877.162	5033
877.29	4984
877.418	5033
877.546	4987
877.674	5060
877.802	5029
877.93	4999
878.058	4984
878.185	4820
878.313	4911
878.441	4892
878.568	4820
878.696	4824
878.824	4919
878.951	4965
879.079	5121
879.206	5277
879.333	5105
879.461	4980
879.588	5022
879.715	5147
879.842	5204
879.97	4968
880.097	4733
880.224	4755
880.351	4767
880.478	4835
880.605	4790
880.732	4740
880.859	5033
880.986	4908
881.112	4858
881.239	4774
881.366	4675
881.493	4588
881.619	4603
881.746	4656
881.872	4691
881.999	4660
882.125	4694
882.252	4801
882.378	4839
882.505	4972
882.631	4828
882.757	4653
882.883	4717
883.01	4714
883.136	4637
883.262	4599
883.388	4580
883.514	4774
883.64	4835
883.766	4767
883.892	4645
884.018	4721
884.143	4877
884.269	4984
884.395	4653
884.52	4588
884.646	4634
884.772	4603
884.897	4569
885.023	4733
885.148	4790
885.274	4824
885.399	4809
885.524	4744
885.65	4691
885.775	4740
885.9	4710
886.025	4782
886.15	4801
886.275	4729
886.4	4618
886.525	4675
886.65	4725
886.775	4694
886.9	4877
887.025	5025
887.149	4793
887.274	4626
887.399	4577
887.523	4569
887.648	4611
887.773	4565
887.897	4778
888.021	4744
888.146	4649
888.27	4805
888.395	4828
888.519	4774
888.643	4839
888.767	4790
888.891	4679
889.015	4577
889.139	4660
889.263	4569
889.387	4729
889.511	4839
889.635	4797
889.759	4672
889.883	4645
890.006	4740
890.13	4782
890.254	4656
890.377	4668
890.501	4554
890.624	4497
890.748	4683
890.871	4535
890.995	4405
891.118	4424
891.241	4478
891.364	4531
891.488	4611
891.611	4523
891.734	4558
891.857	4577
891.98	4538
892.103	4660
892.226	4569
892.349	4500
892.471	4470
892.594	4516
892.717	4542
892.839	4565
892.962	4615
893.085	4618
893.207	4531
893.33	4462
893.452	4523
893.575	4672
893.697	4615
893.819	4797
893.941	4816
894.064	4733
894.186	4573
894.308	4531
894.43	4721
894.552	4824
894.674	4706
894.796	4527
894.918	4592
895.04	4584
895.161	4714
895.283	4615
895.405	4607
895.526	4649
895.648	4706
895.769	4698
895.891	4725
896.012	4710
896.134	4736
896.255	4675
896.376	4691
896.498	4592
896.619	4721
896.74	4561
896.861	4664
896.982	4934
897.103	5075
897.224	4793
897.345	4717
897.466	4675
897.587	4736
897.708	4843
897.828	4786
897.949	4630
898.07	4611
898.19	4660
898.311	4835
898.431	4656
898.552	4710
898.672	4790
898.792	4835
898.913	4710
899.033	4649
899.153	4531
899.273	4379
899.393	4558
899.513	4500
899.633	4497
899.753	4508
899.873	4478
899.993	4580
900.113	4546
900.232	4592
900.352	4535
900.472	4485
900.591	4424
900.711	4443
900.83	4459
900.95	4599
901.069	4656
901.189	4531
901.308	4329
901.427	4314
901.546	4390
901.665	4447
901.784	4504
901.904	4421
902.023	4314
902.141	4150
902.26	4173
902.379	4280
902.498	4253
902.617	4291
902.735	4375
902.854	4379
902.973	4314
903.091	4188
903.21	4192
903.328	4291
903.446	4234
903.565	4261
903.683	4314
903.801	4299
903.919	4352
904.038	4417
904.156	4276
904.274	4413
904.392	4379
904.51	4440
904.627	4504
904.745	4523
904.863	4607
904.981	4386
905.098	4303
905.216	4348
905.334	4379
905.451	4428
905.569	4405
905.686	4558
905.803	4599
905.921	4428
906.038	4504
906.155	4485
906.272	4394
906.389	4451
906.506	4348
906.623	4341
906.74	4375
906.857	4299
906.974	4356
907.091	4569
907.208	4645
907.324	4599
907.441	4447
907.557	4367
907.674	4333
907.79	4329
907.907	4402
908.023	4432
908.139	4493
908.256	4402
908.372	4424
908.488	4485
908.604	4337
908.72	4284
908.836	4333
908.952	4402
909.068	4432
909.184	4561
909.3	4481
909.415	4584
909.531	4588
909.647	4371
909.762	4375
909.878	4318
909.993	4478
910.108	4386
910.224	4386
910.339	4489
910.454	4421
910.57	4329
910.685	4295
910.8	4653
910.915	4558
911.03	4542
911.145	4337
911.259	4303
911.374	4352
911.489	4276
911.604	4261
911.718	4181
911.833	4177
911.947	4048
912.062	4029
912.176	4238
912.291	4215
912.405	4200
912.519	4459
912.633	4512
912.748	4322
912.862	4265
912.976	4192
913.09	4112
913.204	4162
913.318	4276
913.431	4375
913.545	4341
913.659	4436
913.772	4333
913.886	4268
914	4196
914.113	4375
914.226	4363
914.34	4413
914.453	4200
914.566	4405
914.68	4299
914.793	4322
914.906	4150
915.019	4093
915.132	4032
915.245	4207
915.358	4181
915.47	4181
915.583	4268
915.696	4337
915.809	4386
915.921	4440
916.034	4219
916.146	4257
916.259	4215
916.371	4402
916.483	4341
916.595	4234
916.708	4325
916.82	4299
916.932	4306
917.044	4333
917.156	4348
917.268	4196
917.38	4246
917.491	4261
917.603	4303
917.715	4402
917.826	4436
917.938	4390
918.049	4242
918.161	4379
918.272	4504
918.384	4504
918.495	4474
918.606	4310
918.717	4211
918.828	4352
918.939	4360
919.05	4219
919.161	4303
919.272	4093
919.383	4207
919.494	4451
919.604	4569
919.715	4436
919.826	4314
919.936	4352
920.047	4489
920.157	4500
920.267	4729
920.378	4542
920.488	4436
920.598	4717
920.708	4835
920.818	4744
920.928	4721
921.038	4923
921.148	4873
921.258	4573
921.368	4580
921.477	4519
921.587	4424
921.697	4390
921.806	4512
921.916	4428
922.025	4227
922.134	4284
922.244	4169
922.353	4314
922.462	4116
922.571	4135
922.68	4029
922.789	3926
922.898	4063
923.007	3949
923.116	4059
923.224	4029
923.333	4101
923.442	3991
923.55	4010
923.659	3991
923.767	4082
923.876	4029
923.984	4112
924.092	3941
924.201	4128
924.309	4093
924.417	4135
924.525	4048
924.633	4097
924.741	4999
924.849	3915
924.956	4128
925.064	3953
925.172	3899
925.279	3983
925.387	4078
925.494	4040
925.602	4200
925.709	4185
925.816	4032
925.924	4101
926.031	4257
926.138	4154
926.245	4166
926.352	4086
926.459	4253
926.566	4284
926.673	4185
926.779	4055
926.886	4082
926.993	3994
927.099	3972
927.206	3953
927.312	3934
927.419	4074
927.525	3987
927.631	4109
927.737	3941
927.843	3937
927.95	3831
928.056	3926
928.162	4010
928.267	4051
928.373	4714
928.479	4109
928.585	3861
928.69	4029
928.796	4010
928.901	3972
929.007	3789
929.112	3975
929.218	3941
929.323	3899
929.428	3968
929.533	4044
929.638	3892
929.743	3941
929.848	3991
929.953	4002
930.058	3899
930.163	3804
930.267	3816
930.372	3907
930.477	3793
930.581	4051
930.685	3956
930.79	3823
930.894	3907
930.998	3823
931.103	4002
931.207	3740
931.311	3705
931.415	3667
931.519	3523
931.623	3530
