Data from test_V78500241_885.txt Node
Date: Fri Mar 25 16:55:09 CST 2022
User: usil
Spectrometer: V785-0024
Trigger mode: 0
Integration Time (sec): 4.000000E-1
Scans to average: 1
Nonlinearity correction enabled: false
Boxcar width: 0
Storing dark spectrum: false
XAxis mode: Wavelengths
Number of Pixels in Spectrum: 1024
>>>>>Begin Spectral Data<<<<<
801.071	8016
801.214	8012
801.356	7921
801.499	7887
801.641	7772
801.783	7845
801.926	7963
802.068	7932
802.211	7986
802.353	7997
802.496	7913
802.638	7894
802.78	7890
802.923	7936
803.065	7890
803.208	7894
803.35	7974
803.492	8172
803.635	8161
803.777	7986
803.919	8111
804.061	8434
804.204	8134
804.346	8012
804.488	8054
804.63	8103
804.773	8001
804.915	8142
805.057	8347
805.199	8138
805.341	8252
805.483	8244
805.626	8164
805.768	8077
805.91	8183
806.052	8240
806.194	8153
806.336	8221
806.478	8062
806.62	8092
806.762	8103
806.904	8305
807.046	8507
807.188	8374
807.33	8324
807.472	8301
807.614	8157
807.756	8100
807.898	8039
808.04	7887
808.182	7894
808.324	7887
808.465	7913
808.607	8065
808.749	8145
808.891	8229
809.033	8256
809.174	8191
809.316	8073
809.458	8081
809.6	7932
809.741	8062
809.883	8088
810.025	8077
810.166	8054
810.308	7944
810.45	8035
810.591	7928
810.733	7693
810.875	7616
811.016	7620
811.158	7483
811.299	7567
811.441	7685
811.582	7674
811.724	7597
811.865	7529
812.007	7643
812.148	7613
812.29	7632
812.431	7696
812.573	7841
812.714	7909
812.855	8157
812.997	8187
813.138	8320
813.279	8176
813.421	8126
813.562	8012
813.703	7814
813.845	7746
813.986	7506
814.127	7316
814.268	7263
814.41	7171
814.551	7141
814.692	7175
814.833	7046
814.974	7038
815.115	7107
815.256	7000
815.397	6920
815.539	6962
815.68	6787
815.821	6760
815.962	6859
816.103	6837
816.244	6741
816.385	6616
816.526	6627
816.666	6502
816.807	6247
816.948	6433
817.089	6460
817.23	6426
817.371	6399
817.512	6380
817.653	6456
817.793	6403
817.934	6426
818.075	6414
818.216	6418
818.356	6376
818.497	6239
818.638	6125
818.778	6228
818.919	6163
819.06	6163
819.2	6311
819.341	6251
819.481	6338
819.622	6490
819.762	6734
819.903	6726
820.043	6623
820.184	6509
820.324	6608
820.465	6677
820.605	6658
820.746	6620
820.886	6532
821.026	6642
821.167	6681
821.307	6825
821.447	6787
821.588	6768
821.728	6612
821.868	6445
822.008	6346
822.149	6357
822.289	6376
822.429	6133
822.569	6038
822.709	6098
822.849	5912
822.99	5912
823.13	5965
823.27	5923
823.41	5817
823.55	5729
823.69	5729
823.83	5802
823.97	5707
824.11	5535
824.25	5516
824.389	5570
824.529	5615
824.669	5520
824.809	5646
824.949	5630
825.089	5554
825.228	5604
825.368	5387
825.508	5357
825.648	5307
825.787	5436
825.927	5429
826.067	5353
826.206	5288
826.346	5387
826.485	5433
826.625	5391
826.765	5524
826.904	5501
827.044	5307
827.183	5178
827.323	5113
827.462	5212
827.601	5162
827.741	5227
827.88	5223
828.02	5113
828.159	5299
828.298	5292
828.437	5360
828.577	5265
828.716	5539
828.855	5330
828.994	5143
829.134	5147
829.273	5166
829.412	5143
829.551	5178
829.69	5159
829.829	5254
829.968	5391
830.107	5227
830.246	5292
830.385	5143
830.524	5178
830.663	5060
830.802	4923
830.941	4911
831.08	4896
831.219	4968
831.357	5006
831.496	5159
831.635	4957
831.774	4873
831.913	4850
832.051	4767
832.19	4748
832.329	4881
832.467	4706
832.606	4683
832.744	4710
832.883	4763
833.022	4710
833.16	4778
833.299	4850
833.437	4870
833.576	4847
833.714	4850
833.852	4885
833.991	4873
834.129	4957
834.267	4968
834.406	4927
834.544	5010
834.682	4946
834.821	4949
834.959	5143
835.097	5018
835.235	5155
835.373	5071
835.511	5056
835.65	5037
835.788	4999
835.926	4892
836.064	4923
836.202	4923
836.34	5212
836.478	5246
836.615	5174
836.753	5181
836.891	5311
837.029	5197
837.167	5185
837.305	5155
837.443	5212
837.58	5048
837.718	5303
837.856	5147
837.993	5105
838.131	5235
838.269	5166
838.406	5136
838.544	5223
838.681	5022
838.819	5052
838.956	4896
839.094	4923
839.231	4972
839.369	5109
839.506	5414
839.643	5280
839.781	5075
839.918	5014
840.055	5094
840.193	5155
840.33	5121
840.467	5098
840.604	5155
840.742	5452
840.879	5052
841.016	5064
841.153	5159
841.29	5364
841.427	5364
841.564	5265
841.701	5307
841.838	5242
841.975	5246
842.112	5299
842.249	5151
842.385	5090
842.522	5360
842.659	5170
842.796	5178
842.933	5132
843.069	5155
843.206	5147
843.343	5269
843.479	5204
843.616	5212
843.752	5025
843.889	5022
844.025	5193
844.162	5037
844.298	5212
844.435	5071
844.571	5083
844.708	5162
844.844	5250
844.98	5284
845.117	5269
845.253	5159
845.389	5041
845.525	5204
845.661	5170
845.798	5075
845.934	5147
846.07	5041
846.206	5193
846.342	5246
846.478	5174
846.614	5033
846.75	4999
846.886	4934
847.022	5094
847.158	4965
847.294	5029
847.429	5045
847.565	5064
847.701	5265
847.837	4850
847.972	4854
848.108	4908
848.244	4892
848.379	4748
848.515	4755
848.65	4717
848.786	4710
848.921	4748
849.057	4847
849.192	4900
849.328	4793
849.463	4835
849.598	4797
849.734	4733
849.869	4672
850.004	4603
850.14	4687
850.275	4592
850.41	4519
850.545	4535
850.68	4558
850.815	4622
850.95	4618
851.085	4835
851.22	4729
851.355	4599
851.49	4599
851.625	4672
851.76	4645
851.895	4573
852.03	4558
852.165	4611
852.299	4683
852.434	4752
852.569	4721
852.703	4774
852.838	4854
852.973	4892
853.107	4889
853.242	4763
853.376	4706
853.511	4554
853.645	4577
853.78	4805
853.914	4687
854.048	4664
854.183	4607
854.317	4637
854.451	4839
854.585	4675
854.72	4599
854.854	4729
854.988	4542
855.122	4641
855.256	4531
855.39	4679
855.524	4771
855.658	4691
855.792	4694
855.926	4687
856.06	4755
856.194	4763
856.327	4660
856.461	4573
856.595	4596
856.729	4672
856.862	4744
856.996	4679
857.13	4702
857.263	4736
857.397	4771
857.53	4588
857.664	4748
857.797	4740
857.931	4782
858.064	4691
858.197	4733
858.331	4645
858.464	4573
858.597	4516
858.731	4573
858.864	4637
858.997	4546
859.13	4630
859.263	4679
859.396	4710
859.529	4577
859.662	4611
859.795	4497
859.928	4588
860.061	4778
860.194	4786
860.327	4592
860.46	4558
860.592	4714
860.725	4736
860.858	4698
860.99	4531
861.123	4470
861.256	4538
861.388	4622
861.521	5330
861.653	4489
861.786	4421
861.918	4462
862.05	4474
862.183	4546
862.315	4599
862.447	4618
862.58	4584
862.712	4367
862.844	4276
862.976	4455
863.108	4527
863.24	4774
863.372	4318
863.504	4390
863.636	4421
863.768	4516
863.9	4386
864.032	4333
864.164	4436
864.296	4455
864.428	4519
864.559	4569
864.691	4508
864.823	4485
864.954	4481
865.086	4493
865.217	4455
865.349	4356
865.48	4451
865.612	4504
865.743	4592
865.875	4478
866.006	4421
866.137	4459
866.269	4462
866.4	4424
866.531	4436
866.662	4413
866.793	4421
866.924	4417
867.055	4504
867.186	4436
867.317	4360
867.448	4394
867.579	4360
867.71	4375
867.841	4375
867.972	4474
868.103	4466
868.233	4436
868.364	4459
868.495	4474
868.625	4641
868.756	4778
868.886	4615
869.017	4622
869.147	4755
869.278	4736
869.408	4641
869.539	4630
869.669	4786
869.799	4653
869.929	4721
870.06	4679
870.19	4919
870.32	4915
870.45	4930
870.58	4984
870.71	5136
870.84	5086
870.97	4915
871.1	4892
871.23	5147
871.36	5109
871.489	5037
871.619	5098
871.749	5037
871.879	5117
872.008	5197
872.138	5048
872.267	4980
872.397	4835
872.526	4767
872.656	4717
872.785	4763
872.915	4949
873.044	5056
873.173	4923
873.303	4927
873.432	4987
873.561	4923
873.69	4835
873.819	4839
873.948	4908
874.077	4850
874.206	4744
874.335	4755
874.464	4946
874.593	4999
874.722	4904
874.851	5090
874.979	5029
875.108	5037
875.237	4919
875.365	4854
875.494	4885
875.623	4957
875.751	4812
875.88	4866
876.008	4904
876.136	5006
876.265	5204
876.393	5273
876.521	5193
876.65	5288
876.778	5132
876.906	5067
877.034	5071
877.162	5003
877.29	4946
877.418	5018
877.546	4991
877.674	5006
877.802	5022
877.93	4995
878.058	4919
878.185	4850
878.313	4968
878.441	4938
878.568	4778
878.696	4835
878.824	4980
878.951	4961
879.079	5048
879.206	5261
879.333	5033
879.461	4934
879.588	4972
879.715	5071
879.842	5197
879.97	5018
880.097	4763
880.224	4744
880.351	4843
880.478	4774
880.605	4759
880.732	4763
880.859	5079
880.986	4927
881.112	4866
881.239	4809
881.366	4679
881.493	4584
881.619	4538
881.746	4634
881.872	4672
881.999	4634
882.125	4691
882.252	4740
882.378	4797
882.505	4904
882.631	4767
882.757	4637
882.883	4721
883.01	4733
883.136	4691
883.262	4603
883.388	4607
883.514	4763
883.64	4870
883.766	4793
883.892	4611
884.018	4725
884.143	4892
884.269	4987
884.395	4668
884.52	4588
884.646	4630
884.772	4618
884.897	4538
885.023	4611
885.148	4736
885.274	4828
885.399	4801
885.524	4694
885.65	4702
885.775	4736
885.9	4698
886.025	4843
886.15	4771
886.275	4721
886.4	4622
886.525	4744
886.65	4687
886.775	4672
886.9	4900
887.025	5060
887.149	4809
887.274	4622
887.399	4588
887.523	4618
887.648	4588
887.773	4561
887.897	4752
888.021	4721
888.146	4679
888.27	4805
888.395	4949
888.519	4752
888.643	4847
888.767	4790
888.891	4675
889.015	4569
889.139	4634
889.263	4558
889.387	4755
889.511	4850
889.635	4778
889.759	4653
889.883	4630
890.006	4641
890.13	4793
890.254	4599
890.377	4664
890.501	4519
890.624	4493
890.748	4641
890.871	4512
890.995	4424
891.118	4363
891.241	4542
891.364	4538
891.488	4584
891.611	4466
891.734	4550
891.857	4607
891.98	4592
892.103	4687
892.226	4550
892.349	4558
892.471	4447
892.594	4504
892.717	4546
892.839	4565
892.962	4596
893.085	4691
893.207	4546
893.33	4462
893.452	4493
893.575	4603
893.697	4535
893.819	4786
893.941	4843
894.064	4778
894.186	4550
894.308	4592
894.43	4714
894.552	4809
894.674	4717
894.796	4546
894.918	4565
895.04	4561
895.161	4641
895.283	4630
895.405	4512
895.526	4649
895.648	4698
895.769	4672
895.891	4714
896.012	4729
896.134	4729
896.255	4698
896.376	4634
896.498	4637
896.619	4660
896.74	4615
896.861	4637
896.982	4908
897.103	5098
897.224	4843
897.345	4748
897.466	4687
897.587	4774
897.708	4847
897.828	4809
897.949	4683
898.07	4523
898.19	4607
898.311	4824
898.431	4656
898.552	4740
898.672	4801
898.792	4801
898.913	4752
899.033	4577
899.153	4546
899.273	4436
899.393	4523
899.513	4519
899.633	4519
899.753	4538
899.873	4474
899.993	4596
900.113	4516
900.232	4607
900.352	4504
900.472	4512
900.591	4375
900.711	4485
900.83	4432
900.95	4561
901.069	4649
901.189	4527
901.308	4383
901.427	4299
901.546	4344
901.665	4432
901.784	4500
901.904	4333
902.023	4333
902.141	4166
902.26	4188
902.379	4379
902.498	4242
902.617	4192
902.735	4363
902.854	4432
902.973	4348
903.091	4204
903.21	4207
903.328	4257
903.446	4200
903.565	4234
903.683	4333
903.801	4295
903.919	4405
904.038	4451
904.156	4291
904.274	4436
904.392	4436
904.51	4394
904.627	4455
904.745	4569
904.863	4687
904.981	4405
905.098	4352
905.216	4344
905.334	4398
905.451	4398
905.569	4443
905.686	4558
905.803	4550
905.921	4421
906.038	4542
906.155	4474
906.272	4409
906.389	4459
906.506	4348
906.623	4383
906.74	4421
906.857	4314
906.974	4337
907.091	4565
907.208	4694
907.324	4588
907.441	4474
907.557	4348
907.674	4356
907.79	4318
907.907	4360
908.023	4478
908.139	4478
908.256	4386
908.372	4489
908.488	4421
908.604	4375
908.72	4333
908.836	4360
908.952	4344
909.068	4409
909.184	4558
909.3	4451
909.415	4573
909.531	4508
909.647	4337
909.762	4348
909.878	4272
909.993	4459
910.108	4413
910.224	4440
910.339	4424
910.454	4386
910.57	4337
910.685	4287
910.8	4649
910.915	4542
911.03	4451
911.145	4383
911.259	4306
911.374	4348
911.489	4295
911.604	4242
911.718	4192
911.833	4219
911.947	4071
912.062	4017
912.176	4204
912.291	4249
912.405	4177
912.519	4478
912.633	4550
912.748	4360
912.862	4329
912.976	4215
913.09	4059
913.204	4211
913.318	4238
913.431	4371
913.545	4360
913.659	4390
913.772	4360
913.886	4265
914	4181
914.113	4367
914.226	4440
914.34	4398
914.453	4204
914.566	4413
914.68	4303
914.793	4348
914.906	4120
915.019	4097
915.132	4036
915.245	4177
915.358	4207
915.47	4234
915.583	4284
915.696	4333
915.809	4379
915.921	4402
916.034	4238
916.146	4196
916.259	4204
916.371	4356
916.483	4325
916.595	4242
916.708	4284
916.82	4363
916.932	4295
917.044	4367
917.156	4306
917.268	4219
917.38	4230
917.491	4268
917.603	4310
917.715	4443
917.826	4413
917.938	4306
918.049	4234
918.161	4375
918.272	4493
918.384	4500
918.495	4481
918.606	4306
918.717	4227
918.828	4348
918.939	4322
919.05	4265
919.161	4322
919.272	4150
919.383	4223
919.494	4451
919.604	4592
919.715	4451
919.826	4363
919.936	4344
920.047	4561
920.157	4504
920.267	4668
920.378	4535
920.488	4485
920.598	4649
920.708	4847
920.818	4752
920.928	4744
921.038	4938
921.148	4927
921.258	4542
921.368	4508
921.477	4455
921.587	4443
921.697	4386
921.806	4546
921.916	4443
922.025	4280
922.134	4272
922.244	4227
922.353	4325
922.462	4185
922.571	4150
922.68	3991
922.789	3953
922.898	4029
923.007	3937
923.116	4078
923.224	4029
923.333	4116
923.442	3991
923.55	3956
923.659	4017
923.767	4093
923.876	4032
923.984	4120
924.092	3937
924.201	4082
924.309	4074
924.417	4097
924.525	4074
924.633	4116
924.741	4885
924.849	3873
924.956	4154
925.064	3953
925.172	3857
925.279	3987
925.387	4036
925.494	4044
925.602	4246
925.709	4154
925.816	4025
925.924	4200
926.031	4230
926.138	4131
926.245	4181
926.352	4105
926.459	4261
926.566	4284
926.673	4112
926.779	4093
926.886	4097
926.993	3964
927.099	3915
927.206	3926
927.312	3896
927.419	4082
927.525	4048
927.631	4071
927.737	3972
927.843	3918
927.95	3823
928.056	3926
928.162	3991
928.267	4032
928.373	4577
928.479	4124
928.585	3812
928.69	3975
928.796	4055
928.901	3975
929.007	3854
929.112	3937
929.218	3975
929.323	3930
929.428	3945
929.533	4124
929.638	3941
929.743	3964
929.848	4059
929.953	3998
930.058	3926
930.163	3804
930.267	3831
930.372	3945
930.477	3816
930.581	4090
930.685	3937
930.79	3835
930.894	3880
930.998	3857
931.103	4006
931.207	3705
931.311	3671
931.415	3637
931.519	3553
931.623	3519
