Data from test_V78500241_2852.txt Node
Date: Fri Mar 25 17:08:49 CST 2022
User: usil
Spectrometer: V785-0024
Trigger mode: 0
Integration Time (sec): 4.000000E-1
Scans to average: 1
Nonlinearity correction enabled: false
Boxcar width: 0
Storing dark spectrum: false
XAxis mode: Wavelengths
Number of Pixels in Spectrum: 1024
>>>>>Begin Spectral Data<<<<<
801.071	7993
801.214	8039
801.356	7868
801.499	7894
801.641	7849
801.783	7818
801.926	7898
802.068	7921
802.211	7951
802.353	8012
802.496	7860
802.638	7932
802.78	7883
802.923	7898
803.065	7898
803.208	7841
803.35	7951
803.492	8073
803.635	8134
803.777	8008
803.919	8100
804.061	8442
804.204	8123
804.346	7997
804.488	8054
804.63	8145
804.773	8001
804.915	8142
805.057	8263
805.199	8088
805.341	8240
805.483	8298
805.626	8252
805.768	8145
805.91	8221
806.052	8237
806.194	8096
806.336	8225
806.478	8058
806.62	8020
806.762	8054
806.904	8282
807.046	8446
807.188	8374
807.33	8290
807.472	8305
807.614	8157
807.756	8100
807.898	8005
808.04	7856
808.182	7860
808.324	7902
808.465	7906
808.607	8043
808.749	8103
808.891	8199
809.033	8267
809.174	8218
809.316	8031
809.458	8024
809.6	7967
809.741	7997
809.883	7986
810.025	8081
810.166	8001
810.308	7986
810.45	7986
810.591	7830
810.733	7727
810.875	7613
811.016	7495
811.158	7514
811.299	7559
811.441	7830
811.582	7666
811.724	7594
811.865	7540
812.007	7613
812.148	7567
812.29	7655
812.431	7750
812.573	7913
812.714	7970
812.855	8100
812.997	8259
813.138	8259
813.279	8206
813.421	8092
813.562	8081
813.703	7841
813.845	7807
813.986	7419
814.127	7259
814.268	7255
814.41	7194
814.551	7194
814.692	7202
814.833	7095
814.974	7107
815.115	7118
815.256	6947
815.397	6989
815.539	6920
815.68	6840
815.821	6814
815.962	6924
816.103	6867
816.244	6745
816.385	6677
816.526	6669
816.666	6532
816.807	6350
816.948	6460
817.089	6528
817.23	6513
817.371	6395
817.512	6380
817.653	6346
817.793	6445
817.934	6445
818.075	6544
818.216	6452
818.356	6395
818.497	6266
818.638	6106
818.778	6190
818.919	6194
819.06	6190
819.2	6391
819.341	6338
819.481	6323
819.622	6566
819.762	6833
819.903	6859
820.043	6662
820.184	6574
820.324	6585
820.465	6768
820.605	6696
820.746	6726
820.886	6570
821.026	6711
821.167	6700
821.307	6829
821.447	6738
821.588	6688
821.728	6582
821.868	6528
822.008	6319
822.149	6410
822.289	6384
822.429	6144
822.569	6068
822.709	6186
822.849	5923
822.99	5939
823.13	5977
823.27	5961
823.41	5786
823.55	5779
823.69	5809
823.83	5840
823.97	5718
824.11	5573
824.25	5528
824.389	5600
824.529	5665
824.669	5589
824.809	5646
824.949	5733
825.089	5657
825.228	5615
825.368	5444
825.508	5395
825.648	5387
825.787	5444
825.927	5402
826.067	5299
826.206	5311
826.346	5417
826.485	5402
826.625	5463
826.765	5634
826.904	5497
827.044	5296
827.183	5201
827.323	5178
827.462	5258
827.601	5212
827.741	5242
827.88	5204
828.02	5136
828.159	5322
828.298	5292
828.437	5395
828.577	5345
828.716	5482
828.855	5357
828.994	5239
829.134	5155
829.273	5284
829.412	5162
829.551	5098
829.69	5185
829.829	5273
829.968	5398
830.107	5284
830.246	5330
830.385	5181
830.524	5193
830.663	5098
830.802	5018
830.941	4915
831.08	4908
831.219	5052
831.357	5045
831.496	5136
831.635	4957
831.774	4873
831.913	4862
832.051	4793
832.19	4748
832.329	4835
832.467	4759
832.606	4660
832.744	4786
832.883	4733
833.022	4736
833.16	4820
833.299	4866
833.437	4866
833.576	4915
833.714	4847
833.852	4889
833.991	4900
834.129	4919
834.267	4976
834.406	4877
834.544	4999
834.682	5006
834.821	4984
834.959	5197
835.097	5029
835.235	5162
835.373	5090
835.511	5033
835.65	5086
835.788	5067
835.926	4892
836.064	4896
836.202	4942
836.34	5185
836.478	5208
836.615	5170
836.753	5208
836.891	5318
837.029	5250
837.167	5254
837.305	5246
837.443	5201
837.58	5102
837.718	5345
837.856	5178
837.993	5208
838.131	5185
838.269	5216
838.406	5231
838.544	5185
838.681	5079
838.819	5052
838.956	4904
839.094	4946
839.231	4980
839.369	5109
839.506	5448
839.643	5296
839.781	5083
839.918	5025
840.055	5105
840.193	5159
840.33	5136
840.467	5170
840.604	5189
840.742	5478
840.879	5098
841.016	5090
841.153	5197
841.29	5376
841.427	5379
841.564	5318
841.701	5345
841.838	5246
841.975	5265
842.112	5292
842.249	5143
842.385	5151
842.522	5368
842.659	5155
842.796	5178
842.933	5246
843.069	5147
843.206	5162
843.343	5318
843.479	5254
843.616	5296
843.752	5086
843.889	5041
844.025	5239
844.162	5067
844.298	5223
844.435	5105
844.571	5056
844.708	5197
844.844	5265
844.98	5383
845.117	5326
845.253	5178
845.389	5117
845.525	5189
845.661	5151
845.798	5041
845.934	5143
846.07	5102
846.206	5239
846.342	5299
846.478	5258
846.614	5052
846.75	4995
846.886	4980
847.022	5159
847.158	5037
847.294	5109
847.429	5086
847.565	5090
847.701	5349
847.837	4892
847.972	4812
848.108	4968
848.244	4946
848.379	4805
848.515	4706
848.65	4767
848.786	4721
848.921	4797
849.057	4854
849.192	4934
849.328	4782
849.463	4908
849.598	4809
849.734	4771
849.869	4702
850.004	4694
850.14	4698
850.275	4653
850.41	4538
850.545	4584
850.68	4607
850.815	4637
850.95	4653
851.085	4847
851.22	4755
851.355	4710
851.49	4618
851.625	4634
851.76	4687
851.895	4580
852.03	4561
852.165	4668
852.299	4733
852.434	4816
852.569	4831
852.703	4828
852.838	4889
852.973	4946
853.107	4930
853.242	4778
853.376	4660
853.511	4546
853.645	4649
853.78	4812
853.914	4721
854.048	4733
854.183	4668
854.317	4744
854.451	4847
854.585	4691
854.72	4615
854.854	4771
854.988	4630
855.122	4660
855.256	4565
855.39	4672
855.524	4793
855.658	4710
855.792	4683
855.926	4721
856.06	4759
856.194	4786
856.327	4706
856.461	4603
856.595	4622
856.729	4679
856.862	4729
856.996	4717
857.13	4748
857.263	4812
857.397	4843
857.53	4641
857.664	4740
857.797	4736
857.931	4839
858.064	4698
858.197	4763
858.331	4649
858.464	4645
858.597	4512
858.731	4664
858.864	4611
858.997	4634
859.13	4641
859.263	4710
859.396	4691
859.529	4588
859.662	4588
859.795	4554
859.928	4687
860.061	4748
860.194	4759
860.327	4584
860.46	4588
860.592	4755
860.725	4706
860.858	4748
860.99	4611
861.123	4561
861.256	4546
861.388	4607
861.521	5417
861.653	4489
861.786	4424
861.918	4474
862.05	4504
862.183	4592
862.315	4675
862.447	4668
862.58	4580
862.712	4405
862.844	4402
862.976	4516
863.108	4519
863.24	4820
863.372	4363
863.504	4447
863.636	4390
863.768	4508
863.9	4466
864.032	4375
864.164	4394
864.296	4436
864.428	4546
864.559	4596
864.691	4599
864.823	4538
864.954	4542
865.086	4523
865.217	4470
865.349	4462
865.48	4497
865.612	4504
865.743	4691
865.875	4478
866.006	4447
866.137	4443
866.269	4462
866.4	4432
866.531	4474
866.662	4432
866.793	4402
866.924	4443
867.055	4497
867.186	4459
867.317	4432
867.448	4402
867.579	4440
867.71	4417
867.841	4402
867.972	4497
868.103	4470
868.233	4459
868.364	4493
868.495	4493
868.625	4641
868.756	4759
868.886	4565
869.017	4607
869.147	4786
869.278	4744
869.408	4687
869.539	4672
869.669	4725
869.799	4607
869.929	4801
870.06	4759
870.19	4980
870.32	4961
870.45	4961
870.58	5029
870.71	5121
870.84	5079
870.97	4957
871.1	4946
871.23	5136
871.36	5124
871.489	5010
871.619	5090
871.749	5113
871.879	5231
872.008	5208
872.138	5090
872.267	5014
872.397	4847
872.526	4790
872.656	4725
872.785	4824
872.915	4942
873.044	4984
873.173	4889
873.303	4957
873.432	4980
873.561	4930
873.69	4934
873.819	4896
873.948	4881
874.077	4839
874.206	4755
874.335	4797
874.464	4923
874.593	5037
874.722	4987
874.851	5067
874.979	5075
875.108	5056
875.237	4930
875.365	4911
875.494	4892
875.623	5048
875.751	4805
875.88	4881
876.008	5006
876.136	5014
876.265	5174
876.393	5334
876.521	5212
876.65	5242
876.778	5140
876.906	5075
877.034	5071
877.162	5090
877.29	5048
877.418	5090
877.546	5067
877.674	5090
877.802	5071
877.93	5029
878.058	4961
878.185	4866
878.313	4919
878.441	4946
878.568	4831
878.696	4896
878.824	4972
878.951	4946
879.079	5140
879.206	5235
879.333	5162
879.461	4999
879.588	5010
879.715	5136
879.842	5246
879.97	5025
880.097	4801
880.224	4767
880.351	4835
880.478	4850
880.605	4763
880.732	4790
880.859	5067
880.986	4946
881.112	4908
881.239	4763
881.366	4675
881.493	4607
881.619	4615
881.746	4611
881.872	4668
881.999	4672
882.125	4717
882.252	4809
882.378	4790
882.505	4972
882.631	4850
882.757	4714
882.883	4752
883.01	4752
883.136	4717
883.262	4599
883.388	4607
883.514	4843
883.64	4927
883.766	4790
883.892	4698
884.018	4679
884.143	4904
884.269	5052
884.395	4664
884.52	4630
884.646	4622
884.772	4588
884.897	4592
885.023	4694
885.148	4752
885.274	4889
885.399	4847
885.524	4702
885.65	4733
885.775	4729
885.9	4740
886.025	4896
886.15	4831
886.275	4717
886.4	4656
886.525	4755
886.65	4733
886.775	4702
886.9	4900
887.025	4999
887.149	4809
887.274	4675
887.399	4561
887.523	4599
887.648	4542
887.773	4584
887.897	4782
888.021	4736
888.146	4660
888.27	4828
888.395	4877
888.519	4839
888.643	4805
888.767	4862
888.891	4706
889.015	4577
889.139	4645
889.263	4588
889.387	4782
889.511	4873
889.635	4778
889.759	4641
889.883	4664
890.006	4778
890.13	4828
890.254	4607
890.377	4683
890.501	4512
890.624	4538
890.748	4653
890.871	4497
890.995	4455
891.118	4451
891.241	4546
891.364	4580
891.488	4641
891.611	4512
891.734	4554
891.857	4656
891.98	4592
892.103	4679
892.226	4592
892.349	4546
892.471	4481
892.594	4599
892.717	4588
892.839	4618
892.962	4573
893.085	4641
893.207	4637
893.33	4421
893.452	4493
893.575	4649
893.697	4622
893.819	4801
893.941	4790
894.064	4759
894.186	4516
894.308	4603
894.43	4710
894.552	4862
894.674	4771
894.796	4573
894.918	4558
895.04	4607
895.161	4706
895.283	4687
895.405	4577
895.526	4656
895.648	4679
895.769	4717
895.891	4759
896.012	4725
896.134	4733
896.255	4698
896.376	4641
896.498	4660
896.619	4679
896.74	4649
896.861	4637
896.982	4885
897.103	5060
897.224	4820
897.345	4702
897.466	4634
897.587	4786
897.708	4850
897.828	4786
897.949	4634
898.07	4577
898.19	4630
898.311	4797
898.431	4672
898.552	4797
898.672	4797
898.792	4744
898.913	4725
899.033	4664
899.153	4500
899.273	4424
899.393	4497
899.513	4577
899.633	4554
899.753	4607
899.873	4519
899.993	4603
900.113	4542
900.232	4630
900.352	4508
900.472	4485
900.591	4383
900.711	4519
900.83	4447
900.95	4653
901.069	4698
901.189	4531
901.308	4383
901.427	4295
901.546	4398
901.665	4504
901.784	4504
901.904	4363
902.023	4310
902.141	4204
902.26	4120
902.379	4295
902.498	4249
902.617	4253
902.735	4367
902.854	4394
902.973	4409
903.091	4188
903.21	4230
903.328	4284
903.446	4295
903.565	4268
903.683	4341
903.801	4314
903.919	4428
904.038	4455
904.156	4306
904.274	4386
904.392	4390
904.51	4466
904.627	4455
904.745	4592
904.863	4645
904.981	4394
905.098	4333
905.216	4325
905.334	4447
905.451	4417
905.569	4451
905.686	4535
905.803	4546
905.921	4409
906.038	4504
906.155	4481
906.272	4459
906.389	4462
906.506	4375
906.623	4360
906.74	4402
906.857	4306
906.974	4390
907.091	4538
907.208	4702
907.324	4569
907.441	4497
907.557	4344
907.674	4375
907.79	4344
907.907	4394
908.023	4459
908.139	4443
908.256	4379
908.372	4516
908.488	4402
908.604	4344
908.72	4344
908.836	4379
908.952	4417
909.068	4417
909.184	4577
909.3	4462
909.415	4626
909.531	4580
909.647	4356
909.762	4390
909.878	4341
909.993	4424
910.108	4375
910.224	4447
910.339	4470
910.454	4421
910.57	4356
910.685	4265
910.8	4607
910.915	4599
911.03	4474
911.145	4356
911.259	4333
911.374	4367
911.489	4291
911.604	4322
911.718	4200
911.833	4158
911.947	4071
912.062	4036
912.176	4265
912.291	4242
912.405	4276
912.519	4413
912.633	4478
912.748	4405
912.862	4314
912.976	4230
913.09	4086
913.204	4162
913.318	4257
913.431	4386
913.545	4363
913.659	4462
913.772	4360
913.886	4238
914	4265
914.113	4390
914.226	4409
914.34	4409
914.453	4265
914.566	4451
914.68	4341
914.793	4325
914.906	4166
915.019	4101
915.132	4082
915.245	4154
915.358	4211
915.47	4238
915.583	4306
915.696	4272
915.809	4356
915.921	4421
916.034	4249
916.146	4242
916.259	4196
916.371	4459
916.483	4375
916.595	4238
916.708	4310
916.82	4265
916.932	4306
917.044	4314
917.156	4341
917.268	4192
917.38	4284
917.491	4253
917.603	4367
917.715	4436
917.826	4459
917.938	4295
918.049	4261
918.161	4424
918.272	4596
918.384	4584
918.495	4417
918.606	4299
918.717	4257
918.828	4310
918.939	4405
919.05	4253
919.161	4314
919.272	4120
919.383	4230
919.494	4459
919.604	4603
919.715	4421
919.826	4341
919.936	4451
920.047	4542
920.157	4481
920.267	4653
920.378	4561
920.488	4516
920.598	4679
920.708	4892
920.818	4790
920.928	4744
921.038	4995
921.148	4934
921.258	4588
921.368	4580
921.477	4485
921.587	4474
921.697	4352
921.806	4542
921.916	4421
922.025	4238
922.134	4265
922.244	4276
922.353	4352
922.462	4162
922.571	4105
922.68	4002
922.789	3968
922.898	4055
923.007	3979
923.116	4101
923.224	4090
923.333	4048
923.442	4006
923.55	4010
923.659	4048
923.767	4112
923.876	3983
923.984	4116
924.092	3960
924.201	4097
924.309	4124
924.417	4093
924.525	4086
924.633	4143
924.741	4889
924.849	3941
924.956	4109
925.064	3964
925.172	3949
925.279	3941
925.387	4082
925.494	4082
925.602	4166
925.709	4158
925.816	4021
925.924	4120
926.031	4234
926.138	4154
926.245	4211
926.352	4071
926.459	4234
926.566	4314
926.673	4139
926.779	4082
926.886	4078
926.993	3949
927.099	3911
927.206	3964
927.312	3960
927.419	4044
927.525	4090
927.631	4093
927.737	3994
927.843	3968
927.95	3835
928.056	4021
928.162	3994
928.267	4044
928.373	4626
928.479	4158
928.585	3880
928.69	4017
928.796	4059
928.901	3941
929.007	3857
929.112	4010
929.218	3960
929.323	3918
929.428	3937
929.533	4071
929.638	3907
929.743	3937
929.848	4051
929.953	4044
930.058	3880
930.163	3766
930.267	3835
930.372	3998
930.477	3778
930.581	4067
930.685	3945
930.79	3861
930.894	3922
930.998	3873
931.103	4029
931.207	3720
931.311	3701
931.415	3637
931.519	3557
931.623	3561
