Data from test_V78500241_2119.txt Node
Date: Fri Mar 25 17:03:44 CST 2022
User: usil
Spectrometer: V785-0024
Trigger mode: 0
Integration Time (sec): 4.000000E-1
Scans to average: 1
Nonlinearity correction enabled: false
Boxcar width: 0
Storing dark spectrum: false
XAxis mode: Wavelengths
Number of Pixels in Spectrum: 1024
>>>>>Begin Spectral Data<<<<<
801.071	7993
801.214	8027
801.356	7849
801.499	7913
801.641	7841
801.783	7822
801.926	8001
802.068	8001
802.211	8058
802.353	8043
802.496	7936
802.638	7879
802.78	7963
802.923	7955
803.065	7936
803.208	7864
803.35	8024
803.492	8164
803.635	8180
803.777	8035
803.919	8130
804.061	8511
804.204	8225
804.346	8164
804.488	7993
804.63	8115
804.773	7986
804.915	8172
805.057	8336
805.199	8233
805.341	8180
805.483	8271
805.626	8180
805.768	8180
805.91	8202
806.052	8290
806.194	8187
806.336	8309
806.478	8138
806.62	8065
806.762	8180
806.904	8320
807.046	8495
807.188	8377
807.33	8317
807.472	8362
807.614	8180
807.756	8164
807.898	8012
808.04	7925
808.182	7982
808.324	7936
808.465	7986
808.607	8164
808.749	8119
808.891	8221
809.033	8320
809.174	8225
809.316	8103
809.458	8092
809.6	8096
809.741	8062
809.883	8024
810.025	8161
810.166	8077
810.308	8043
810.45	8050
810.591	7894
810.733	7818
810.875	7685
811.016	7586
811.158	7510
811.299	7639
811.441	7658
811.582	7712
811.724	7571
811.865	7605
812.007	7567
812.148	7639
812.29	7674
812.431	7746
812.573	7925
812.714	7974
812.855	8153
812.997	8164
813.138	8332
813.279	8149
813.421	8100
813.562	7921
813.703	7860
813.845	7769
813.986	7476
814.127	7259
814.268	7259
814.41	7274
814.551	7145
814.692	7217
814.833	7122
814.974	7179
815.115	7133
815.256	7015
815.397	6966
815.539	6932
815.68	6840
815.821	6768
815.962	6913
816.103	6833
816.244	6711
816.385	6601
816.526	6635
816.666	6464
816.807	6376
816.948	6475
817.089	6509
817.23	6437
817.371	6414
817.512	6437
817.653	6429
817.793	6376
817.934	6410
818.075	6475
818.216	6494
818.356	6494
818.497	6315
818.638	6152
818.778	6178
818.919	6190
819.06	6197
819.2	6372
819.341	6372
819.481	6369
819.622	6608
819.762	6772
819.903	6700
820.043	6612
820.184	6612
820.324	6601
820.465	6719
820.605	6741
820.746	6612
820.886	6544
821.026	6662
821.167	6726
821.307	6871
821.447	6795
821.588	6677
821.728	6623
821.868	6528
822.008	6308
822.149	6376
822.289	6308
822.429	6194
822.569	6068
822.709	6175
822.849	5977
822.99	5882
823.13	5866
823.27	5916
823.41	5813
823.55	5866
823.69	5764
823.83	5790
823.97	5615
824.11	5524
824.25	5459
824.389	5585
824.529	5649
824.669	5505
824.809	5718
824.949	5695
825.089	5646
825.228	5581
825.368	5436
825.508	5368
825.648	5299
825.787	5436
825.927	5372
826.067	5296
826.206	5322
826.346	5387
826.485	5440
826.625	5387
826.765	5539
826.904	5551
827.044	5284
827.183	5212
827.323	5185
827.462	5364
827.601	5189
827.741	5220
827.88	5204
828.02	5121
828.159	5258
828.298	5368
828.437	5357
828.577	5318
828.716	5532
828.855	5326
828.994	5189
829.134	5151
829.273	5174
829.412	5208
829.551	5136
829.69	5197
829.829	5277
829.968	5364
830.107	5292
830.246	5334
830.385	5212
830.524	5117
830.663	5113
830.802	5025
830.941	4927
831.08	4949
831.219	5018
831.357	4987
831.496	5220
831.635	4923
831.774	4862
831.913	4847
832.051	4736
832.19	4820
832.329	4877
832.467	4698
832.606	4596
832.744	4774
832.883	4752
833.022	4790
833.16	4793
833.299	4831
833.437	4843
833.576	4889
833.714	4889
833.852	4858
833.991	4889
834.129	4923
834.267	5048
834.406	4927
834.544	5010
834.682	4915
834.821	4991
834.959	5201
835.097	5010
835.235	5124
835.373	5064
835.511	5170
835.65	5033
835.788	5022
835.926	4930
836.064	4911
836.202	4957
836.34	5155
836.478	5273
836.615	5178
836.753	5261
836.891	5303
837.029	5246
837.167	5239
837.305	5220
837.443	5132
837.58	5075
837.718	5277
837.856	5220
837.993	5181
838.131	5258
838.269	5227
838.406	5254
838.544	5227
838.681	5079
838.819	5045
838.956	4900
839.094	4976
839.231	4946
839.369	5117
839.506	5383
839.643	5349
839.781	5041
839.918	5010
840.055	5136
840.193	5140
840.33	5113
840.467	5140
840.604	5231
840.742	5471
840.879	5113
841.016	5086
841.153	5075
841.29	5406
841.427	5379
841.564	5292
841.701	5368
841.838	5318
841.975	5269
842.112	5292
842.249	5166
842.385	5079
842.522	5292
842.659	5128
842.796	5223
842.933	5246
843.069	5235
843.206	5147
843.343	5307
843.479	5254
843.616	5307
843.752	5048
843.889	5022
844.025	5250
844.162	5018
844.298	5220
844.435	5048
844.571	5018
844.708	5201
844.844	5357
844.98	5334
845.117	5277
845.253	5178
845.389	5094
845.525	5147
845.661	5166
845.798	5098
845.934	5170
846.07	5079
846.206	5208
846.342	5315
846.478	5178
846.614	5041
846.75	4976
846.886	4915
847.022	5117
847.158	5037
847.294	5045
847.429	5109
847.565	5064
847.701	5368
847.837	4870
847.972	4854
848.108	4942
848.244	4972
848.379	4782
848.515	4790
848.65	4710
848.786	4729
848.921	4824
849.057	4923
849.192	4896
849.328	4767
849.463	4873
849.598	4755
849.734	4793
849.869	4706
850.004	4622
850.14	4668
850.275	4653
850.41	4527
850.545	4569
850.68	4634
850.815	4611
850.95	4675
851.085	4828
851.22	4771
851.355	4679
851.49	4607
851.625	4615
851.76	4626
851.895	4599
852.03	4538
852.165	4656
852.299	4744
852.434	4767
852.569	4786
852.703	4767
852.838	4862
852.973	4885
853.107	4987
853.242	4744
853.376	4668
853.511	4558
853.645	4637
853.78	4809
853.914	4691
854.048	4706
854.183	4702
854.317	4694
854.451	4862
854.585	4774
854.72	4668
854.854	4752
854.988	4649
855.122	4641
855.256	4531
855.39	4634
855.524	4782
855.658	4733
855.792	4736
855.926	4729
856.06	4759
856.194	4774
856.327	4714
856.461	4607
856.595	4649
856.729	4649
856.862	4752
856.996	4691
857.13	4698
857.263	4786
857.397	4835
857.53	4687
857.664	4748
857.797	4778
857.931	4793
858.064	4656
858.197	4736
858.331	4668
858.464	4645
858.597	4512
858.731	4683
858.864	4634
858.997	4615
859.13	4683
859.263	4645
859.396	4714
859.529	4550
859.662	4607
859.795	4573
859.928	4580
860.061	4729
860.194	4733
860.327	4626
860.46	4538
860.592	4702
860.725	4744
860.858	4721
860.99	4592
861.123	4504
861.256	4584
861.388	4622
861.521	5436
861.653	4519
861.786	4440
861.918	4466
862.05	4535
862.183	4588
862.315	4584
862.447	4656
862.58	4558
862.712	4413
862.844	4306
862.976	4455
863.108	4489
863.24	4771
863.372	4356
863.504	4500
863.636	4443
863.768	4478
863.9	4440
864.032	4409
864.164	4394
864.296	4470
864.428	4516
864.559	4569
864.691	4603
864.823	4531
864.954	4519
865.086	4535
865.217	4440
865.349	4470
865.48	4417
865.612	4500
865.743	4618
865.875	4451
866.006	4413
866.137	4466
866.269	4440
866.4	4436
866.531	4424
866.662	4436
866.793	4424
866.924	4440
867.055	4504
867.186	4474
867.317	4424
867.448	4386
867.579	4352
867.71	4375
867.841	4371
867.972	4489
868.103	4440
868.233	4432
868.364	4440
868.495	4489
868.625	4668
868.756	4767
868.886	4592
869.017	4672
869.147	4759
869.278	4740
869.408	4645
869.539	4634
869.669	4710
869.799	4679
869.929	4759
870.06	4740
870.19	5003
870.32	4892
870.45	4938
870.58	5041
870.71	5090
870.84	5067
870.97	4961
871.1	4908
871.23	5140
871.36	5090
871.489	5052
871.619	5094
871.749	5102
871.879	5086
872.008	5185
872.138	5113
872.267	4957
872.397	4824
872.526	4824
872.656	4740
872.785	4790
872.915	4919
873.044	5045
873.173	4927
873.303	4991
873.432	4938
873.561	4927
873.69	4900
873.819	4885
873.948	4866
874.077	4854
874.206	4797
874.335	4820
874.464	4946
874.593	5098
874.722	4965
874.851	5090
874.979	5067
875.108	5025
875.237	4892
875.365	4896
875.494	4885
875.623	4991
875.751	4866
875.88	4911
876.008	4942
876.136	5037
876.265	5166
876.393	5303
876.521	5246
876.65	5242
876.778	5155
876.906	4995
877.034	5029
877.162	5037
877.29	4953
877.418	5037
877.546	5064
877.674	5037
877.802	5075
877.93	5010
878.058	4904
878.185	4828
878.313	4938
878.441	5006
878.568	4828
878.696	4911
878.824	5010
878.951	4991
879.079	5075
879.206	5246
879.333	5090
879.461	4995
879.588	4976
879.715	5159
879.842	5246
879.97	4972
880.097	4786
880.224	4805
880.351	4797
880.478	4850
880.605	4782
880.732	4778
880.859	5060
880.986	4900
881.112	4847
881.239	4759
881.366	4630
881.493	4637
881.619	4599
881.746	4626
881.872	4683
881.999	4694
882.125	4691
882.252	4820
882.378	4793
882.505	4995
882.631	4801
882.757	4637
882.883	4752
883.01	4702
883.136	4637
883.262	4611
883.388	4611
883.514	4831
883.64	4850
883.766	4744
883.892	4710
884.018	4706
884.143	4915
884.269	5006
884.395	4691
884.52	4626
884.646	4687
884.772	4565
884.897	4580
885.023	4683
885.148	4774
885.274	4816
885.399	4793
885.524	4740
885.65	4710
885.775	4744
885.9	4733
886.025	4873
886.15	4763
886.275	4736
886.4	4645
886.525	4729
886.65	4679
886.775	4672
886.9	4881
887.025	5056
887.149	4812
887.274	4637
887.399	4573
887.523	4603
887.648	4599
887.773	4546
887.897	4763
888.021	4824
888.146	4740
888.27	4831
888.395	4896
888.519	4755
888.643	4786
888.767	4782
888.891	4626
889.015	4565
889.139	4656
889.263	4634
889.387	4809
889.511	4816
889.635	4801
889.759	4672
889.883	4687
890.006	4744
890.13	4854
890.254	4584
890.377	4675
890.501	4542
890.624	4504
890.748	4691
890.871	4516
890.995	4394
891.118	4398
891.241	4508
891.364	4500
891.488	4618
891.611	4516
891.734	4554
891.857	4622
891.98	4577
892.103	4656
892.226	4584
892.349	4489
892.471	4436
892.594	4535
892.717	4607
892.839	4573
892.962	4565
893.085	4660
893.207	4607
893.33	4481
893.452	4493
893.575	4592
893.697	4542
893.819	4858
893.941	4805
894.064	4771
894.186	4569
894.308	4546
894.43	4725
894.552	4809
894.674	4721
894.796	4565
894.918	4603
895.04	4527
895.161	4767
895.283	4626
895.405	4565
895.526	4607
895.648	4683
895.769	4679
895.891	4691
896.012	4717
896.134	4717
896.255	4656
896.376	4641
896.498	4592
896.619	4637
896.74	4588
896.861	4607
896.982	4930
897.103	5086
897.224	4873
897.345	4759
897.466	4668
897.587	4752
897.708	4850
897.828	4805
897.949	4649
898.07	4535
898.19	4649
898.311	4850
898.431	4649
898.552	4755
898.672	4763
898.792	4835
898.913	4740
899.033	4615
899.153	4485
899.273	4455
899.393	4470
899.513	4550
899.633	4538
899.753	4538
899.873	4538
899.993	4542
900.113	4546
900.232	4592
900.352	4519
900.472	4466
900.591	4409
900.711	4497
900.83	4443
900.95	4599
901.069	4698
901.189	4561
901.308	4398
901.427	4306
901.546	4363
901.665	4474
901.784	4489
901.904	4390
902.023	4337
902.141	4192
902.26	4177
902.379	4299
902.498	4257
902.617	4215
902.735	4386
902.854	4386
902.973	4344
903.091	4227
903.21	4230
903.328	4318
903.446	4284
903.565	4265
903.683	4348
903.801	4276
903.919	4409
904.038	4409
904.156	4280
904.274	4459
904.392	4417
904.51	4398
904.627	4451
904.745	4512
904.863	4618
904.981	4341
905.098	4249
905.216	4329
905.334	4451
905.451	4436
905.569	4474
905.686	4558
905.803	4508
905.921	4470
906.038	4561
906.155	4481
906.272	4443
906.389	4417
906.506	4371
906.623	4402
906.74	4341
906.857	4325
906.974	4379
907.091	4554
907.208	4653
907.324	4542
907.441	4497
907.557	4337
907.674	4390
907.79	4306
907.907	4394
908.023	4523
908.139	4481
908.256	4409
908.372	4440
908.488	4421
908.604	4360
908.72	4337
908.836	4322
908.952	4390
909.068	4413
909.184	4546
909.3	4451
909.415	4580
909.531	4554
909.647	4371
909.762	4383
909.878	4333
909.993	4417
910.108	4386
910.224	4405
910.339	4428
910.454	4360
910.57	4348
910.685	4333
910.8	4634
910.915	4558
911.03	4508
911.145	4314
911.259	4314
911.374	4352
911.489	4291
911.604	4261
911.718	4181
911.833	4196
911.947	4044
912.062	4059
912.176	4219
912.291	4223
912.405	4234
912.519	4459
912.633	4470
912.748	4329
912.862	4284
912.976	4196
913.09	4078
913.204	4177
913.318	4261
913.431	4386
913.545	4348
913.659	4417
913.772	4344
913.886	4246
914	4234
914.113	4390
914.226	4466
914.34	4383
914.453	4242
914.566	4405
914.68	4276
914.793	4314
914.906	4177
915.019	4101
915.132	4105
915.245	4158
915.358	4185
915.47	4249
915.583	4242
915.696	4276
915.809	4409
915.921	4462
916.034	4238
916.146	4272
916.259	4238
916.371	4394
916.483	4348
916.595	4238
916.708	4318
916.82	4333
916.932	4306
917.044	4310
917.156	4383
917.268	4261
917.38	4261
917.491	4227
917.603	4272
917.715	4375
917.826	4417
917.938	4322
918.049	4223
918.161	4421
918.272	4504
918.384	4478
918.495	4436
918.606	4268
918.717	4253
918.828	4310
918.939	4390
919.05	4276
919.161	4295
919.272	4131
919.383	4272
919.494	4409
919.604	4675
919.715	4432
919.826	4356
919.936	4344
920.047	4538
920.157	4504
920.267	4706
920.378	4512
920.488	4466
920.598	4691
920.708	4885
920.818	4771
920.928	4763
921.038	4934
921.148	4885
921.258	4618
921.368	4531
921.477	4508
921.587	4440
921.697	4398
921.806	4550
921.916	4428
922.025	4265
922.134	4257
922.244	4249
922.353	4310
922.462	4147
922.571	4120
922.68	4044
922.789	3975
922.898	4036
923.007	4013
923.116	4124
923.224	4055
923.333	4067
923.442	3987
923.55	3972
923.659	4059
923.767	4067
923.876	4025
923.984	4135
924.092	3968
924.201	4071
924.309	4109
924.417	4128
924.525	4048
924.633	4116
924.741	5060
924.849	3937
924.956	4128
925.064	3953
925.172	3930
925.279	3937
925.387	4063
925.494	4074
925.602	4177
925.709	4242
925.816	4078
925.924	4169
926.031	4238
926.138	4147
926.245	4173
926.352	4071
926.459	4257
926.566	4291
926.673	4154
926.779	4097
926.886	4032
926.993	3960
927.099	3953
927.206	3949
927.312	3941
927.419	4078
927.525	4029
927.631	4059
927.737	3941
927.843	3941
927.95	3869
928.056	3930
928.162	3945
928.267	4101
928.373	4577
928.479	4162
928.585	3884
928.69	4048
928.796	4086
928.901	3934
929.007	3861
929.112	3994
929.218	3972
929.323	3975
929.428	3926
929.533	4105
929.638	3934
929.743	3998
929.848	4059
929.953	3964
930.058	3926
930.163	3785
930.267	3838
930.372	3968
930.477	3816
930.581	4063
930.685	3953
930.79	3861
930.894	3930
930.998	3850
931.103	4021
931.207	3720
931.311	3698
931.415	3610
931.519	3511
931.623	3557
