Data from test_V78500241_1406.txt Node
Date: Fri Mar 25 16:58:46 CST 2022
User: usil
Spectrometer: V785-0024
Trigger mode: 0
Integration Time (sec): 4.000000E-1
Scans to average: 1
Nonlinearity correction enabled: false
Boxcar width: 0
Storing dark spectrum: false
XAxis mode: Wavelengths
Number of Pixels in Spectrum: 1024
>>>>>Begin Spectral Data<<<<<
801.071	7944
801.214	8077
801.356	7856
801.499	7811
801.641	7765
801.783	7818
801.926	7913
802.068	7890
802.211	7936
802.353	7947
802.496	7818
802.638	7860
802.78	7913
802.923	8001
803.065	7921
803.208	7830
803.35	7967
803.492	7986
803.635	8142
803.777	7978
803.919	8084
804.061	8427
804.204	8081
804.346	8020
804.488	8027
804.63	8142
804.773	8065
804.915	7986
805.057	8305
805.199	8191
805.341	8157
805.483	8286
805.626	8153
805.768	8142
805.91	8309
806.052	8244
806.194	8069
806.336	8225
806.478	8138
806.62	8016
806.762	8103
806.904	8279
807.046	8454
807.188	8336
807.33	8313
807.472	8259
807.614	8126
807.756	8157
807.898	7963
808.04	7879
808.182	7940
808.324	7925
808.465	7921
808.607	8054
808.749	8088
808.891	8202
809.033	8294
809.174	8218
809.316	8050
809.458	8111
809.6	7974
809.741	8024
809.883	7940
810.025	8054
810.166	8092
810.308	7989
810.45	8039
810.591	7925
810.733	7761
810.875	7670
811.016	7529
811.158	7491
811.299	7559
811.441	7734
811.582	7658
811.724	7620
811.865	7502
812.007	7632
812.148	7590
812.29	7586
812.431	7727
812.573	7833
812.714	8069
812.855	8168
812.997	8180
813.138	8374
813.279	8180
813.421	8107
813.562	7970
813.703	7799
813.845	7655
813.986	7480
814.127	7247
814.268	7228
814.41	7149
814.551	7137
814.692	7244
814.833	7072
814.974	7088
815.115	7065
815.256	6947
815.397	6962
815.539	6939
815.68	6821
815.821	6821
815.962	6825
816.103	6776
816.244	6738
816.385	6642
816.526	6582
816.666	6547
816.807	6350
816.948	6426
817.089	6460
817.23	6426
817.371	6365
817.512	6395
817.653	6372
817.793	6350
817.934	6380
818.075	6429
818.216	6395
818.356	6407
818.497	6205
818.638	6076
818.778	6144
818.919	6095
819.06	6159
819.2	6319
819.341	6270
819.481	6365
819.622	6555
819.762	6745
819.903	6692
820.043	6551
820.184	6551
820.324	6547
820.465	6688
820.605	6753
820.746	6604
820.886	6498
821.026	6608
821.167	6665
821.307	6787
821.447	6745
821.588	6662
821.728	6597
821.868	6528
822.008	6273
822.149	6365
822.289	6262
822.429	6175
822.569	6098
822.709	6140
822.849	5874
822.99	5893
823.13	5897
823.27	5923
823.41	5824
823.55	5828
823.69	5760
823.83	5786
823.97	5710
824.11	5524
824.25	5448
824.389	5539
824.529	5600
824.669	5524
824.809	5623
824.949	5649
825.089	5554
825.228	5516
825.368	5395
825.508	5299
825.648	5296
825.787	5421
825.927	5353
826.067	5284
826.206	5239
826.346	5387
826.485	5417
826.625	5463
826.765	5501
826.904	5490
827.044	5273
827.183	5166
827.323	5147
827.462	5254
827.601	5113
827.741	5147
827.88	5223
828.02	5113
828.159	5204
828.298	5284
828.437	5341
828.577	5261
828.716	5474
828.855	5322
828.994	5159
829.134	5181
829.273	5162
829.412	5109
829.551	5109
829.69	5155
829.829	5261
829.968	5406
830.107	5250
830.246	5254
830.385	5159
830.524	5166
830.663	5022
830.802	4949
830.941	4892
831.08	4927
831.219	4942
831.357	5014
831.496	5201
831.635	4908
831.774	4797
831.913	4847
832.051	4736
832.19	4744
832.329	4870
832.467	4683
832.606	4618
832.744	4714
832.883	4710
833.022	4714
833.16	4809
833.299	4805
833.437	4793
833.576	4809
833.714	4839
833.852	4881
833.991	4911
834.129	4904
834.267	4961
834.406	4908
834.544	4904
834.682	4919
834.821	4987
834.959	5128
835.097	4904
835.235	5113
835.373	5060
835.511	5128
835.65	5022
835.788	5048
835.926	4957
836.064	4873
836.202	4908
836.34	5159
836.478	5208
836.615	5132
836.753	5235
836.891	5292
837.029	5250
837.167	5235
837.305	5174
837.443	5201
837.58	5052
837.718	5246
837.856	5216
837.993	5162
838.131	5227
838.269	5212
838.406	5166
838.544	5181
838.681	5022
838.819	5003
838.956	4877
839.094	4923
839.231	4968
839.369	5086
839.506	5417
839.643	5261
839.781	5083
839.918	4972
840.055	5071
840.193	5105
840.33	5098
840.467	5079
840.604	5132
840.742	5455
840.879	5079
841.016	5022
841.153	5155
841.29	5315
841.427	5311
841.564	5330
841.701	5345
841.838	5223
841.975	5239
842.112	5273
842.249	5132
842.385	5071
842.522	5307
842.659	5121
842.796	5132
842.933	5193
843.069	5143
843.206	5124
843.343	5258
843.479	5231
843.616	5258
843.752	5052
843.889	5037
844.025	5208
844.162	5006
844.298	5170
844.435	5090
844.571	5018
844.708	5185
844.844	5315
844.98	5303
845.117	5265
845.253	5105
845.389	5048
845.525	5162
845.661	5155
845.798	5006
845.934	5143
846.07	4987
846.206	5212
846.342	5265
846.478	5197
846.614	4946
846.75	4953
846.886	4881
847.022	5086
847.158	5010
847.294	5052
847.429	5022
847.565	5071
847.701	5303
847.837	4858
847.972	4854
848.108	4968
848.244	4908
848.379	4797
848.515	4714
848.65	4706
848.786	4717
848.921	4767
849.057	4873
849.192	4904
849.328	4809
849.463	4831
849.598	4831
849.734	4771
849.869	4717
850.004	4618
850.14	4656
850.275	4618
850.41	4527
850.545	4565
850.68	4668
850.815	4626
850.95	4596
851.085	4850
851.22	4698
851.355	4656
851.49	4603
851.625	4641
851.76	4664
851.895	4561
852.03	4527
852.165	4645
852.299	4714
852.434	4793
852.569	4729
852.703	4786
852.838	4771
852.973	4934
853.107	4892
853.242	4710
853.376	4630
853.511	4546
853.645	4577
853.78	4786
853.914	4649
854.048	4569
854.183	4675
854.317	4706
854.451	4774
854.585	4660
854.72	4558
854.854	4721
854.988	4577
855.122	4641
855.256	4489
855.39	4664
855.524	4733
855.658	4733
855.792	4706
855.926	4694
856.06	4748
856.194	4805
856.327	4634
856.461	4622
856.595	4615
856.729	4637
856.862	4774
856.996	4694
857.13	4740
857.263	4767
857.397	4740
857.53	4615
857.664	4714
857.797	4752
857.931	4755
858.064	4687
858.197	4748
858.331	4603
858.464	4573
858.597	4474
858.731	4656
858.864	4637
858.997	4577
859.13	4694
859.263	4694
859.396	4675
859.529	4569
859.662	4588
859.795	4474
859.928	4653
860.061	4698
860.194	4740
860.327	4630
860.46	4607
860.592	4721
860.725	4752
860.858	4706
860.99	4542
861.123	4523
861.256	4527
861.388	4565
861.521	5376
861.653	4493
861.786	4432
861.918	4436
862.05	4516
862.183	4535
862.315	4618
862.447	4649
862.58	4516
862.712	4432
862.844	4344
862.976	4436
863.108	4451
863.24	4835
863.372	4348
863.504	4436
863.636	4402
863.768	4489
863.9	4440
864.032	4337
864.164	4383
864.296	4436
864.428	4561
864.559	4523
864.691	4546
864.823	4508
864.954	4470
865.086	4470
865.217	4402
865.349	4421
865.48	4443
865.612	4470
865.743	4542
865.875	4432
866.006	4440
866.137	4474
866.269	4459
866.4	4421
866.531	4432
866.662	4413
866.793	4402
866.924	4356
867.055	4474
867.186	4443
867.317	4409
867.448	4379
867.579	4367
867.71	4394
867.841	4386
867.972	4413
868.103	4432
868.233	4470
868.364	4398
868.495	4481
868.625	4630
868.756	4736
868.886	4519
869.017	4672
869.147	4805
869.278	4774
869.408	4653
869.539	4565
869.669	4725
869.799	4630
869.929	4755
870.06	4733
870.19	4915
870.32	4908
870.45	4915
870.58	4999
870.71	5090
870.84	5086
870.97	4904
871.1	4923
871.23	5128
871.36	5090
871.489	5037
871.619	5025
871.749	5090
871.879	5102
872.008	5159
872.138	5014
872.267	4980
872.397	4824
872.526	4801
872.656	4717
872.785	4828
872.915	4999
873.044	5014
873.173	4919
873.303	4946
873.432	4892
873.561	4995
873.69	4820
873.819	4847
873.948	4885
874.077	4835
874.206	4748
874.335	4755
874.464	4881
874.593	5067
874.722	4911
874.851	5064
874.979	5029
875.108	5052
875.237	4915
875.365	4870
875.494	4892
875.623	4965
875.751	4835
875.88	4866
876.008	4968
876.136	5060
876.265	5178
876.393	5315
876.521	5246
876.65	5208
876.778	5170
876.906	5071
877.034	5048
877.162	5041
877.29	4934
877.418	5056
877.546	5045
877.674	5048
877.802	5033
877.93	4987
878.058	4938
878.185	4889
878.313	4980
878.441	4911
878.568	4759
878.696	4915
878.824	4976
878.951	4942
879.079	5121
879.206	5284
879.333	5109
879.461	5006
879.588	4953
879.715	5143
879.842	5185
879.97	4991
880.097	4809
880.224	4698
880.351	4778
880.478	4805
880.605	4828
880.732	4805
880.859	5052
880.986	4911
881.112	4858
881.239	4752
881.366	4691
881.493	4596
881.619	4599
881.746	4622
881.872	4607
881.999	4660
882.125	4694
882.252	4771
882.378	4805
882.505	4942
882.631	4778
882.757	4694
882.883	4710
883.01	4729
883.136	4687
883.262	4573
883.388	4584
883.514	4809
883.64	4847
883.766	4793
883.892	4675
884.018	4672
884.143	4862
884.269	4953
884.395	4660
884.52	4637
884.646	4660
884.772	4580
884.897	4542
885.023	4679
885.148	4809
885.274	4835
885.399	4774
885.524	4706
885.65	4656
885.775	4729
885.9	4717
886.025	4820
886.15	4816
886.275	4717
886.4	4611
886.525	4702
886.65	4710
886.775	4649
886.9	4965
887.025	5018
887.149	4828
887.274	4675
887.399	4615
887.523	4577
887.648	4542
887.773	4630
887.897	4748
888.021	4790
888.146	4706
888.27	4816
888.395	4892
888.519	4816
888.643	4793
888.767	4797
888.891	4687
889.015	4603
889.139	4615
889.263	4626
889.387	4740
889.511	4839
889.635	4797
889.759	4637
889.883	4603
890.006	4740
890.13	4816
890.254	4664
890.377	4649
890.501	4531
890.624	4500
890.748	4603
890.871	4508
890.995	4405
891.118	4409
891.241	4531
891.364	4523
891.488	4573
891.611	4523
891.734	4550
891.857	4626
891.98	4554
892.103	4641
892.226	4577
892.349	4535
892.471	4390
892.594	4561
892.717	4592
892.839	4573
892.962	4577
893.085	4683
893.207	4573
893.33	4470
893.452	4489
893.575	4660
893.697	4546
893.819	4721
893.941	4782
894.064	4752
894.186	4550
894.308	4573
894.43	4752
894.552	4828
894.674	4717
894.796	4569
894.918	4558
895.04	4577
895.161	4664
895.283	4679
895.405	4615
895.526	4649
895.648	4679
895.769	4679
895.891	4736
896.012	4725
896.134	4725
896.255	4653
896.376	4603
896.498	4615
896.619	4618
896.74	4577
896.861	4679
896.982	4930
897.103	5060
897.224	4820
897.345	4698
897.466	4656
897.587	4721
897.708	4828
897.828	4736
897.949	4660
898.07	4558
898.19	4611
898.311	4847
898.431	4683
898.552	4767
898.672	4850
898.792	4782
898.913	4736
899.033	4615
899.153	4500
899.273	4440
899.393	4455
899.513	4516
899.633	4523
899.753	4516
899.873	4500
899.993	4584
900.113	4523
900.232	4592
900.352	4466
900.472	4519
900.591	4394
900.711	4451
900.83	4474
900.95	4573
901.069	4675
901.189	4554
901.308	4383
901.427	4272
901.546	4383
901.665	4428
901.784	4504
901.904	4356
902.023	4310
902.141	4158
902.26	4128
902.379	4310
902.498	4227
902.617	4188
902.735	4348
902.854	4375
902.973	4329
903.091	4169
903.21	4211
903.328	4276
903.446	4325
903.565	4261
903.683	4363
903.801	4276
903.919	4405
904.038	4428
904.156	4341
904.274	4440
904.392	4344
904.51	4459
904.627	4440
904.745	4580
904.863	4637
904.981	4367
905.098	4287
905.216	4291
905.334	4421
905.451	4436
905.569	4413
905.686	4558
905.803	4531
905.921	4432
906.038	4527
906.155	4508
906.272	4417
906.389	4447
906.506	4344
906.623	4318
906.74	4390
906.857	4287
906.974	4363
907.091	4573
907.208	4675
907.324	4645
907.441	4500
907.557	4329
907.674	4344
907.79	4322
907.907	4341
908.023	4493
908.139	4489
908.256	4386
908.372	4436
908.488	4432
908.604	4383
908.72	4303
908.836	4379
908.952	4402
909.068	4440
909.184	4523
909.3	4497
909.415	4573
909.531	4561
909.647	4348
909.762	4344
909.878	4303
909.993	4466
910.108	4455
910.224	4390
910.339	4462
910.454	4417
910.57	4386
910.685	4287
910.8	4675
910.915	4615
911.03	4527
911.145	4314
911.259	4310
911.374	4314
911.489	4272
911.604	4284
911.718	4169
911.833	4181
911.947	4082
912.062	4063
912.176	4238
912.291	4261
912.405	4249
912.519	4417
912.633	4497
912.748	4360
912.862	4318
912.976	4173
913.09	4150
913.204	4196
913.318	4234
913.431	4299
913.545	4360
913.659	4462
913.772	4356
913.886	4227
914	4200
914.113	4352
914.226	4481
914.34	4394
914.453	4207
914.566	4424
914.68	4310
914.793	4299
914.906	4139
915.019	4071
915.132	4063
915.245	4166
915.358	4166
915.47	4249
915.583	4246
915.696	4299
915.809	4367
915.921	4436
916.034	4238
916.146	4253
916.259	4192
916.371	4363
916.483	4291
916.595	4265
916.708	4329
916.82	4333
916.932	4299
917.044	4287
917.156	4333
917.268	4246
917.38	4227
917.491	4291
917.603	4329
917.715	4421
917.826	4417
917.938	4306
918.049	4173
918.161	4386
918.272	4527
918.384	4489
918.495	4440
918.606	4249
918.717	4223
918.828	4303
918.939	4363
919.05	4272
919.161	4303
919.272	4135
919.383	4246
919.494	4436
919.604	4660
919.715	4428
919.826	4333
919.936	4447
920.047	4531
920.157	4451
920.267	4683
920.378	4527
920.488	4508
920.598	4672
920.708	4881
920.818	4778
920.928	4824
921.038	4934
921.148	4911
921.258	4561
921.368	4558
921.477	4504
921.587	4470
921.697	4375
921.806	4527
921.916	4428
922.025	4265
922.134	4261
922.244	4200
922.353	4314
922.462	4177
922.571	4162
922.68	3998
922.789	3964
922.898	4013
923.007	3956
923.116	4105
923.224	4040
923.333	4082
923.442	4017
923.55	3964
923.659	4036
923.767	4032
923.876	3979
923.984	4135
924.092	3972
924.201	4055
924.309	4139
924.417	4090
924.525	4051
924.633	4124
924.741	5037
924.849	3926
924.956	4116
925.064	3964
925.172	3899
925.279	3964
925.387	4044
925.494	4067
925.602	4169
925.709	4192
925.816	4010
925.924	4131
926.031	4261
926.138	4143
926.245	4185
926.352	4086
926.459	4234
926.566	4299
926.673	4116
926.779	4086
926.886	4093
926.993	3968
927.099	3972
927.206	3949
927.312	3945
927.419	4029
927.525	4048
927.631	4071
927.737	3918
927.843	3953
927.95	3808
928.056	3956
928.162	3998
928.267	4067
928.373	4679
928.479	4124
928.585	3873
928.69	4025
928.796	4067
928.901	3960
929.007	3819
929.112	3991
929.218	3956
929.323	3922
929.428	3915
929.533	4078
929.638	3922
929.743	3979
929.848	4025
929.953	3994
930.058	3956
930.163	3774
930.267	3812
930.372	3979
930.477	3789
930.581	4090
930.685	3937
930.79	3812
930.894	3884
930.998	3880
931.103	4059
931.207	3709
931.311	3686
931.415	3637
931.519	3504
931.623	3538
