Data from test_V78500241_1753.txt Node
Date: Fri Mar 25 17:01:11 CST 2022
User: usil
Spectrometer: V785-0024
Trigger mode: 0
Integration Time (sec): 4.000000E-1
Scans to average: 1
Nonlinearity correction enabled: false
Boxcar width: 0
Storing dark spectrum: false
XAxis mode: Wavelengths
Number of Pixels in Spectrum: 1024
>>>>>Begin Spectral Data<<<<<
801.071	7928
801.214	8012
801.356	7860
801.499	7932
801.641	7780
801.783	7769
801.926	7982
802.068	7875
802.211	8073
802.353	7959
802.496	7788
802.638	7925
802.78	7917
802.923	7898
803.065	7826
803.208	7868
803.35	8031
803.492	8111
803.635	8115
803.777	7993
803.919	8073
804.061	8427
804.204	8149
804.346	8054
804.488	7947
804.63	8073
804.773	8024
804.915	8058
805.057	8309
805.199	8126
805.341	8153
805.483	8180
805.626	8206
805.768	8164
805.91	8237
806.052	8176
806.194	8130
806.336	8210
806.478	8126
806.62	7963
806.762	8191
806.904	8259
807.046	8450
807.188	8419
807.33	8290
807.472	8298
807.614	8187
807.756	8134
807.898	8054
808.04	7871
808.182	7841
808.324	7909
808.465	7986
808.607	8088
808.749	8084
808.891	8202
809.033	8301
809.174	8240
809.316	8142
809.458	8084
809.6	7974
809.741	8005
809.883	8039
810.025	8096
810.166	8096
810.308	7921
810.45	7963
810.591	7818
810.733	7776
810.875	7632
811.016	7502
811.158	7548
811.299	7563
811.441	7746
811.582	7677
811.724	7487
811.865	7586
812.007	7586
812.148	7590
812.29	7662
812.431	7792
812.573	7860
812.714	7944
812.855	8157
812.997	8153
813.138	8301
813.279	8172
813.421	8096
813.562	7921
813.703	7837
813.845	7734
813.986	7449
814.127	7270
814.268	7156
814.41	7206
814.551	7213
814.692	7247
814.833	7088
814.974	7122
815.115	7118
815.256	6970
815.397	6962
815.539	6913
815.68	6818
815.821	6787
815.962	6909
816.103	6772
816.244	6738
816.385	6646
816.526	6582
816.666	6502
816.807	6300
816.948	6448
817.089	6502
817.23	6426
817.371	6346
817.512	6372
817.653	6380
817.793	6353
817.934	6388
818.075	6407
818.216	6403
818.356	6395
818.497	6258
818.638	6159
818.778	6117
818.919	6155
819.06	6152
819.2	6308
819.341	6323
819.481	6331
819.622	6540
819.762	6684
819.903	6673
820.043	6597
820.184	6555
820.324	6559
820.465	6684
820.605	6681
820.746	6612
820.886	6551
821.026	6688
821.167	6719
821.307	6768
821.447	6722
821.588	6654
821.728	6555
821.868	6391
822.008	6311
822.149	6376
822.289	6369
822.429	6121
822.569	6121
822.709	6144
822.849	5920
822.99	5855
823.13	5969
823.27	5882
823.41	5783
823.55	5786
823.69	5760
823.83	5794
823.97	5600
824.11	5505
824.25	5493
824.389	5577
824.529	5585
824.669	5535
824.809	5611
824.949	5710
825.089	5615
825.228	5520
825.368	5368
825.508	5368
825.648	5330
825.787	5395
825.927	5417
826.067	5277
826.206	5227
826.346	5402
826.485	5433
826.625	5421
826.765	5467
826.904	5493
827.044	5258
827.183	5246
827.323	5136
827.462	5239
827.601	5178
827.741	5143
827.88	5246
828.02	5121
828.159	5185
828.298	5261
828.437	5296
828.577	5250
828.716	5501
828.855	5322
828.994	5159
829.134	5181
829.273	5201
829.412	5136
829.551	5147
829.69	5132
829.829	5208
829.968	5372
830.107	5258
830.246	5246
830.385	5174
830.524	5143
830.663	5056
830.802	4976
830.941	4862
831.08	4870
831.219	4999
831.357	4949
831.496	5212
831.635	4927
831.774	4847
831.913	4877
832.051	4717
832.19	4694
832.329	4858
832.467	4698
832.606	4622
832.744	4672
832.883	4687
833.022	4698
833.16	4752
833.299	4793
833.437	4820
833.576	4820
833.714	4854
833.852	4858
833.991	4850
834.129	4942
834.267	4934
834.406	4896
834.544	4965
834.682	4923
834.821	4961
834.959	5189
835.097	5003
835.235	5124
835.373	5041
835.511	5140
835.65	5037
835.788	5029
835.926	4896
836.064	4881
836.202	4915
836.34	5086
836.478	5212
836.615	5086
836.753	5204
836.891	5246
837.029	5181
837.167	5147
837.305	5132
837.443	5193
837.58	5083
837.718	5231
837.856	5185
837.993	5098
838.131	5231
838.269	5216
838.406	5181
838.544	5201
838.681	5045
838.819	5029
838.956	4938
839.094	4915
839.231	4946
839.369	5071
839.506	5440
839.643	5269
839.781	5045
839.918	4984
840.055	5102
840.193	5018
840.33	5143
840.467	5136
840.604	5185
840.742	5402
840.879	5060
841.016	5083
841.153	5124
841.29	5383
841.427	5315
841.564	5277
841.701	5357
841.838	5292
841.975	5220
842.112	5212
842.249	5151
842.385	5113
842.522	5318
842.659	5128
842.796	5140
842.933	5208
843.069	5136
843.206	5162
843.343	5280
843.479	5231
843.616	5246
843.752	5056
843.889	4995
844.025	5189
844.162	4987
844.298	5181
844.435	5102
844.571	5048
844.708	5189
844.844	5326
844.98	5273
845.117	5311
845.253	5117
845.389	5083
845.525	5147
845.661	5147
845.798	5033
845.934	5109
846.07	5014
846.206	5204
846.342	5322
846.478	5147
846.614	4957
846.75	4949
846.886	4938
847.022	5102
847.158	4957
847.294	5010
847.429	5071
847.565	5048
847.701	5280
847.837	4828
847.972	4835
848.108	4965
848.244	4904
848.379	4748
848.515	4714
848.65	4706
848.786	4721
848.921	4721
849.057	4870
849.192	4949
849.328	4786
849.463	4843
849.598	4824
849.734	4736
849.869	4672
850.004	4599
850.14	4664
850.275	4611
850.41	4565
850.545	4599
850.68	4634
850.815	4611
850.95	4630
851.085	4850
851.22	4717
851.355	4687
851.49	4607
851.625	4603
851.76	4637
851.895	4580
852.03	4523
852.165	4641
852.299	4717
852.434	4790
852.569	4710
852.703	4736
852.838	4782
852.973	4919
853.107	4900
853.242	4710
853.376	4637
853.511	4516
853.645	4630
853.78	4778
853.914	4660
854.048	4649
854.183	4641
854.317	4767
854.451	4820
854.585	4645
854.72	4615
854.854	4679
854.988	4542
855.122	4630
855.256	4485
855.39	4626
855.524	4755
855.658	4706
855.792	4615
855.926	4729
856.06	4683
856.194	4778
856.327	4679
856.461	4603
856.595	4561
856.729	4622
856.862	4733
856.996	4702
857.13	4736
857.263	4763
857.397	4797
857.53	4683
857.664	4744
857.797	4729
857.931	4744
858.064	4694
858.197	4691
858.331	4599
858.464	4618
858.597	4497
858.731	4637
858.864	4607
858.997	4558
859.13	4664
859.263	4668
859.396	4698
859.529	4580
859.662	4561
859.795	4550
859.928	4618
860.061	4767
860.194	4763
860.327	4580
860.46	4573
860.592	4675
860.725	4656
860.858	4694
860.99	4592
861.123	4493
861.256	4466
861.388	4603
861.521	5292
861.653	4470
861.786	4409
861.918	4466
862.05	4527
862.183	4550
862.315	4634
862.447	4622
862.58	4535
862.712	4394
862.844	4341
862.976	4481
863.108	4447
863.24	4790
863.372	4367
863.504	4409
863.636	4379
863.768	4459
863.9	4405
864.032	4352
864.164	4394
864.296	4462
864.428	4535
864.559	4569
864.691	4538
864.823	4508
864.954	4466
865.086	4489
865.217	4436
865.349	4371
865.48	4436
865.612	4493
865.743	4630
865.875	4413
866.006	4447
866.137	4443
866.269	4459
866.4	4466
866.531	4432
866.662	4367
866.793	4394
866.924	4421
867.055	4497
867.186	4493
867.317	4405
867.448	4371
867.579	4363
867.71	4371
867.841	4356
867.972	4440
868.103	4466
868.233	4432
868.364	4432
868.495	4500
868.625	4641
868.756	4752
868.886	4580
869.017	4641
869.147	4771
869.278	4793
869.408	4706
869.539	4622
869.669	4706
869.799	4634
869.929	4755
870.06	4702
870.19	4942
870.32	4915
870.45	4942
870.58	5029
870.71	5132
870.84	5117
870.97	4968
871.1	4930
871.23	5124
871.36	5105
871.489	4968
871.619	5022
871.749	5102
871.879	5121
872.008	5075
872.138	5064
872.267	4942
872.397	4831
872.526	4763
872.656	4740
872.785	4786
872.915	4911
873.044	4999
873.173	4915
873.303	4968
873.432	4946
873.561	4949
873.69	4885
873.819	4873
873.948	4889
874.077	4828
874.206	4733
874.335	4797
874.464	4919
874.593	5041
874.722	4904
874.851	5102
874.979	5060
875.108	5006
875.237	4919
875.365	4927
875.494	4919
875.623	4980
875.751	4885
875.88	4835
876.008	4911
876.136	5029
876.265	5223
876.393	5311
876.521	5235
876.65	5223
876.778	5132
876.906	5083
877.034	4980
877.162	4984
877.29	4991
877.418	5045
877.546	5037
877.674	5006
877.802	5029
877.93	5037
878.058	4934
878.185	4889
878.313	4976
878.441	4934
878.568	4843
878.696	4831
878.824	4946
878.951	5006
879.079	5090
879.206	5277
879.333	5128
879.461	4949
879.588	5029
879.715	5128
879.842	5258
879.97	4999
880.097	4778
880.224	4714
880.351	4771
880.478	4828
880.605	4828
880.732	4778
880.859	5041
880.986	4831
881.112	4957
881.239	4759
881.366	4645
881.493	4603
881.619	4603
881.746	4645
881.872	4641
881.999	4679
882.125	4717
882.252	4831
882.378	4843
882.505	4946
882.631	4809
882.757	4672
882.883	4740
883.01	4755
883.136	4660
883.262	4596
883.388	4611
883.514	4790
883.64	4892
883.766	4778
883.892	4679
884.018	4740
884.143	4889
884.269	5022
884.395	4672
884.52	4641
884.646	4664
884.772	4573
884.897	4569
885.023	4641
885.148	4771
885.274	4835
885.399	4828
885.524	4687
885.65	4717
885.775	4748
885.9	4733
886.025	4873
886.15	4763
886.275	4725
886.4	4668
886.525	4706
886.65	4691
886.775	4702
886.9	4858
887.025	5060
887.149	4847
887.274	4634
887.399	4584
887.523	4603
887.648	4569
887.773	4584
887.897	4774
888.021	4786
888.146	4691
888.27	4774
888.395	4877
888.519	4782
888.643	4805
888.767	4797
888.891	4649
889.015	4558
889.139	4702
889.263	4577
889.387	4793
889.511	4835
889.635	4786
889.759	4599
889.883	4649
890.006	4694
890.13	4866
890.254	4592
890.377	4672
890.501	4504
890.624	4535
890.748	4664
890.871	4470
890.995	4436
891.118	4398
891.241	4516
891.364	4516
891.488	4607
891.611	4500
891.734	4535
891.857	4603
891.98	4531
892.103	4622
892.226	4569
892.349	4523
892.471	4421
892.594	4577
892.717	4641
892.839	4542
892.962	4588
893.085	4679
893.207	4607
893.33	4485
893.452	4523
893.575	4656
893.697	4592
893.819	4771
893.941	4801
894.064	4763
894.186	4596
894.308	4558
894.43	4698
894.552	4805
894.674	4733
894.796	4569
894.918	4554
895.04	4554
895.161	4698
895.283	4675
895.405	4592
895.526	4561
895.648	4691
895.769	4656
895.891	4683
896.012	4740
896.134	4721
896.255	4691
896.376	4622
896.498	4596
896.619	4626
896.74	4626
896.861	4664
896.982	4976
897.103	5102
897.224	4850
897.345	4748
897.466	4687
897.587	4706
897.708	4854
897.828	4778
897.949	4653
898.07	4626
898.19	4641
898.311	4816
898.431	4645
898.552	4752
898.672	4801
898.792	4778
898.913	4752
899.033	4615
899.153	4493
899.273	4474
899.393	4497
899.513	4481
899.633	4508
899.753	4516
899.873	4527
899.993	4577
900.113	4489
900.232	4565
900.352	4508
900.472	4459
900.591	4421
900.711	4478
900.83	4383
900.95	4599
901.069	4710
901.189	4470
901.308	4367
901.427	4314
901.546	4344
901.665	4447
901.784	4512
901.904	4352
902.023	4303
902.141	4192
902.26	4200
902.379	4318
902.498	4246
902.617	4211
902.735	4375
902.854	4398
902.973	4337
903.091	4196
903.21	4242
903.328	4265
903.446	4268
903.565	4291
903.683	4367
903.801	4276
903.919	4398
904.038	4417
904.156	4337
904.274	4443
904.392	4409
904.51	4432
904.627	4455
904.745	4641
904.863	4645
904.981	4432
905.098	4344
905.216	4337
905.334	4394
905.451	4405
905.569	4421
905.686	4497
905.803	4584
905.921	4436
906.038	4546
906.155	4459
906.272	4375
906.389	4455
906.506	4356
906.623	4371
906.74	4367
906.857	4325
906.974	4325
907.091	4577
907.208	4656
907.324	4660
907.441	4474
907.557	4318
907.674	4360
907.79	4329
907.907	4329
908.023	4474
908.139	4504
908.256	4436
908.372	4500
908.488	4413
908.604	4360
908.72	4310
908.836	4383
908.952	4363
909.068	4398
909.184	4538
909.3	4485
909.415	4561
909.531	4527
909.647	4333
909.762	4375
909.878	4341
909.993	4413
910.108	4409
910.224	4417
910.339	4474
910.454	4341
910.57	4367
910.685	4325
910.8	4637
910.915	4634
911.03	4489
911.145	4299
911.259	4303
911.374	4394
911.489	4333
911.604	4268
911.718	4154
911.833	4154
911.947	4067
912.062	4032
912.176	4238
912.291	4211
912.405	4219
912.519	4428
912.633	4485
912.748	4341
912.862	4318
912.976	4192
913.09	4097
913.204	4173
913.318	4268
913.431	4318
913.545	4371
913.659	4421
913.772	4417
913.886	4204
914	4181
914.113	4367
914.226	4405
914.34	4344
914.453	4268
914.566	4409
914.68	4291
914.793	4306
914.906	4158
915.019	4112
915.132	4071
915.245	4177
915.358	4181
915.47	4265
915.583	4280
915.696	4303
915.809	4432
915.921	4428
916.034	4242
916.146	4249
916.259	4204
916.371	4436
916.483	4337
916.595	4219
916.708	4314
916.82	4329
916.932	4261
917.044	4314
917.156	4314
917.268	4230
917.38	4192
917.491	4253
917.603	4310
917.715	4409
917.826	4417
917.938	4379
918.049	4227
918.161	4348
918.272	4538
918.384	4542
918.495	4447
918.606	4287
918.717	4249
918.828	4333
918.939	4360
919.05	4268
919.161	4329
919.272	4116
919.383	4211
919.494	4474
919.604	4611
919.715	4379
919.826	4337
919.936	4417
920.047	4497
920.157	4489
920.267	4683
920.378	4489
920.488	4493
920.598	4653
920.708	4930
920.818	4771
920.928	4763
921.038	4919
921.148	4938
921.258	4656
921.368	4550
921.477	4504
921.587	4470
921.697	4344
921.806	4550
921.916	4466
922.025	4310
922.134	4242
922.244	4227
922.353	4276
922.462	4158
922.571	4116
922.68	4013
922.789	3998
922.898	3998
923.007	4002
923.116	4112
923.224	4059
923.333	4078
923.442	4002
923.55	4002
923.659	4044
923.767	4097
923.876	4055
923.984	4120
924.092	3983
924.201	4044
924.309	4158
924.417	4071
924.525	4063
924.633	4097
924.741	5018
924.849	3941
924.956	4135
925.064	3926
925.172	3930
925.279	3964
925.387	4040
925.494	4048
925.602	4238
925.709	4200
925.816	4044
925.924	4169
926.031	4196
926.138	4143
926.245	4215
926.352	4124
926.459	4219
926.566	4348
926.673	4150
926.779	4105
926.886	4097
926.993	3956
927.099	4006
927.206	3968
927.312	3941
927.419	4025
927.525	4044
927.631	4128
927.737	3991
927.843	3956
927.95	3854
928.056	3941
928.162	3960
928.267	4036
928.373	4672
928.479	4147
928.585	3896
928.69	4059
928.796	4078
928.901	3956
929.007	3865
929.112	4029
929.218	3987
929.323	3945
929.428	3979
929.533	4097
929.638	3888
929.743	3918
929.848	4029
929.953	3998
930.058	3892
930.163	3720
930.267	3827
930.372	3941
930.477	3797
930.581	4021
930.685	3907
930.79	3793
930.894	3892
930.998	3838
931.103	4025
931.207	3713
931.311	3705
931.415	3709
931.519	3523
931.623	3568
