Data from test_V78500241_59.txt Node
Date: Fri Mar 25 16:49:24 CST 2022
User: usil
Spectrometer: V785-0024
Trigger mode: 0
Integration Time (sec): 4.000000E-1
Scans to average: 1
Nonlinearity correction enabled: false
Boxcar width: 0
Storing dark spectrum: false
XAxis mode: Wavelengths
Number of Pixels in Spectrum: 1024
>>>>>Begin Spectral Data<<<<<
801.071	8050
801.214	8035
801.356	7982
801.499	7951
801.641	7871
801.783	7849
801.926	8020
802.068	8054
802.211	8077
802.353	8161
802.496	7955
802.638	7974
802.78	8035
802.923	8031
803.065	7906
803.208	7868
803.35	8008
803.492	8107
803.635	8244
803.777	7974
803.919	8119
804.061	8431
804.204	8218
804.346	8115
804.488	7993
804.63	8161
804.773	8058
804.915	8119
805.057	8214
805.199	8168
805.341	8210
805.483	8263
805.626	8195
805.768	8180
805.91	8199
806.052	8218
806.194	8100
806.336	8336
806.478	8210
806.62	8199
806.762	8218
806.904	8313
807.046	8454
807.188	8393
807.33	8343
807.472	8438
807.614	8218
807.756	8248
807.898	8115
808.04	7921
808.182	7989
808.324	7963
808.465	7978
808.607	8062
808.749	8202
808.891	8206
809.033	8286
809.174	8275
809.316	8062
809.458	8031
809.6	8016
809.741	8069
809.883	8043
810.025	8126
810.166	8050
810.308	8077
810.45	8142
810.591	8016
810.733	7803
810.875	7765
811.016	7586
811.158	7590
811.299	7708
811.441	7818
811.582	7849
811.724	7624
811.865	7616
812.007	7658
812.148	7757
812.29	7719
812.431	7856
812.573	7959
812.714	8092
812.855	8191
812.997	8290
813.138	8412
813.279	8240
813.421	8130
813.562	8092
813.703	7883
813.845	7807
813.986	7487
814.127	7354
814.268	7228
814.41	7209
814.551	7221
814.692	7266
814.833	7149
814.974	7209
815.115	7107
815.256	7023
815.397	7027
815.539	6901
815.68	6833
815.821	6764
815.962	6814
816.103	6901
816.244	6738
816.385	6703
816.526	6700
816.666	6589
816.807	6407
816.948	6502
817.089	6483
817.23	6506
817.371	6467
817.512	6414
817.653	6506
817.793	6399
817.934	6479
818.075	6502
818.216	6464
818.356	6506
818.497	6304
818.638	6224
818.778	6273
818.919	6197
819.06	6216
819.2	6418
819.341	6388
819.481	6365
819.622	6582
819.762	6783
819.903	6764
820.043	6658
820.184	6601
820.324	6631
820.465	6715
820.605	6760
820.746	6654
820.886	6623
821.026	6688
821.167	6798
821.307	6833
821.447	6753
821.588	6719
821.728	6563
821.868	6563
822.008	6342
822.149	6414
822.289	6437
822.429	6247
822.569	6152
822.709	6148
822.849	5973
822.99	5954
823.13	5980
823.27	5999
823.41	5817
823.55	5851
823.69	5802
823.83	5863
823.97	5733
824.11	5657
824.25	5512
824.389	5562
824.529	5646
824.669	5570
824.809	5619
824.949	5745
825.089	5684
825.228	5627
825.368	5387
825.508	5417
825.648	5402
825.787	5406
825.927	5433
826.067	5368
826.206	5364
826.346	5444
826.485	5440
826.625	5471
826.765	5638
826.904	5478
827.044	5318
827.183	5239
827.323	5185
827.462	5242
827.601	5239
827.741	5220
827.88	5216
828.02	5170
828.159	5280
828.298	5315
828.437	5414
828.577	5318
828.716	5558
828.855	5379
828.994	5261
829.134	5197
829.273	5261
829.412	5185
829.551	5189
829.69	5231
829.829	5292
829.968	5379
830.107	5345
830.246	5337
830.385	5254
830.524	5185
830.663	5094
830.802	5010
830.941	4961
831.08	4911
831.219	5029
831.357	5041
831.496	5174
831.635	4965
831.774	4892
831.913	4862
832.051	4816
832.19	4778
832.329	4908
832.467	4729
832.606	4698
832.744	4778
832.883	4778
833.022	4797
833.16	4835
833.299	4873
833.437	4900
833.576	4881
833.714	4915
833.852	4930
833.991	4930
834.129	5033
834.267	4984
834.406	4946
834.544	4957
834.682	5010
834.821	4995
834.959	5170
835.097	5045
835.235	5178
835.373	5121
835.511	5193
835.65	5067
835.788	5098
835.926	4919
836.064	4904
836.202	4927
836.34	5242
836.478	5292
836.615	5159
836.753	5284
836.891	5322
837.029	5303
837.167	5220
837.305	5201
837.443	5174
837.58	5178
837.718	5322
837.856	5181
837.993	5201
838.131	5250
838.269	5223
838.406	5231
838.544	5216
838.681	5052
838.819	5083
838.956	4946
839.094	4965
839.231	5014
839.369	5083
839.506	5425
839.643	5299
839.781	5117
839.918	5037
840.055	5109
840.193	5128
840.33	5159
840.467	5204
840.604	5204
840.742	5455
840.879	5128
841.016	5151
841.153	5197
841.29	5391
841.427	5425
841.564	5417
841.701	5440
841.838	5318
841.975	5307
842.112	5269
842.249	5155
842.385	5151
842.522	5406
842.659	5227
842.796	5181
842.933	5254
843.069	5197
843.206	5231
843.343	5318
843.479	5330
843.616	5277
843.752	5098
843.889	5033
844.025	5242
844.162	5060
844.298	5208
844.435	5105
844.571	5090
844.708	5273
844.844	5330
844.98	5368
845.117	5307
845.253	5189
845.389	5121
845.525	5189
845.661	5181
845.798	5090
845.934	5216
846.07	5094
846.206	5254
846.342	5311
846.478	5178
846.614	5098
846.75	5014
846.886	4999
847.022	5197
847.158	5052
847.294	5117
847.429	5162
847.565	5060
847.701	5364
847.837	4873
847.972	4877
848.108	5018
848.244	4946
848.379	4801
848.515	4763
848.65	4748
848.786	4778
848.921	4820
849.057	4889
849.192	4938
849.328	4927
849.463	4881
849.598	4831
849.734	4809
849.869	4710
850.004	4725
850.14	4664
850.275	4668
850.41	4535
850.545	4569
850.68	4626
850.815	4675
850.95	4664
851.085	4870
851.22	4771
851.355	4729
851.49	4660
851.625	4641
851.76	4687
851.895	4611
852.03	4615
852.165	4694
852.299	4767
852.434	4824
852.569	4774
852.703	4744
852.838	4835
852.973	5022
853.107	4942
853.242	4694
853.376	4675
853.511	4592
853.645	4687
853.78	4862
853.914	4714
854.048	4736
854.183	4675
854.317	4721
854.451	4930
854.585	4706
854.72	4653
854.854	4793
854.988	4634
855.122	4691
855.256	4607
855.39	4706
855.524	4870
855.658	4748
855.792	4736
855.926	4771
856.06	4809
856.194	4866
856.327	4710
856.461	4603
856.595	4668
856.729	4679
856.862	4805
856.996	4740
857.13	4793
857.263	4790
857.397	4839
857.53	4729
857.664	4748
857.797	4805
857.931	4824
858.064	4714
858.197	4774
858.331	4698
858.464	4634
858.597	4607
858.731	4641
858.864	4721
858.997	4649
859.13	4706
859.263	4683
859.396	4744
859.529	4630
859.662	4569
859.795	4542
859.928	4637
860.061	4839
860.194	4755
860.327	4603
860.46	4626
860.592	4744
860.725	4755
860.858	4744
860.99	4599
861.123	4550
861.256	4531
861.388	4626
861.521	5273
861.653	4527
861.786	4504
861.918	4462
862.05	4527
862.183	4565
862.315	4687
862.447	4660
862.58	4577
862.712	4390
862.844	4322
862.976	4508
863.108	4478
863.24	4919
863.372	4379
863.504	4417
863.636	4394
863.768	4474
863.9	4489
864.032	4455
864.164	4459
864.296	4489
864.428	4584
864.559	4588
864.691	4542
864.823	4558
864.954	4561
865.086	4538
865.217	4459
865.349	4436
865.48	4500
865.612	4569
865.743	4683
865.875	4527
866.006	4485
866.137	4531
866.269	4485
866.4	4500
866.531	4474
866.662	4462
866.793	4478
866.924	4421
867.055	4500
867.186	4462
867.317	4470
867.448	4417
867.579	4394
867.71	4409
867.841	4402
867.972	4474
868.103	4554
868.233	4466
868.364	4481
868.495	4478
868.625	4675
868.756	4793
868.886	4588
869.017	4683
869.147	4774
869.278	4793
869.408	4660
869.539	4672
869.669	4755
869.799	4698
869.929	4771
870.06	4774
870.19	4949
870.32	4961
870.45	5006
870.58	5071
870.71	5136
870.84	5121
870.97	4984
871.1	4953
871.23	5170
871.36	5109
871.489	5079
871.619	5147
871.749	5136
871.879	5140
872.008	5246
872.138	5109
872.267	5018
872.397	4896
872.526	4809
872.656	4778
872.785	4828
872.915	4984
873.044	5041
873.173	4927
873.303	5014
873.432	4991
873.561	4999
873.69	4900
873.819	4896
873.948	4980
874.077	4824
874.206	4767
874.335	4854
874.464	4946
874.593	5098
874.722	5029
874.851	5124
874.979	5105
875.108	5117
875.237	4957
875.365	4942
875.494	4915
875.623	5037
875.751	4911
875.88	4908
876.008	5056
876.136	5094
876.265	5239
876.393	5318
876.521	5307
876.65	5235
876.778	5159
876.906	5117
877.034	5060
877.162	5048
877.29	5029
877.418	5113
877.546	5128
877.674	5083
877.802	5033
877.93	5029
878.058	5033
878.185	4873
878.313	4984
878.441	4984
878.568	4858
878.696	4885
878.824	4972
878.951	5045
879.079	5155
879.206	5337
879.333	5128
879.461	5014
879.588	5041
879.715	5166
879.842	5273
879.97	5052
880.097	4900
880.224	4736
880.351	4805
880.478	4892
880.605	4816
880.732	4858
880.859	5109
880.986	4908
881.112	4995
881.239	4862
881.366	4710
881.493	4637
881.619	4626
881.746	4679
881.872	4672
881.999	4664
882.125	4733
882.252	4812
882.378	4854
882.505	5006
882.631	4767
882.757	4687
882.883	4782
883.01	4740
883.136	4691
883.262	4641
883.388	4691
883.514	4793
883.64	4919
883.766	4801
883.892	4755
884.018	4729
884.143	4927
884.269	5037
884.395	4725
884.52	4668
884.646	4653
884.772	4653
884.897	4599
885.023	4706
885.148	4816
885.274	4942
885.399	4809
885.524	4694
885.65	4736
885.775	4820
885.9	4714
886.025	4896
886.15	4816
886.275	4774
886.4	4668
886.525	4752
886.65	4744
886.775	4736
886.9	4923
887.025	5071
887.149	4839
887.274	4714
887.399	4630
887.523	4668
887.648	4592
887.773	4603
887.897	4812
888.021	4805
888.146	4740
888.27	4850
888.395	4976
888.519	4812
888.643	4843
888.767	4942
888.891	4702
889.015	4702
889.139	4668
889.263	4656
889.387	4831
889.511	4870
889.635	4835
889.759	4691
889.883	4664
890.006	4729
890.13	4862
890.254	4668
890.377	4710
890.501	4618
890.624	4565
890.748	4710
890.871	4538
890.995	4474
891.118	4375
891.241	4542
891.364	4558
891.488	4687
891.611	4577
891.734	4565
891.857	4577
891.98	4592
892.103	4641
892.226	4645
892.349	4519
892.471	4455
892.594	4599
892.717	4618
892.839	4599
892.962	4596
893.085	4729
893.207	4637
893.33	4466
893.452	4573
893.575	4656
893.697	4611
893.819	4862
893.941	4847
894.064	4782
894.186	4630
894.308	4580
894.43	4782
894.552	4831
894.674	4816
894.796	4565
894.918	4637
895.04	4603
895.161	4706
895.283	4641
895.405	4603
895.526	4645
895.648	4687
895.769	4679
895.891	4793
896.012	4763
896.134	4721
896.255	4721
896.376	4656
896.498	4649
896.619	4694
896.74	4641
896.861	4668
896.982	4915
897.103	5128
897.224	4839
897.345	4767
897.466	4714
897.587	4744
897.708	4900
897.828	4786
897.949	4710
898.07	4573
898.19	4672
898.311	4831
898.431	4675
898.552	4778
898.672	4831
898.792	4828
898.913	4786
899.033	4634
899.153	4550
899.273	4432
899.393	4478
899.513	4588
899.633	4561
899.753	4603
899.873	4531
899.993	4584
900.113	4599
900.232	4630
900.352	4527
900.472	4493
900.591	4451
900.711	4531
900.83	4440
900.95	4645
901.069	4744
901.189	4519
901.308	4394
901.427	4356
901.546	4428
901.665	4470
901.784	4577
901.904	4394
902.023	4371
902.141	4234
902.26	4162
902.379	4386
902.498	4287
902.617	4238
902.735	4436
902.854	4440
902.973	4333
903.091	4280
903.21	4253
903.328	4299
903.446	4299
903.565	4261
903.683	4386
903.801	4261
903.919	4413
904.038	4470
904.156	4337
904.274	4508
904.392	4447
904.51	4478
904.627	4481
904.745	4607
904.863	4660
904.981	4459
905.098	4344
905.216	4405
905.334	4481
905.451	4493
905.569	4527
905.686	4542
905.803	4584
905.921	4421
906.038	4588
906.155	4504
906.272	4409
906.389	4535
906.506	4386
906.623	4417
906.74	4436
906.857	4333
906.974	4417
907.091	4592
907.208	4675
907.324	4599
907.441	4523
907.557	4363
907.674	4398
907.79	4337
907.907	4371
908.023	4500
908.139	4516
908.256	4455
908.372	4485
908.488	4478
908.604	4363
908.72	4386
908.836	4398
908.952	4440
909.068	4462
909.184	4634
909.3	4497
909.415	4618
909.531	4565
909.647	4405
909.762	4428
909.878	4386
909.993	4474
910.108	4440
910.224	4478
910.339	4535
910.454	4432
910.57	4371
910.685	4344
910.8	4721
910.915	4653
911.03	4508
911.145	4386
911.259	4314
911.374	4375
911.489	4344
911.604	4280
911.718	4219
911.833	4230
911.947	4131
912.062	4059
912.176	4219
912.291	4253
912.405	4291
912.519	4481
912.633	4565
912.748	4440
912.862	4386
912.976	4249
913.09	4097
913.204	4242
913.318	4268
913.431	4443
913.545	4443
913.659	4504
913.772	4402
913.886	4287
914	4253
914.113	4402
914.226	4466
914.34	4405
914.453	4253
914.566	4493
914.68	4329
914.793	4402
914.906	4177
915.019	4120
915.132	4078
915.245	4234
915.358	4265
915.47	4303
915.583	4318
915.696	4348
915.809	4440
915.921	4470
916.034	4348
916.146	4295
916.259	4223
916.371	4409
916.483	4363
916.595	4306
916.708	4386
916.82	4367
916.932	4356
917.044	4402
917.156	4402
917.268	4253
917.38	4341
917.491	4295
917.603	4383
917.715	4455
917.826	4447
917.938	4402
918.049	4329
918.161	4466
918.272	4561
918.384	4573
918.495	4519
918.606	4424
918.717	4219
918.828	4371
918.939	4390
919.05	4314
919.161	4352
919.272	4185
919.383	4249
919.494	4527
919.604	4656
919.715	4470
919.826	4402
919.936	4466
920.047	4558
920.157	4493
920.267	4721
920.378	4615
920.488	4592
920.598	4767
920.708	4889
920.818	4820
920.928	4793
921.038	4976
921.148	4904
921.258	4675
921.368	4554
921.477	4512
921.587	4573
921.697	4436
921.806	4542
921.916	4462
922.025	4303
922.134	4276
922.244	4200
922.353	4367
922.462	4169
922.571	4143
922.68	4059
922.789	4017
922.898	4059
923.007	4006
923.116	4135
923.224	4143
923.333	4112
923.442	4044
923.55	4032
923.659	4063
923.767	4181
923.876	4021
923.984	4158
924.092	4036
924.201	4086
924.309	4131
924.417	4166
924.525	4090
924.633	4143
924.741	5121
924.849	3972
924.956	4192
925.064	3987
925.172	3953
925.279	3975
925.387	4086
925.494	4097
925.602	4272
925.709	4207
925.816	4059
925.924	4116
926.031	4268
926.138	4223
926.245	4230
926.352	4147
926.459	4306
926.566	4367
926.673	4215
926.779	4128
926.886	4090
926.993	4048
927.099	3949
927.206	4013
927.312	3983
927.419	4128
927.525	4048
927.631	4116
927.737	4013
927.843	4006
927.95	3903
928.056	3991
928.162	4013
928.267	4086
928.373	4740
928.479	4150
928.585	3899
928.69	4059
928.796	4090
928.901	4017
929.007	3865
929.112	4029
929.218	4025
929.323	3941
929.428	3941
929.533	4135
929.638	3937
929.743	3998
929.848	4074
929.953	3983
930.058	3987
930.163	3797
930.267	3873
930.372	4006
930.477	3819
930.581	4139
930.685	3998
930.79	3819
930.894	3953
930.998	3907
931.103	4063
931.207	3766
931.311	3724
931.415	3690
931.519	3500
931.623	3557
