Data from test_V78500241_2329.txt Node
Date: Fri Mar 25 17:05:11 CST 2022
User: usil
Spectrometer: V785-0024
Trigger mode: 0
Integration Time (sec): 4.000000E-1
Scans to average: 1
Nonlinearity correction enabled: false
Boxcar width: 0
Storing dark spectrum: false
XAxis mode: Wavelengths
Number of Pixels in Spectrum: 1024
>>>>>Begin Spectral Data<<<<<
801.071	8008
801.214	7989
801.356	7883
801.499	7864
801.641	7849
801.783	7856
801.926	7986
802.068	7906
802.211	7940
802.353	7993
802.496	7906
802.638	7894
802.78	7814
802.923	7932
803.065	7947
803.208	7871
803.35	7989
803.492	8111
803.635	8115
803.777	8043
803.919	8138
804.061	8419
804.204	8256
804.346	8126
804.488	7989
804.63	8119
804.773	8039
804.915	8176
805.057	8355
805.199	8199
805.341	8240
805.483	8263
805.626	8221
805.768	8149
805.91	8282
806.052	8199
806.194	8065
806.336	8332
806.478	8134
806.62	8084
806.762	8130
806.904	8271
807.046	8492
807.188	8351
807.33	8275
807.472	8358
807.614	8199
807.756	8191
807.898	8012
808.04	7967
808.182	7871
808.324	7932
808.465	7967
808.607	8035
808.749	8119
808.891	8244
809.033	8225
809.174	8256
809.316	8134
809.458	8084
809.6	7986
809.741	8077
809.883	8035
810.025	8092
810.166	8035
810.308	8031
810.45	8012
810.591	7917
810.733	7757
810.875	7696
811.016	7510
811.158	7540
811.299	7594
811.441	7765
811.582	7670
811.724	7544
811.865	7529
812.007	7639
812.148	7712
812.29	7647
812.431	7822
812.573	7936
812.714	7997
812.855	8077
812.997	8237
813.138	8290
813.279	8164
813.421	8050
813.562	8062
813.703	7792
813.845	7761
813.986	7472
814.127	7278
814.268	7225
814.41	7206
814.551	7217
814.692	7244
814.833	7129
814.974	7122
815.115	7076
815.256	6947
815.397	6947
815.539	6989
815.68	6848
815.821	6798
815.962	6852
816.103	6791
816.244	6741
816.385	6646
816.526	6574
816.666	6559
816.807	6350
816.948	6532
817.089	6498
817.23	6452
817.371	6410
817.512	6410
817.653	6429
817.793	6372
817.934	6414
818.075	6467
818.216	6486
818.356	6441
818.497	6315
818.638	6190
818.778	6182
818.919	6117
819.06	6182
819.2	6372
819.341	6315
819.481	6429
819.622	6601
819.762	6745
819.903	6726
820.043	6658
820.184	6616
820.324	6612
820.465	6681
820.605	6646
820.746	6662
820.886	6525
821.026	6692
821.167	6726
821.307	6844
821.447	6798
821.588	6646
821.728	6555
821.868	6544
822.008	6353
822.149	6395
822.289	6399
822.429	6167
822.569	6057
822.709	6155
822.849	5958
822.99	5889
823.13	5920
823.27	5904
823.41	5851
823.55	5752
823.69	5828
823.83	5817
823.97	5688
824.11	5516
824.25	5497
824.389	5543
824.529	5627
824.669	5558
824.809	5627
824.949	5619
825.089	5592
825.228	5596
825.368	5406
825.508	5387
825.648	5345
825.787	5379
825.927	5330
826.067	5315
826.206	5284
826.346	5410
826.485	5398
826.625	5368
826.765	5554
826.904	5486
827.044	5220
827.183	5178
827.323	5220
827.462	5277
827.601	5223
827.741	5250
827.88	5239
828.02	5117
828.159	5227
828.298	5299
828.437	5353
828.577	5299
828.716	5543
828.855	5296
828.994	5166
829.134	5170
829.273	5204
829.412	5155
829.551	5220
829.69	5174
829.829	5258
829.968	5410
830.107	5318
830.246	5277
830.385	5151
830.524	5128
830.663	5105
830.802	4999
830.941	4881
831.08	4900
831.219	4976
831.357	5014
831.496	5162
831.635	4889
831.774	4824
831.913	4862
832.051	4736
832.19	4733
832.329	4858
832.467	4675
832.606	4668
832.744	4740
832.883	4721
833.022	4752
833.16	4805
833.299	4820
833.437	4847
833.576	4801
833.714	4911
833.852	4873
833.991	4892
834.129	4987
834.267	4984
834.406	4896
834.544	5014
834.682	4980
834.821	4980
834.959	5170
835.097	4991
835.235	5159
835.373	5117
835.511	5155
835.65	5014
835.788	5029
835.926	4892
836.064	4892
836.202	4968
836.34	5193
836.478	5258
836.615	5140
836.753	5166
836.891	5261
837.029	5292
837.167	5235
837.305	5159
837.443	5113
837.58	5102
837.718	5246
837.856	5170
837.993	5162
838.131	5269
838.269	5254
838.406	5204
838.544	5170
838.681	5037
838.819	5056
838.956	4908
839.094	4908
839.231	5006
839.369	5090
839.506	5414
839.643	5341
839.781	5018
839.918	5041
840.055	5113
840.193	5060
840.33	5109
840.467	5098
840.604	5147
840.742	5402
840.879	5052
841.016	5056
841.153	5170
841.29	5368
841.427	5311
841.564	5345
841.701	5326
841.838	5296
841.975	5246
842.112	5261
842.249	5132
842.385	5121
842.522	5372
842.659	5132
842.796	5155
842.933	5212
843.069	5136
843.206	5178
843.343	5280
843.479	5280
843.616	5269
843.752	5010
843.889	5083
844.025	5212
844.162	5022
844.298	5193
844.435	5052
844.571	5048
844.708	5174
844.844	5330
844.98	5341
845.117	5326
845.253	5117
845.389	5109
845.525	5136
845.661	5136
845.798	5022
845.934	5079
846.07	5045
846.206	5223
846.342	5307
846.478	5113
846.614	5045
846.75	4961
846.886	4927
847.022	5216
847.158	5064
847.294	5102
847.429	5071
847.565	5083
847.701	5307
847.837	4862
847.972	4778
848.108	4957
848.244	4976
848.379	4786
848.515	4694
848.65	4725
848.786	4744
848.921	4774
849.057	4892
849.192	4915
849.328	4820
849.463	4847
849.598	4812
849.734	4774
849.869	4694
850.004	4683
850.14	4698
850.275	4607
850.41	4561
850.545	4584
850.68	4603
850.815	4626
850.95	4637
851.085	4835
851.22	4721
851.355	4675
851.49	4664
851.625	4622
851.76	4645
851.895	4558
852.03	4550
852.165	4679
852.299	4721
852.434	4763
852.569	4729
852.703	4820
852.838	4835
852.973	4934
853.107	4957
853.242	4725
853.376	4679
853.511	4558
853.645	4618
853.78	4809
853.914	4683
854.048	4694
854.183	4596
854.317	4683
854.451	4828
854.585	4698
854.72	4618
854.854	4797
854.988	4577
855.122	4664
855.256	4538
855.39	4698
855.524	4782
855.658	4710
855.792	4664
855.926	4740
856.06	4744
856.194	4862
856.327	4687
856.461	4611
856.595	4607
856.729	4656
856.862	4748
856.996	4694
857.13	4755
857.263	4767
857.397	4778
857.53	4675
857.664	4698
857.797	4736
857.931	4797
858.064	4683
858.197	4706
858.331	4653
858.464	4622
858.597	4485
858.731	4603
858.864	4645
858.997	4588
859.13	4694
859.263	4626
859.396	4698
859.529	4542
859.662	4550
859.795	4546
859.928	4626
860.061	4752
860.194	4801
860.327	4592
860.46	4596
860.592	4698
860.725	4698
860.858	4759
860.99	4561
861.123	4531
861.256	4542
861.388	4618
861.521	5383
861.653	4516
861.786	4436
861.918	4497
862.05	4493
862.183	4580
862.315	4634
862.447	4660
862.58	4565
862.712	4375
862.844	4363
862.976	4474
863.108	4478
863.24	4862
863.372	4352
863.504	4390
863.636	4386
863.768	4474
863.9	4462
864.032	4390
864.164	4459
864.296	4432
864.428	4542
864.559	4546
864.691	4531
864.823	4550
864.954	4519
865.086	4535
865.217	4459
865.349	4451
865.48	4440
865.612	4485
865.743	4580
865.875	4447
866.006	4466
866.137	4478
866.269	4462
866.4	4478
866.531	4383
866.662	4367
866.793	4436
866.924	4443
867.055	4466
867.186	4455
867.317	4443
867.448	4390
867.579	4413
867.71	4417
867.841	4371
867.972	4451
868.103	4462
868.233	4443
868.364	4428
868.495	4489
868.625	4645
868.756	4736
868.886	4588
869.017	4660
869.147	4793
869.278	4748
869.408	4668
869.539	4630
869.669	4740
869.799	4645
869.929	4767
870.06	4812
870.19	4919
870.32	4957
870.45	4881
870.58	5022
870.71	5056
870.84	5132
870.97	4942
871.1	4904
871.23	5109
871.36	5143
871.489	5022
871.619	5071
871.749	5037
871.879	5083
872.008	5162
872.138	5006
872.267	5006
872.397	4835
872.526	4824
872.656	4733
872.785	4797
872.915	4953
873.044	5048
873.173	4961
873.303	4980
873.432	4957
873.561	4889
873.69	4866
873.819	4858
873.948	4881
874.077	4793
874.206	4759
874.335	4778
874.464	4957
874.593	5064
874.722	4934
874.851	5109
874.979	5094
875.108	5022
875.237	4904
875.365	4881
875.494	4927
875.623	4919
875.751	4854
875.88	4862
876.008	4987
876.136	5045
876.265	5174
876.393	5258
876.521	5280
876.65	5212
876.778	5155
876.906	5098
877.034	5045
877.162	5052
877.29	5006
877.418	5064
877.546	5018
877.674	5086
877.802	5029
877.93	5006
878.058	4923
878.185	4877
878.313	4984
878.441	4908
878.568	4793
878.696	4866
878.824	4984
878.951	4984
879.079	5147
879.206	5223
879.333	5090
879.461	4980
879.588	4961
879.715	5166
879.842	5208
879.97	5010
880.097	4744
880.224	4717
880.351	4744
880.478	4881
880.605	4744
880.732	4786
880.859	5102
880.986	4919
881.112	4923
881.239	4782
881.366	4656
881.493	4618
881.619	4607
881.746	4641
881.872	4603
881.999	4694
882.125	4660
882.252	4805
882.378	4831
882.505	4972
882.631	4771
882.757	4672
882.883	4721
883.01	4721
883.136	4664
883.262	4626
883.388	4588
883.514	4763
883.64	4831
883.766	4862
883.892	4668
884.018	4725
884.143	4896
884.269	5022
884.395	4733
884.52	4664
884.646	4660
884.772	4584
884.897	4584
885.023	4634
885.148	4790
885.274	4858
885.399	4828
885.524	4717
885.65	4668
885.775	4763
885.9	4733
886.025	4870
886.15	4793
886.275	4710
886.4	4649
886.525	4717
886.65	4702
886.775	4714
886.9	4873
887.025	4991
887.149	4759
887.274	4687
887.399	4592
887.523	4645
887.648	4626
887.773	4584
887.897	4736
888.021	4790
888.146	4664
888.27	4824
888.395	4873
888.519	4812
888.643	4771
888.767	4809
888.891	4706
889.015	4653
889.139	4668
889.263	4599
889.387	4763
889.511	4881
889.635	4820
889.759	4626
889.883	4577
890.006	4706
890.13	4820
890.254	4641
890.377	4698
890.501	4516
890.624	4542
890.748	4630
890.871	4500
890.995	4440
891.118	4390
891.241	4516
891.364	4538
891.488	4656
891.611	4481
891.734	4512
891.857	4618
891.98	4584
892.103	4641
892.226	4588
892.349	4535
892.471	4417
892.594	4580
892.717	4637
892.839	4554
892.962	4607
893.085	4698
893.207	4584
893.33	4478
893.452	4508
893.575	4637
893.697	4554
893.819	4809
893.941	4831
894.064	4740
894.186	4535
894.308	4569
894.43	4748
894.552	4797
894.674	4725
894.796	4523
894.918	4599
895.04	4531
895.161	4729
895.283	4611
895.405	4588
895.526	4664
895.648	4687
895.769	4702
895.891	4717
896.012	4767
896.134	4729
896.255	4714
896.376	4603
896.498	4584
896.619	4664
896.74	4637
896.861	4649
896.982	4953
897.103	5079
897.224	4831
897.345	4721
897.466	4649
897.587	4733
897.708	4904
897.828	4786
897.949	4664
898.07	4558
898.19	4569
898.311	4839
898.431	4611
898.552	4717
898.672	4759
898.792	4805
898.913	4736
899.033	4637
899.153	4474
899.273	4443
899.393	4489
899.513	4527
899.633	4519
899.753	4546
899.873	4531
899.993	4626
900.113	4558
900.232	4573
900.352	4565
900.472	4462
900.591	4402
900.711	4462
900.83	4424
900.95	4611
901.069	4683
901.189	4542
901.308	4367
901.427	4303
901.546	4379
901.665	4474
901.784	4481
901.904	4405
902.023	4310
902.141	4188
902.26	4188
902.379	4329
902.498	4227
902.617	4200
902.735	4367
902.854	4417
902.973	4344
903.091	4196
903.21	4188
903.328	4337
903.446	4265
903.565	4261
903.683	4344
903.801	4284
903.919	4390
904.038	4367
904.156	4318
904.274	4421
904.392	4383
904.51	4421
904.627	4485
904.745	4592
904.863	4626
904.981	4413
905.098	4329
905.216	4371
905.334	4474
905.451	4424
905.569	4386
905.686	4542
905.803	4550
905.921	4402
906.038	4542
906.155	4462
906.272	4367
906.389	4485
906.506	4337
906.623	4402
906.74	4402
906.857	4299
906.974	4363
907.091	4569
907.208	4687
907.324	4565
907.441	4474
907.557	4299
907.674	4322
907.79	4280
907.907	4398
908.023	4512
908.139	4447
908.256	4474
908.372	4462
908.488	4462
908.604	4329
908.72	4295
908.836	4386
908.952	4379
909.068	4432
909.184	4519
909.3	4462
909.415	4561
909.531	4592
909.647	4337
909.762	4367
909.878	4314
909.993	4386
910.108	4379
910.224	4386
910.339	4500
910.454	4413
910.57	4360
910.685	4306
910.8	4630
910.915	4592
911.03	4481
911.145	4322
911.259	4276
911.374	4424
911.489	4284
911.604	4253
911.718	4177
911.833	4204
911.947	4086
912.062	4017
912.176	4215
912.291	4234
912.405	4204
912.519	4462
912.633	4466
912.748	4337
912.862	4276
912.976	4230
913.09	4101
913.204	4223
913.318	4291
913.431	4348
913.545	4322
913.659	4432
913.772	4333
913.886	4249
914	4223
914.113	4356
914.226	4459
914.34	4409
914.453	4215
914.566	4394
914.68	4306
914.793	4341
914.906	4227
915.019	4162
915.132	4097
915.245	4147
915.358	4257
915.47	4257
915.583	4272
915.696	4333
915.809	4386
915.921	4375
916.034	4268
916.146	4265
916.259	4215
916.371	4390
916.483	4383
916.595	4257
916.708	4363
916.82	4322
916.932	4322
917.044	4310
917.156	4363
917.268	4249
917.38	4253
917.491	4257
917.603	4352
917.715	4421
917.826	4470
917.938	4367
918.049	4261
918.161	4447
918.272	4497
918.384	4558
918.495	4455
918.606	4303
918.717	4246
918.828	4318
918.939	4333
919.05	4242
919.161	4310
919.272	4131
919.383	4204
919.494	4466
919.604	4626
919.715	4413
919.826	4352
919.936	4383
920.047	4546
920.157	4497
920.267	4702
920.378	4516
920.488	4538
920.598	4698
920.708	4854
920.818	4752
920.928	4763
921.038	4934
921.148	4900
921.258	4645
921.368	4546
921.477	4485
921.587	4459
921.697	4356
921.806	4516
921.916	4451
922.025	4303
922.134	4284
922.244	4246
922.353	4295
922.462	4147
922.571	4169
922.68	3975
922.789	3979
922.898	4013
923.007	3994
923.116	4086
923.224	4063
923.333	4105
923.442	4006
923.55	4029
923.659	4013
923.767	4101
923.876	4010
923.984	4109
924.092	3983
924.201	4051
924.309	4116
924.417	4086
924.525	4067
924.633	4105
924.741	5117
924.849	3930
924.956	4124
925.064	3964
925.172	3911
925.279	4002
925.387	3991
925.494	4040
925.602	4169
925.709	4238
925.816	3994
925.924	4147
926.031	4227
926.138	4177
926.245	4173
926.352	4135
926.459	4238
926.566	4291
926.673	4177
926.779	4071
926.886	4074
926.993	3964
927.099	3934
927.206	3918
927.312	3930
927.419	4048
927.525	4029
927.631	4067
927.737	4021
927.843	3983
927.95	3838
928.056	3964
928.162	3991
928.267	4010
928.373	4717
928.479	4105
928.585	3915
928.69	4029
928.796	4112
928.901	3991
929.007	3861
929.112	4021
929.218	3994
929.323	3888
929.428	3907
929.533	4112
929.638	3865
929.743	3983
929.848	4036
929.953	4002
930.058	3968
930.163	3785
930.267	3808
930.372	3930
930.477	3812
930.581	4097
930.685	3964
930.79	3804
930.894	3896
930.998	3896
931.103	4048
931.207	3709
931.311	3675
931.415	3637
931.519	3538
931.623	3542
