Data from test_V78500241_974.txt Node
Date: Fri Mar 25 16:55:46 CST 2022
User: usil
Spectrometer: V785-0024
Trigger mode: 0
Integration Time (sec): 4.000000E-1
Scans to average: 1
Nonlinearity correction enabled: false
Boxcar width: 0
Storing dark spectrum: false
XAxis mode: Wavelengths
Number of Pixels in Spectrum: 1024
>>>>>Begin Spectral Data<<<<<
801.071	8077
801.214	8077
801.356	7932
801.499	7898
801.641	7803
801.783	7849
801.926	7978
802.068	7951
802.211	7963
802.353	7909
802.496	7860
802.638	7830
802.78	7951
802.923	7974
803.065	7959
803.208	7936
803.35	7978
803.492	8138
803.635	8191
803.777	8035
803.919	8100
804.061	8511
804.204	8138
804.346	8138
804.488	7967
804.63	8164
804.773	8016
804.915	8107
805.057	8256
805.199	8259
805.341	8252
805.483	8206
805.626	8157
805.768	8149
805.91	8218
806.052	8195
806.194	8172
806.336	8336
806.478	8126
806.62	8084
806.762	8202
806.904	8351
807.046	8396
807.188	8366
807.33	8309
807.472	8305
807.614	8142
807.756	8187
807.898	8012
808.04	7883
808.182	7902
808.324	7811
808.465	7963
808.607	8008
808.749	8081
808.891	8286
809.033	8298
809.174	8218
809.316	8123
809.458	8050
809.6	8005
809.741	8024
809.883	8008
810.025	8176
810.166	8039
810.308	8077
810.45	8020
810.591	7883
810.733	7772
810.875	7658
811.016	7548
811.158	7476
811.299	7605
811.441	7708
811.582	7734
811.724	7639
811.865	7491
812.007	7643
812.148	7647
812.29	7674
812.431	7738
812.573	7864
812.714	7974
812.855	8130
812.997	8252
813.138	8290
813.279	8237
813.421	8142
813.562	8065
813.703	7860
813.845	7772
813.986	7499
814.127	7293
814.268	7270
814.41	7217
814.551	7194
814.692	7160
814.833	7107
814.974	7088
815.115	7137
815.256	7000
815.397	6928
815.539	6977
815.68	6821
815.821	6814
815.962	6882
816.103	6867
816.244	6719
816.385	6635
816.526	6627
816.666	6547
816.807	6311
816.948	6467
817.089	6494
817.23	6509
817.371	6502
817.512	6403
817.653	6426
817.793	6441
817.934	6441
818.075	6407
818.216	6437
818.356	6391
818.497	6304
818.638	6136
818.778	6155
818.919	6133
819.06	6167
819.2	6338
819.341	6365
819.481	6395
819.622	6574
819.762	6741
819.903	6757
820.043	6631
820.184	6574
820.324	6597
820.465	6703
820.605	6642
820.746	6662
820.886	6498
821.026	6677
821.167	6726
821.307	6821
821.447	6810
821.588	6650
821.728	6536
821.868	6506
822.008	6342
822.149	6433
822.289	6407
822.429	6155
822.569	6076
822.709	6125
822.849	5882
822.99	5946
823.13	5927
823.27	5920
823.41	5767
823.55	5802
823.69	5786
823.83	5859
823.97	5703
824.11	5623
824.25	5532
824.389	5585
824.529	5634
824.669	5543
824.809	5627
824.949	5634
825.089	5596
825.228	5596
825.368	5436
825.508	5402
825.648	5357
825.787	5398
825.927	5364
826.067	5303
826.206	5277
826.346	5398
826.485	5406
826.625	5376
826.765	5562
826.904	5486
827.044	5326
827.183	5212
827.323	5121
827.462	5246
827.601	5193
827.741	5151
827.88	5284
828.02	5140
828.159	5235
828.298	5311
828.437	5376
828.577	5277
828.716	5463
828.855	5387
828.994	5201
829.134	5121
829.273	5197
829.412	5143
829.551	5128
829.69	5162
829.829	5311
829.968	5364
830.107	5254
830.246	5349
830.385	5181
830.524	5162
830.663	5109
830.802	4991
830.941	4923
831.08	4866
831.219	4972
831.357	4957
831.496	5159
831.635	4934
831.774	4839
831.913	4820
832.051	4778
832.19	4763
832.329	4854
832.467	4717
832.606	4691
832.744	4763
832.883	4755
833.022	4740
833.16	4793
833.299	4816
833.437	4793
833.576	4900
833.714	4885
833.852	4866
833.991	4942
834.129	4976
834.267	4972
834.406	4961
834.544	4984
834.682	4976
834.821	4972
834.959	5189
835.097	5022
835.235	5128
835.373	5083
835.511	5083
835.65	5083
835.788	5048
835.926	4908
836.064	4889
836.202	4953
836.34	5178
836.478	5246
836.615	5094
836.753	5223
836.891	5307
837.029	5246
837.167	5147
837.305	5223
837.443	5128
837.58	5086
837.718	5254
837.856	5231
837.993	5208
838.131	5227
838.269	5216
838.406	5170
838.544	5208
838.681	5075
838.819	5056
838.956	4934
839.094	4908
839.231	4965
839.369	5060
839.506	5467
839.643	5273
839.781	5143
839.918	5006
840.055	5117
840.193	5064
840.33	5094
840.467	5136
840.604	5170
840.742	5505
840.879	5102
841.016	5094
841.153	5174
841.29	5395
841.427	5345
841.564	5353
841.701	5349
841.838	5315
841.975	5258
842.112	5280
842.249	5204
842.385	5105
842.522	5357
842.659	5162
842.796	5105
842.933	5220
843.069	5132
843.206	5159
843.343	5280
843.479	5239
843.616	5258
843.752	5067
843.889	5014
844.025	5307
844.162	5018
844.298	5162
844.435	5090
844.571	5025
844.708	5235
844.844	5318
844.98	5349
845.117	5250
845.253	5140
845.389	5086
845.525	5208
845.661	5155
845.798	5064
845.934	5117
846.07	5075
846.206	5254
846.342	5258
846.478	5178
846.614	4999
846.75	4999
846.886	4934
847.022	5147
847.158	5006
847.294	5060
847.429	5136
847.565	5022
847.701	5296
847.837	4850
847.972	4866
848.108	4911
848.244	4984
848.379	4778
848.515	4736
848.65	4767
848.786	4717
848.921	4755
849.057	4793
849.192	4923
849.328	4793
849.463	4843
849.598	4831
849.734	4774
849.869	4664
850.004	4626
850.14	4687
850.275	4626
850.41	4512
850.545	4577
850.68	4664
850.815	4634
850.95	4603
851.085	4816
851.22	4752
851.355	4664
851.49	4634
851.625	4664
851.76	4641
851.895	4603
852.03	4531
852.165	4649
852.299	4691
852.434	4767
852.569	4759
852.703	4778
852.838	4793
852.973	4938
853.107	4953
853.242	4755
853.376	4656
853.511	4569
853.645	4603
853.78	4831
853.914	4733
854.048	4630
854.183	4721
854.317	4717
854.451	4908
854.585	4675
854.72	4660
854.854	4774
854.988	4649
855.122	4596
855.256	4561
855.39	4668
855.524	4809
855.658	4755
855.792	4721
855.926	4714
856.06	4733
856.194	4809
856.327	4702
856.461	4645
856.595	4611
856.729	4630
856.862	4759
856.996	4729
857.13	4702
857.263	4774
857.397	4782
857.53	4599
857.664	4774
857.797	4778
857.931	4767
858.064	4653
858.197	4721
858.331	4618
858.464	4653
858.597	4504
858.731	4702
858.864	4618
858.997	4592
859.13	4683
859.263	4736
859.396	4755
859.529	4588
859.662	4531
859.795	4550
859.928	4694
860.061	4752
860.194	4752
860.327	4596
860.46	4550
860.592	4721
860.725	4759
860.858	4721
860.99	4565
861.123	4558
861.256	4500
861.388	4607
861.521	5250
861.653	4542
861.786	4436
861.918	4470
862.05	4512
862.183	4516
862.315	4592
862.447	4596
862.58	4588
862.712	4386
862.844	4333
862.976	4474
863.108	4459
863.24	4843
863.372	4344
863.504	4413
863.636	4428
863.768	4531
863.9	4443
864.032	4333
864.164	4394
864.296	4462
864.428	4558
864.559	4558
864.691	4577
864.823	4519
864.954	4462
865.086	4500
865.217	4455
865.349	4398
865.48	4424
865.612	4516
865.743	4596
865.875	4497
866.006	4398
866.137	4428
866.269	4470
866.4	4462
866.531	4447
866.662	4352
866.793	4398
866.924	4417
867.055	4485
867.186	4474
867.317	4428
867.448	4432
867.579	4375
867.71	4367
867.841	4409
867.972	4440
868.103	4500
868.233	4459
868.364	4455
868.495	4470
868.625	4698
868.756	4793
868.886	4512
869.017	4622
869.147	4778
869.278	4774
869.408	4637
869.539	4641
869.669	4698
869.799	4683
869.929	4839
870.06	4721
870.19	4919
870.32	4881
870.45	4904
870.58	5033
870.71	5098
870.84	5067
870.97	4927
871.1	4923
871.23	5132
871.36	5113
871.489	5006
871.619	5056
871.749	5056
871.879	5128
872.008	5098
872.138	5071
872.267	4965
872.397	4877
872.526	4771
872.656	4698
872.785	4793
872.915	4999
873.044	5037
873.173	4923
873.303	4991
873.432	4965
873.561	4946
873.69	4862
873.819	4816
873.948	4908
874.077	4790
874.206	4752
874.335	4752
874.464	4889
874.593	5041
874.722	4976
874.851	5075
874.979	5037
875.108	5003
875.237	4908
875.365	4862
875.494	4889
875.623	4930
875.751	4828
875.88	4862
876.008	4980
876.136	4965
876.265	5143
876.393	5269
876.521	5220
876.65	5208
876.778	5162
876.906	5071
877.034	4968
877.162	5018
877.29	4980
877.418	5056
877.546	5029
877.674	5067
877.802	5025
877.93	4991
878.058	4904
878.185	4862
878.313	4938
878.441	4965
878.568	4820
878.696	4889
878.824	4934
878.951	4987
879.079	5132
879.206	5250
879.333	5090
879.461	4984
879.588	5037
879.715	5185
879.842	5216
879.97	5029
880.097	4812
880.224	4759
880.351	4812
880.478	4816
880.605	4805
880.732	4793
880.859	5102
880.986	4892
881.112	4923
881.239	4755
881.366	4649
881.493	4592
881.619	4603
881.746	4641
881.872	4672
881.999	4645
882.125	4615
882.252	4771
882.378	4805
882.505	4949
882.631	4778
882.757	4656
882.883	4698
883.01	4748
883.136	4596
883.262	4630
883.388	4577
883.514	4805
883.64	4835
883.766	4752
883.892	4668
884.018	4771
884.143	4858
884.269	4953
884.395	4714
884.52	4622
884.646	4660
884.772	4599
884.897	4577
885.023	4675
885.148	4729
885.274	4870
885.399	4786
885.524	4717
885.65	4653
885.775	4717
885.9	4675
886.025	4850
886.15	4797
886.275	4702
886.4	4645
886.525	4710
886.65	4668
886.775	4668
886.9	4892
887.025	5060
887.149	4809
887.274	4645
887.399	4626
887.523	4584
887.648	4588
887.773	4577
887.897	4744
888.021	4740
888.146	4653
888.27	4816
888.395	4862
888.519	4797
888.643	4767
888.767	4797
888.891	4683
889.015	4580
889.139	4672
889.263	4584
889.387	4805
889.511	4831
889.635	4782
889.759	4615
889.883	4641
890.006	4744
890.13	4801
890.254	4634
890.377	4679
890.501	4531
890.624	4481
890.748	4672
890.871	4489
890.995	4390
891.118	4386
891.241	4516
891.364	4615
891.488	4622
891.611	4485
891.734	4542
891.857	4588
891.98	4554
892.103	4626
892.226	4573
892.349	4512
892.471	4424
892.594	4561
892.717	4615
892.839	4573
892.962	4561
893.085	4664
893.207	4542
893.33	4436
893.452	4558
893.575	4626
893.697	4592
893.819	4824
893.941	4854
894.064	4755
894.186	4561
894.308	4561
894.43	4710
894.552	4805
894.674	4721
894.796	4558
894.918	4569
895.04	4577
895.161	4645
895.283	4634
895.405	4592
895.526	4660
895.648	4694
895.769	4668
895.891	4637
896.012	4679
896.134	4744
896.255	4649
896.376	4607
896.498	4569
896.619	4668
896.74	4569
896.861	4622
896.982	4919
897.103	5037
897.224	4759
897.345	4710
897.466	4653
897.587	4710
897.708	4854
897.828	4782
897.949	4672
898.07	4546
898.19	4603
898.311	4843
898.431	4679
898.552	4714
898.672	4862
898.792	4786
898.913	4740
899.033	4592
899.153	4497
899.273	4462
899.393	4474
899.513	4516
899.633	4508
899.753	4558
899.873	4478
899.993	4584
900.113	4481
900.232	4569
900.352	4542
900.472	4474
900.591	4459
900.711	4504
900.83	4466
900.95	4554
901.069	4675
901.189	4508
901.308	4360
901.427	4325
901.546	4413
901.665	4470
901.784	4489
901.904	4394
902.023	4329
902.141	4207
902.26	4200
902.379	4284
902.498	4219
902.617	4211
902.735	4344
902.854	4417
902.973	4341
903.091	4185
903.21	4196
903.328	4303
903.446	4280
903.565	4230
903.683	4363
903.801	4242
903.919	4405
904.038	4443
904.156	4276
904.274	4478
904.392	4409
904.51	4383
904.627	4447
904.745	4546
904.863	4664
904.981	4375
905.098	4280
905.216	4360
905.334	4409
905.451	4436
905.569	4466
905.686	4542
905.803	4523
905.921	4394
906.038	4554
906.155	4447
906.272	4390
906.389	4447
906.506	4322
906.623	4398
906.74	4417
906.857	4268
906.974	4352
907.091	4508
907.208	4683
907.324	4592
907.441	4470
907.557	4356
907.674	4314
907.79	4284
907.907	4306
908.023	4500
908.139	4481
908.256	4348
908.372	4436
908.488	4432
908.604	4341
908.72	4306
908.836	4390
908.952	4356
909.068	4371
909.184	4569
909.3	4493
909.415	4558
909.531	4519
909.647	4322
909.762	4363
909.878	4268
909.993	4436
910.108	4341
910.224	4394
910.339	4432
910.454	4367
910.57	4363
910.685	4367
910.8	4637
910.915	4569
911.03	4462
911.145	4337
911.259	4341
911.374	4348
911.489	4299
911.604	4356
911.718	4158
911.833	4207
911.947	4040
912.062	4025
912.176	4230
912.291	4215
912.405	4268
912.519	4443
912.633	4462
912.748	4333
912.862	4253
912.976	4238
913.09	4074
913.204	4128
913.318	4276
913.431	4322
913.545	4390
913.659	4440
913.772	4306
913.886	4249
914	4196
914.113	4337
914.226	4402
914.34	4352
914.453	4188
914.566	4485
914.68	4268
914.793	4299
914.906	4185
915.019	4074
915.132	4112
915.245	4192
915.358	4223
915.47	4215
915.583	4280
915.696	4276
915.809	4421
915.921	4409
916.034	4238
916.146	4215
916.259	4242
916.371	4360
916.483	4337
916.595	4246
916.708	4322
916.82	4325
916.932	4287
917.044	4310
917.156	4299
917.268	4215
917.38	4238
917.491	4299
917.603	4325
917.715	4394
917.826	4432
917.938	4390
918.049	4234
918.161	4394
918.272	4531
918.384	4538
918.495	4474
918.606	4295
918.717	4261
918.828	4295
918.939	4318
919.05	4196
919.161	4363
919.272	4173
919.383	4261
919.494	4409
919.604	4634
919.715	4413
919.826	4322
919.936	4402
920.047	4519
920.157	4455
920.267	4679
920.378	4542
920.488	4512
920.598	4721
920.708	4843
920.818	4687
920.928	4729
921.038	4930
921.148	4870
921.258	4656
921.368	4519
921.477	4493
921.587	4440
921.697	4341
921.806	4538
921.916	4386
922.025	4299
922.134	4268
922.244	4253
922.353	4325
922.462	4173
922.571	4093
922.68	4040
922.789	3991
922.898	4048
923.007	4021
923.116	4048
923.224	4071
923.333	4071
923.442	3994
923.55	3972
923.659	4006
923.767	4082
923.876	3983
923.984	4090
924.092	3987
924.201	4105
924.309	4040
924.417	4112
924.525	4044
924.633	4082
924.741	4961
924.849	3896
924.956	4139
925.064	3873
925.172	3854
925.279	3945
925.387	4063
925.494	4071
925.602	4192
925.709	4150
925.816	4025
925.924	4124
926.031	4188
926.138	4169
926.245	4196
926.352	4067
926.459	4253
926.566	4299
926.673	4166
926.779	4082
926.886	4116
926.993	3987
927.099	3934
927.206	3945
927.312	3945
927.419	4036
927.525	4078
927.631	4067
927.737	3956
927.843	3911
927.95	3823
928.056	3956
928.162	3972
928.267	4025
928.373	4683
928.479	4120
928.585	3846
928.69	4044
928.796	4013
928.901	3968
929.007	3831
929.112	4021
929.218	4029
929.323	3949
929.428	3953
929.533	4067
929.638	3888
929.743	3934
929.848	4025
929.953	3983
930.058	3922
930.163	3747
930.267	3793
930.372	3979
930.477	3800
930.581	4086
930.685	3956
930.79	3762
930.894	3861
930.998	3857
931.103	4029
931.207	3724
931.311	3717
931.415	3656
931.519	3515
931.623	3530
