Data from test_V78500241_872.txt Node
Date: Fri Mar 25 16:55:03 CST 2022
User: usil
Spectrometer: V785-0024
Trigger mode: 0
Integration Time (sec): 4.000000E-1
Scans to average: 1
Nonlinearity correction enabled: false
Boxcar width: 0
Storing dark spectrum: false
XAxis mode: Wavelengths
Number of Pixels in Spectrum: 1024
>>>>>Begin Spectral Data<<<<<
801.071	8012
801.214	7963
801.356	7875
801.499	7871
801.641	7792
801.783	7852
801.926	7898
802.068	7955
802.211	7894
802.353	7932
802.496	7849
802.638	7890
802.78	7887
802.923	7898
803.065	7871
803.208	7932
803.35	8008
803.492	8115
803.635	8164
803.777	8035
803.919	8096
804.061	8362
804.204	8115
804.346	8008
804.488	7963
804.63	8081
804.773	8039
804.915	8046
805.057	8313
805.199	8134
805.341	8214
805.483	8298
805.626	8187
805.768	8084
805.91	8195
806.052	8191
806.194	8100
806.336	8332
806.478	8054
806.62	7989
806.762	8096
806.904	8271
807.046	8438
807.188	8339
807.33	8385
807.472	8374
807.614	8103
807.756	8142
807.898	7974
808.04	7898
808.182	7917
808.324	7830
808.465	7871
808.607	8035
808.749	8043
808.891	8191
809.033	8286
809.174	8244
809.316	8111
809.458	8100
809.6	7989
809.741	8008
809.883	8077
810.025	8073
810.166	8100
810.308	8005
810.45	8020
810.591	7890
810.733	7753
810.875	7639
811.016	7529
811.158	7476
811.299	7594
811.441	7696
811.582	7674
811.724	7597
811.865	7453
812.007	7548
812.148	7575
812.29	7586
812.431	7723
812.573	7852
812.714	7947
812.855	8084
812.997	8221
813.138	8355
813.279	8237
813.421	8115
813.562	7959
813.703	7830
813.845	7811
813.986	7544
814.127	7236
814.268	7221
814.41	7213
814.551	7126
814.692	7099
814.833	7088
814.974	7065
815.115	7122
815.256	6932
815.397	6909
815.539	6958
815.68	6783
815.821	6745
815.962	6814
816.103	6802
816.244	6711
816.385	6623
816.526	6593
816.666	6448
816.807	6334
816.948	6384
817.089	6513
817.23	6448
817.371	6361
817.512	6407
817.653	6395
817.793	6414
817.934	6388
818.075	6380
818.216	6445
818.356	6410
818.497	6228
818.638	6159
818.778	6121
818.919	6144
819.06	6144
819.2	6289
819.341	6304
819.481	6338
819.622	6517
819.762	6730
819.903	6700
820.043	6604
820.184	6563
820.324	6578
820.465	6726
820.605	6711
820.746	6570
820.886	6494
821.026	6669
821.167	6650
821.307	6749
821.447	6738
821.588	6627
821.728	6570
821.868	6551
822.008	6357
822.149	6414
822.289	6372
822.429	6152
822.569	6068
822.709	6064
822.849	5889
822.99	5939
823.13	5901
823.27	5916
823.41	5783
823.55	5710
823.69	5733
823.83	5748
823.97	5680
824.11	5520
824.25	5467
824.389	5539
824.529	5539
824.669	5520
824.809	5657
824.949	5604
825.089	5589
825.228	5535
825.368	5318
825.508	5345
825.648	5341
825.787	5345
825.927	5383
826.067	5288
826.206	5292
826.346	5318
826.485	5376
826.625	5357
826.765	5516
826.904	5486
827.044	5315
827.183	5178
827.323	5121
827.462	5178
827.601	5162
827.741	5189
827.88	5227
828.02	5159
828.159	5193
828.298	5311
828.437	5307
828.577	5239
828.716	5444
828.855	5292
828.994	5162
829.134	5128
829.273	5193
829.412	5155
829.551	5056
829.69	5124
829.829	5227
829.968	5360
830.107	5227
830.246	5235
830.385	5185
830.524	5075
830.663	5064
830.802	4972
830.941	4870
831.08	4889
831.219	4976
831.357	5010
831.496	5140
831.635	4915
831.774	4854
831.913	4782
832.051	4767
832.19	4706
832.329	4847
832.467	4706
832.606	4599
832.744	4679
832.883	4725
833.022	4725
833.16	4733
833.299	4824
833.437	4797
833.576	4847
833.714	4847
833.852	4816
833.991	4866
834.129	4942
834.267	4961
834.406	4934
834.544	4946
834.682	4911
834.821	4961
834.959	5109
835.097	4934
835.235	5159
835.373	5071
835.511	5083
835.65	5006
835.788	5014
835.926	4866
836.064	4862
836.202	4919
836.34	5117
836.478	5216
836.615	5109
836.753	5193
836.891	5292
837.029	5258
837.167	5174
837.305	5140
837.443	5151
837.58	5041
837.718	5250
837.856	5254
837.993	5132
838.131	5246
838.269	5128
838.406	5185
838.544	5181
838.681	4991
838.819	4949
838.956	4870
839.094	4984
839.231	4991
839.369	5056
839.506	5364
839.643	5239
839.781	5052
839.918	5029
840.055	5067
840.193	5060
840.33	5079
840.467	5159
840.604	5220
840.742	5467
840.879	5010
841.016	5090
841.153	5121
841.29	5372
841.427	5265
841.564	5269
841.701	5372
841.838	5269
841.975	5166
842.112	5261
842.249	5128
842.385	5075
842.522	5242
842.659	5181
842.796	5178
842.933	5193
843.069	5181
843.206	5094
843.343	5296
843.479	5216
843.616	5265
843.752	4999
843.889	4968
844.025	5159
844.162	5003
844.298	5216
844.435	5083
844.571	5018
844.708	5151
844.844	5288
844.98	5322
845.117	5284
845.253	5113
845.389	4995
845.525	5174
845.661	5143
845.798	5014
845.934	5140
846.07	5064
846.206	5220
846.342	5246
846.478	5132
846.614	5018
846.75	4938
846.886	4946
847.022	5140
847.158	5018
847.294	5083
847.429	5155
847.565	5048
847.701	5315
847.837	4881
847.972	4812
848.108	4934
848.244	4927
848.379	4774
848.515	4786
848.65	4725
848.786	4706
848.921	4828
849.057	4885
849.192	4911
849.328	4820
849.463	4828
849.598	4752
849.734	4733
849.869	4687
850.004	4637
850.14	4653
850.275	4611
850.41	4523
850.545	4554
850.68	4599
850.815	4577
850.95	4675
851.085	4850
851.22	4744
851.355	4672
851.49	4603
851.625	4615
851.76	4641
851.895	4577
852.03	4538
852.165	4626
852.299	4664
852.434	4805
852.569	4733
852.703	4752
852.838	4805
852.973	4889
853.107	4896
853.242	4714
853.376	4660
853.511	4535
853.645	4565
853.78	4774
853.914	4733
854.048	4664
854.183	4607
854.317	4679
854.451	4824
854.585	4626
854.72	4672
854.854	4687
854.988	4603
855.122	4641
855.256	4489
855.39	4645
855.524	4778
855.658	4683
855.792	4656
855.926	4687
856.06	4763
856.194	4828
856.327	4679
856.461	4599
856.595	4653
856.729	4599
856.862	4755
856.996	4675
857.13	4733
857.263	4782
857.397	4839
857.53	4641
857.664	4698
857.797	4706
857.931	4793
858.064	4649
858.197	4698
858.331	4637
858.464	4561
858.597	4523
858.731	4584
858.864	4618
858.997	4599
859.13	4675
859.263	4649
859.396	4679
859.529	4596
859.662	4550
859.795	4508
859.928	4637
860.061	4736
860.194	4729
860.327	4569
860.46	4584
860.592	4694
860.725	4656
860.858	4714
860.99	4569
861.123	4500
861.256	4527
861.388	4588
861.521	5307
861.653	4440
861.786	4459
861.918	4421
862.05	4485
862.183	4485
862.315	4630
862.447	4649
862.58	4500
862.712	4352
862.844	4341
862.976	4459
863.108	4489
863.24	4801
863.372	4306
863.504	4428
863.636	4348
863.768	4478
863.9	4417
864.032	4360
864.164	4360
864.296	4519
864.428	4611
864.559	4519
864.691	4523
864.823	4478
864.954	4481
865.086	4485
865.217	4432
865.349	4413
865.48	4443
865.612	4443
865.743	4618
865.875	4459
866.006	4409
866.137	4459
866.269	4470
866.4	4440
866.531	4428
866.662	4421
866.793	4398
866.924	4413
867.055	4474
867.186	4466
867.317	4371
867.448	4379
867.579	4360
867.71	4417
867.841	4341
867.972	4432
868.103	4459
868.233	4402
868.364	4451
868.495	4421
868.625	4653
868.756	4744
868.886	4580
869.017	4580
869.147	4797
869.278	4744
869.408	4683
869.539	4645
869.669	4725
869.799	4660
869.929	4759
870.06	4725
870.19	4930
870.32	4873
870.45	4881
870.58	4972
870.71	5075
870.84	5083
870.97	4892
871.1	4870
871.23	5117
871.36	5090
871.489	4991
871.619	5029
871.749	5067
871.879	5071
872.008	5159
872.138	5010
872.267	4991
872.397	4828
872.526	4809
872.656	4721
872.785	4847
872.915	4949
873.044	5052
873.173	4972
873.303	4980
873.432	4923
873.561	4953
873.69	4892
873.819	4843
873.948	4911
874.077	4790
874.206	4744
874.335	4755
874.464	4927
874.593	5022
874.722	5003
874.851	5090
874.979	5083
875.108	5075
875.237	4896
875.365	4889
875.494	4896
875.623	4938
875.751	4782
875.88	4885
876.008	4995
876.136	5048
876.265	5151
876.393	5315
876.521	5246
876.65	5254
876.778	5121
876.906	5045
877.034	4995
877.162	5018
877.29	4965
877.418	5064
877.546	4999
877.674	4999
877.802	5045
877.93	5010
878.058	4881
878.185	4881
878.313	4946
878.441	4915
878.568	4793
878.696	4854
878.824	4968
878.951	4946
879.079	5113
879.206	5292
879.333	5052
879.461	4957
879.588	4980
879.715	5105
879.842	5197
879.97	4911
880.097	4839
880.224	4706
880.351	4797
880.478	4911
880.605	4771
880.732	4812
880.859	5010
880.986	4862
881.112	4900
881.239	4797
881.366	4675
881.493	4607
881.619	4546
881.746	4649
881.872	4630
881.999	4660
882.125	4694
882.252	4710
882.378	4839
882.505	4946
882.631	4786
882.757	4664
882.883	4664
883.01	4809
883.136	4660
883.262	4577
883.388	4626
883.514	4816
883.64	4835
883.766	4790
883.892	4675
884.018	4675
884.143	4896
884.269	4961
884.395	4702
884.52	4618
884.646	4607
884.772	4573
884.897	4512
885.023	4668
885.148	4782
885.274	4847
885.399	4778
885.524	4664
885.65	4668
885.775	4733
885.9	4721
886.025	4873
886.15	4771
886.275	4729
886.4	4653
886.525	4729
886.65	4653
886.775	4672
886.9	4866
887.025	5018
887.149	4774
887.274	4653
887.399	4603
887.523	4592
887.648	4580
887.773	4565
887.897	4752
888.021	4809
888.146	4664
888.27	4797
888.395	4885
888.519	4752
888.643	4809
888.767	4793
888.891	4683
889.015	4607
889.139	4687
889.263	4603
889.387	4721
889.511	4843
889.635	4820
889.759	4634
889.883	4611
890.006	4702
890.13	4839
890.254	4611
890.377	4656
890.501	4516
890.624	4470
890.748	4637
890.871	4508
890.995	4447
891.118	4386
891.241	4470
891.364	4550
891.488	4634
891.611	4474
891.734	4573
891.857	4599
891.98	4523
892.103	4668
892.226	4561
892.349	4538
892.471	4405
892.594	4538
892.717	4611
892.839	4531
892.962	4573
893.085	4603
893.207	4596
893.33	4440
893.452	4542
893.575	4622
893.697	4550
893.819	4759
893.941	4812
894.064	4744
894.186	4580
894.308	4542
894.43	4706
894.552	4816
894.674	4755
894.796	4550
894.918	4565
895.04	4542
895.161	4702
895.283	4641
895.405	4611
895.526	4637
895.648	4664
895.769	4668
895.891	4725
896.012	4717
896.134	4675
896.255	4683
896.376	4607
896.498	4596
896.619	4653
896.74	4580
896.861	4630
896.982	4923
897.103	5067
897.224	4866
897.345	4691
897.466	4683
897.587	4774
897.708	4831
897.828	4809
897.949	4645
898.07	4596
898.19	4622
898.311	4809
898.431	4706
898.552	4733
898.672	4839
898.792	4736
898.913	4710
899.033	4634
899.153	4500
899.273	4455
899.393	4466
899.513	4538
899.633	4531
899.753	4531
899.873	4481
899.993	4538
900.113	4565
900.232	4573
900.352	4497
900.472	4459
900.591	4360
900.711	4474
900.83	4474
900.95	4607
901.069	4698
901.189	4565
901.308	4375
901.427	4280
901.546	4379
901.665	4497
901.784	4466
901.904	4344
902.023	4287
902.141	4139
902.26	4147
902.379	4287
902.498	4211
902.617	4207
902.735	4310
902.854	4413
902.973	4360
903.091	4200
903.21	4268
903.328	4314
903.446	4249
903.565	4227
903.683	4360
903.801	4291
903.919	4390
904.038	4405
904.156	4299
904.274	4451
904.392	4421
904.51	4443
904.627	4428
904.745	4584
904.863	4634
904.981	4371
905.098	4253
905.216	4360
905.334	4421
905.451	4363
905.569	4440
905.686	4531
905.803	4535
905.921	4390
906.038	4512
906.155	4516
906.272	4402
906.389	4413
906.506	4341
906.623	4398
906.74	4417
906.857	4268
906.974	4344
907.091	4550
907.208	4649
907.324	4531
907.441	4474
907.557	4360
907.674	4356
907.79	4276
907.907	4367
908.023	4478
908.139	4466
908.256	4413
908.372	4424
908.488	4451
908.604	4337
908.72	4276
908.836	4341
908.952	4383
909.068	4451
909.184	4577
909.3	4436
909.415	4577
909.531	4596
909.647	4352
909.762	4356
909.878	4291
909.993	4455
910.108	4383
910.224	4333
910.339	4493
910.454	4409
910.57	4356
910.685	4284
910.8	4630
910.915	4565
911.03	4497
911.145	4363
911.259	4356
911.374	4344
911.489	4276
911.604	4310
911.718	4181
911.833	4188
911.947	4055
912.062	3983
912.176	4219
912.291	4227
912.405	4207
912.519	4424
912.633	4474
912.748	4375
912.862	4272
912.976	4188
913.09	4059
913.204	4139
913.318	4181
913.431	4363
913.545	4390
913.659	4405
913.772	4394
913.886	4242
914	4188
914.113	4402
914.226	4405
914.34	4352
914.453	4204
914.566	4417
914.68	4295
914.793	4268
914.906	4162
915.019	4093
915.132	4071
915.245	4188
915.358	4185
915.47	4306
915.583	4249
915.696	4284
915.809	4440
915.921	4379
916.034	4249
916.146	4284
916.259	4242
916.371	4383
916.483	4333
916.595	4257
916.708	4303
916.82	4314
916.932	4333
917.044	4306
917.156	4344
917.268	4249
917.38	4257
917.491	4299
917.603	4325
917.715	4421
917.826	4386
917.938	4352
918.049	4207
918.161	4352
918.272	4508
918.384	4516
918.495	4447
918.606	4306
918.717	4265
918.828	4299
918.939	4360
919.05	4238
919.161	4276
919.272	4112
919.383	4261
919.494	4459
919.604	4649
919.715	4428
919.826	4306
919.936	4356
920.047	4508
920.157	4508
920.267	4736
920.378	4554
920.488	4489
920.598	4748
920.708	4900
920.818	4790
920.928	4736
921.038	4965
921.148	4904
921.258	4645
921.368	4531
921.477	4504
921.587	4398
921.697	4337
921.806	4558
921.916	4451
922.025	4280
922.134	4310
922.244	4227
922.353	4287
922.462	4109
922.571	4147
922.68	4017
922.789	3983
922.898	3979
923.007	3956
923.116	4131
923.224	4074
923.333	4074
923.442	3994
923.55	3994
923.659	4025
923.767	4093
923.876	4025
923.984	4116
924.092	3987
924.201	4074
924.309	4105
924.417	4093
924.525	4093
924.633	4078
924.741	4923
924.849	3930
924.956	4109
925.064	3937
925.172	3899
925.279	3994
925.387	4017
925.494	4040
925.602	4223
925.709	4162
925.816	3979
925.924	4124
926.031	4253
926.138	4143
926.245	4238
926.352	4086
926.459	4261
926.566	4299
926.673	4169
926.779	4105
926.886	4078
926.993	3945
927.099	3922
927.206	3968
927.312	3934
927.419	4029
927.525	4032
927.631	4067
927.737	3930
927.843	3926
927.95	3808
928.056	3979
928.162	3975
928.267	4051
928.373	4588
928.479	4112
928.585	3896
928.69	4044
928.796	4074
928.901	3964
929.007	3812
929.112	3953
929.218	3979
929.323	3922
929.428	3888
929.533	4097
929.638	3918
929.743	3953
929.848	4074
929.953	3983
930.058	3930
930.163	3740
930.267	3873
930.372	3956
930.477	3789
930.581	4105
930.685	3964
930.79	3831
930.894	3888
930.998	3857
931.103	4025
931.207	3690
931.311	3679
931.415	3652
931.519	3507
931.623	3549
