Data from test_V78500241_1575.txt Node
Date: Fri Mar 25 16:59:57 CST 2022
User: usil
Spectrometer: V785-0024
Trigger mode: 0
Integration Time (sec): 4.000000E-1
Scans to average: 1
Nonlinearity correction enabled: false
Boxcar width: 0
Storing dark spectrum: false
XAxis mode: Wavelengths
Number of Pixels in Spectrum: 1024
>>>>>Begin Spectral Data<<<<<
801.071	8016
801.214	7906
801.356	7868
801.499	7890
801.641	7871
801.783	7875
801.926	7944
802.068	7932
802.211	7947
802.353	7970
802.496	7826
802.638	7799
802.78	7947
802.923	7932
803.065	7879
803.208	7837
803.35	7947
803.492	8081
803.635	8172
803.777	8012
803.919	8119
804.061	8389
804.204	8180
804.346	8149
804.488	7951
804.63	8123
804.773	7974
804.915	8111
805.057	8225
805.199	8153
805.341	8233
805.483	8240
805.626	8172
805.768	8115
805.91	8225
806.052	8229
806.194	8168
806.336	8259
806.478	8084
806.62	8088
806.762	8164
806.904	8263
807.046	8541
807.188	8377
807.33	8221
807.472	8317
807.614	8168
807.756	8084
807.898	7997
808.04	7852
808.182	7894
808.324	7883
808.465	7925
808.607	7986
808.749	8084
808.891	8176
809.033	8305
809.174	8206
809.316	7982
809.458	8046
809.6	8012
809.741	8024
809.883	8001
810.025	8088
810.166	8088
810.308	7974
810.45	7997
810.591	7856
810.733	7685
810.875	7636
811.016	7533
811.158	7472
811.299	7616
811.441	7696
811.582	7746
811.724	7567
811.865	7544
812.007	7605
812.148	7575
812.29	7594
812.431	7738
812.573	7944
812.714	7944
812.855	8142
812.997	8176
813.138	8279
813.279	8138
813.421	8123
813.562	7928
813.703	7788
813.845	7704
813.986	7369
814.127	7266
814.268	7213
814.41	7156
814.551	7129
814.692	7228
814.833	7050
814.974	7088
815.115	7076
815.256	6947
815.397	6928
815.539	6966
815.68	6852
815.821	6772
815.962	6867
816.103	6776
816.244	6688
816.385	6566
816.526	6627
816.666	6506
816.807	6323
816.948	6407
817.089	6460
817.23	6422
817.371	6388
817.512	6376
817.653	6403
817.793	6346
817.934	6342
818.075	6452
818.216	6452
818.356	6342
818.497	6262
818.638	6163
818.778	6148
818.919	6121
819.06	6194
819.2	6331
819.341	6281
819.481	6327
819.622	6540
819.762	6692
819.903	6745
820.043	6601
820.184	6578
820.324	6608
820.465	6707
820.605	6711
820.746	6658
820.886	6475
821.026	6654
821.167	6684
821.307	6795
821.447	6776
821.588	6658
821.728	6528
821.868	6521
822.008	6304
822.149	6350
822.289	6346
822.429	6178
822.569	6121
822.709	6175
822.849	5889
822.99	5863
823.13	5969
823.27	5958
823.41	5832
823.55	5836
823.69	5775
823.83	5794
823.97	5680
824.11	5543
824.25	5539
824.389	5512
824.529	5600
824.669	5558
824.809	5657
824.949	5695
825.089	5661
825.228	5596
825.368	5414
825.508	5364
825.648	5406
825.787	5440
825.927	5433
826.067	5345
826.206	5296
826.346	5417
826.485	5414
826.625	5444
826.765	5585
826.904	5463
827.044	5250
827.183	5220
827.323	5223
827.462	5296
827.601	5204
827.741	5193
827.88	5265
828.02	5124
828.159	5254
828.298	5315
828.437	5425
828.577	5303
828.716	5535
828.855	5292
828.994	5208
829.134	5220
829.273	5235
829.412	5231
829.551	5121
829.69	5208
829.829	5269
829.968	5372
830.107	5280
830.246	5322
830.385	5166
830.524	5178
830.663	5121
830.802	5014
830.941	4927
831.08	4904
831.219	5037
831.357	5014
831.496	5208
831.635	4949
831.774	4911
831.913	4873
832.051	4744
832.19	4774
832.329	4885
832.467	4748
832.606	4660
832.744	4748
832.883	4687
833.022	4755
833.16	4847
833.299	4831
833.437	4885
833.576	4870
833.714	4896
833.852	4873
833.991	4870
834.129	4991
834.267	4927
834.406	4934
834.544	4942
834.682	5037
834.821	5010
834.959	5151
835.097	5010
835.235	5151
835.373	5151
835.511	5128
835.65	5102
835.788	5041
835.926	4919
836.064	4892
836.202	4961
836.34	5204
836.478	5265
836.615	5162
836.753	5231
836.891	5299
837.029	5273
837.167	5181
837.305	5223
837.443	5140
837.58	5064
837.718	5254
837.856	5208
837.993	5170
838.131	5235
838.269	5227
838.406	5220
838.544	5231
838.681	5041
838.819	4999
838.956	4942
839.094	4900
839.231	4987
839.369	5128
839.506	5474
839.643	5265
839.781	5079
839.918	5056
840.055	5113
840.193	5109
840.33	5128
840.467	5155
840.604	5258
840.742	5459
840.879	5113
841.016	5094
841.153	5174
841.29	5406
841.427	5334
841.564	5395
841.701	5379
841.838	5239
841.975	5250
842.112	5326
842.249	5121
842.385	5140
842.522	5334
842.659	5212
842.796	5136
842.933	5216
843.069	5162
843.206	5208
843.343	5292
843.479	5239
843.616	5258
843.752	5010
843.889	5086
844.025	5223
844.162	4987
844.298	5296
844.435	5124
844.571	5109
844.708	5197
844.844	5318
844.98	5414
845.117	5299
845.253	5155
845.389	5045
845.525	5170
845.661	5136
845.798	5022
845.934	5174
846.07	5071
846.206	5204
846.342	5311
846.478	5185
846.614	5037
846.75	5018
846.886	4972
847.022	5147
847.158	5029
847.294	5121
847.429	5083
847.565	5102
847.701	5349
847.837	4881
847.972	4843
848.108	4984
848.244	4968
848.379	4816
848.515	4744
848.65	4717
848.786	4786
848.921	4816
849.057	4854
849.192	4881
849.328	4828
849.463	4885
849.598	4816
849.734	4793
849.869	4729
850.004	4645
850.14	4706
850.275	4672
850.41	4611
850.545	4588
850.68	4622
850.815	4618
850.95	4653
851.085	4843
851.22	4748
851.355	4706
851.49	4607
851.625	4668
851.76	4645
851.895	4596
852.03	4584
852.165	4664
852.299	4744
852.434	4854
852.569	4767
852.703	4752
852.838	4870
852.973	4942
853.107	4946
853.242	4767
853.376	4694
853.511	4519
853.645	4622
853.78	4892
853.914	4656
854.048	4664
854.183	4694
854.317	4691
854.451	4862
854.585	4733
854.72	4649
854.854	4778
854.988	4580
855.122	4649
855.256	4565
855.39	4615
855.524	4820
855.658	4790
855.792	4702
855.926	4717
856.06	4786
856.194	4809
856.327	4687
856.461	4645
856.595	4664
856.729	4656
856.862	4752
856.996	4664
857.13	4714
857.263	4831
857.397	4812
857.53	4626
857.664	4763
857.797	4809
857.931	4839
858.064	4656
858.197	4786
858.331	4687
858.464	4626
858.597	4542
858.731	4656
858.864	4694
858.997	4592
859.13	4683
859.263	4694
859.396	4706
859.529	4603
859.662	4584
859.795	4546
859.928	4626
860.061	4759
860.194	4812
860.327	4641
860.46	4569
860.592	4710
860.725	4790
860.858	4774
860.99	4599
861.123	4550
861.256	4550
861.388	4626
861.521	5227
861.653	4527
861.786	4470
861.918	4512
862.05	4516
862.183	4588
862.315	4649
862.447	4691
862.58	4580
862.712	4451
862.844	4348
862.976	4459
863.108	4485
863.24	4782
863.372	4333
863.504	4432
863.636	4413
863.768	4573
863.9	4481
864.032	4360
864.164	4436
864.296	4470
864.428	4542
864.559	4569
864.691	4550
864.823	4546
864.954	4504
865.086	4508
865.217	4466
865.349	4443
865.48	4519
865.612	4542
865.743	4702
865.875	4512
866.006	4481
866.137	4504
866.269	4428
866.4	4489
866.531	4398
866.662	4451
866.793	4409
866.924	4424
867.055	4481
867.186	4436
867.317	4405
867.448	4409
867.579	4394
867.71	4428
867.841	4394
867.972	4485
868.103	4512
868.233	4440
868.364	4455
868.495	4493
868.625	4668
868.756	4767
868.886	4596
869.017	4672
869.147	4812
869.278	4774
869.408	4698
869.539	4611
869.669	4736
869.799	4634
869.929	4729
870.06	4786
870.19	4953
870.32	4965
870.45	4866
870.58	5010
870.71	5098
870.84	5121
870.97	4942
871.1	4923
871.23	5185
871.36	5105
871.489	5003
871.619	5052
871.749	5109
871.879	5140
872.008	5204
872.138	5090
872.267	5029
872.397	4881
872.526	4790
872.656	4736
872.785	4797
872.915	4968
873.044	5079
873.173	4961
873.303	4942
873.432	4991
873.561	4984
873.69	4862
873.819	4862
873.948	4919
874.077	4801
874.206	4793
874.335	4831
874.464	4908
874.593	5071
874.722	4949
874.851	5098
874.979	5105
875.108	5033
875.237	4946
875.365	4938
875.494	4938
875.623	5022
875.751	4870
875.88	4870
876.008	5010
876.136	5052
876.265	5258
876.393	5334
876.521	5250
876.65	5220
876.778	5181
876.906	5132
877.034	4976
877.162	5056
877.29	4999
877.418	5064
877.546	5048
877.674	5121
877.802	5006
877.93	5060
878.058	4976
878.185	4850
878.313	4980
878.441	4934
878.568	4805
878.696	4900
878.824	4995
878.951	5029
879.079	5178
879.206	5349
879.333	5151
879.461	4999
879.588	4999
879.715	5159
879.842	5220
879.97	5018
880.097	4786
880.224	4755
880.351	4881
880.478	4824
880.605	4782
880.732	4809
880.859	5113
880.986	4885
881.112	4908
881.239	4778
881.366	4634
881.493	4645
881.619	4611
881.746	4714
881.872	4755
881.999	4706
882.125	4744
882.252	4831
882.378	4816
882.505	4976
882.631	4755
882.757	4706
882.883	4797
883.01	4797
883.136	4630
883.262	4645
883.388	4607
883.514	4801
883.64	4877
883.766	4843
883.892	4717
884.018	4706
884.143	4927
884.269	5014
884.395	4618
884.52	4679
884.646	4691
884.772	4603
884.897	4596
885.023	4691
885.148	4774
885.274	4870
885.399	4812
885.524	4691
885.65	4675
885.775	4714
885.9	4694
886.025	4847
886.15	4820
886.275	4767
886.4	4694
886.525	4691
886.65	4653
886.775	4702
886.9	4877
887.025	5079
887.149	4854
887.274	4679
887.399	4592
887.523	4584
887.648	4546
887.773	4599
887.897	4729
888.021	4831
888.146	4694
888.27	4835
888.395	4847
888.519	4812
888.643	4820
888.767	4820
888.891	4656
889.015	4558
889.139	4626
889.263	4645
889.387	4771
889.511	4889
889.635	4790
889.759	4596
889.883	4645
890.006	4729
890.13	4828
890.254	4645
890.377	4679
890.501	4584
890.624	4554
890.748	4656
890.871	4535
890.995	4424
891.118	4398
891.241	4516
891.364	4592
891.488	4641
891.611	4443
891.734	4580
891.857	4588
891.98	4565
892.103	4649
892.226	4592
892.349	4500
892.471	4470
892.594	4519
892.717	4618
892.839	4611
892.962	4580
893.085	4706
893.207	4599
893.33	4489
893.452	4508
893.575	4683
893.697	4554
893.819	4816
893.941	4843
894.064	4740
894.186	4573
894.308	4561
894.43	4683
894.552	4866
894.674	4805
894.796	4573
894.918	4599
895.04	4580
895.161	4691
895.283	4615
895.405	4603
895.526	4656
895.648	4637
895.769	4675
895.891	4653
896.012	4763
896.134	4740
896.255	4668
896.376	4653
896.498	4641
896.619	4653
896.74	4634
896.861	4656
896.982	5006
897.103	5121
897.224	4824
897.345	4752
897.466	4664
897.587	4725
897.708	4877
897.828	4710
897.949	4672
898.07	4538
898.19	4656
898.311	4831
898.431	4733
898.552	4744
898.672	4793
898.792	4824
898.913	4752
899.033	4592
899.153	4508
899.273	4424
899.393	4451
899.513	4550
899.633	4554
899.753	4580
899.873	4519
899.993	4546
900.113	4466
900.232	4607
900.352	4497
900.472	4516
900.591	4375
900.711	4436
900.83	4443
900.95	4588
901.069	4626
901.189	4565
901.308	4375
901.427	4344
901.546	4322
901.665	4531
901.784	4512
901.904	4383
902.023	4344
902.141	4188
902.26	4196
902.379	4322
902.498	4265
902.617	4242
902.735	4421
902.854	4394
902.973	4352
903.091	4234
903.21	4249
903.328	4295
903.446	4299
903.565	4219
903.683	4394
903.801	4238
903.919	4390
904.038	4421
904.156	4333
904.274	4459
904.392	4443
904.51	4428
904.627	4508
904.745	4565
904.863	4649
904.981	4383
905.098	4325
905.216	4379
905.334	4466
905.451	4459
905.569	4440
905.686	4538
905.803	4516
905.921	4379
906.038	4538
906.155	4474
906.272	4413
906.389	4440
906.506	4322
906.623	4371
906.74	4383
906.857	4303
906.974	4375
907.091	4550
907.208	4672
907.324	4584
907.441	4519
907.557	4337
907.674	4344
907.79	4306
907.907	4390
908.023	4443
908.139	4478
908.256	4402
908.372	4466
908.488	4478
908.604	4360
908.72	4348
908.836	4398
908.952	4360
909.068	4455
909.184	4542
909.3	4516
909.415	4542
909.531	4542
909.647	4352
909.762	4341
909.878	4333
909.993	4436
910.108	4417
910.224	4451
910.339	4481
910.454	4402
910.57	4375
910.685	4284
910.8	4634
910.915	4611
911.03	4474
911.145	4314
911.259	4322
911.374	4344
911.489	4306
911.604	4261
911.718	4169
911.833	4219
911.947	4120
912.062	4036
912.176	4249
912.291	4200
912.405	4219
912.519	4470
912.633	4546
912.748	4390
912.862	4287
912.976	4230
913.09	4128
913.204	4185
913.318	4280
913.431	4360
913.545	4329
913.659	4455
913.772	4344
913.886	4253
914	4211
914.113	4398
914.226	4466
914.34	4409
914.453	4242
914.566	4440
914.68	4318
914.793	4299
914.906	4143
915.019	4067
915.132	4093
915.245	4177
915.358	4238
915.47	4238
915.583	4265
915.696	4280
915.809	4447
915.921	4443
916.034	4291
916.146	4272
916.259	4173
916.371	4405
916.483	4367
916.595	4268
916.708	4314
916.82	4318
916.932	4329
917.044	4348
917.156	4306
917.268	4211
917.38	4234
917.491	4242
917.603	4356
917.715	4405
917.826	4417
917.938	4325
918.049	4215
918.161	4459
918.272	4535
918.384	4493
918.495	4474
918.606	4276
918.717	4219
918.828	4306
918.939	4352
919.05	4246
919.161	4371
919.272	4116
919.383	4204
919.494	4413
919.604	4611
919.715	4455
919.826	4303
919.936	4424
920.047	4527
920.157	4466
920.267	4687
920.378	4531
920.488	4462
920.598	4717
920.708	4854
920.818	4748
920.928	4839
921.038	4942
921.148	4930
921.258	4626
921.368	4558
921.477	4489
921.587	4489
921.697	4390
921.806	4531
921.916	4459
922.025	4265
922.134	4310
922.244	4177
922.353	4284
922.462	4207
922.571	4090
922.68	4040
922.789	3915
922.898	4029
923.007	4013
923.116	4097
923.224	4116
923.333	4093
923.442	3956
923.55	3945
923.659	4017
923.767	4143
923.876	4036
923.984	4097
924.092	3968
924.201	4093
924.309	4116
924.417	4097
924.525	4040
924.633	4135
924.741	4900
924.849	3934
924.956	4147
925.064	3956
925.172	3907
925.279	3994
925.387	4090
925.494	4071
925.602	4215
925.709	4188
925.816	4059
925.924	4120
926.031	4265
926.138	4162
926.245	4227
926.352	4086
926.459	4265
926.566	4306
926.673	4166
926.779	4074
926.886	4078
926.993	3964
927.099	3975
927.206	3922
927.312	3934
927.419	4059
927.525	4013
927.631	4112
927.737	4002
927.843	3930
927.95	3861
928.056	3945
928.162	3979
928.267	4059
928.373	4599
928.479	4101
928.585	3869
928.69	4013
928.796	4067
928.901	3983
929.007	3842
929.112	3994
929.218	4006
929.323	3937
929.428	3934
929.533	4112
929.638	3930
929.743	3956
929.848	4105
929.953	3991
930.058	3899
930.163	3774
930.267	3797
930.372	3953
930.477	3835
930.581	4067
930.685	3953
930.79	3812
930.894	3869
930.998	3854
931.103	4032
931.207	3701
931.311	3698
931.415	3671
931.519	3534
931.623	3523
