Data from test_V78500241_884.txt Node
Date: Fri Mar 25 16:55:08 CST 2022
User: usil
Spectrometer: V785-0024
Trigger mode: 0
Integration Time (sec): 4.000000E-1
Scans to average: 1
Nonlinearity correction enabled: false
Boxcar width: 0
Storing dark spectrum: false
XAxis mode: Wavelengths
Number of Pixels in Spectrum: 1024
>>>>>Begin Spectral Data<<<<<
801.071	8065
801.214	8005
801.356	7906
801.499	7830
801.641	7822
801.783	7875
801.926	7944
802.068	7936
802.211	7989
802.353	7940
802.496	7898
802.638	7909
802.78	7928
802.923	7970
803.065	7887
803.208	7928
803.35	7986
803.492	8073
803.635	8164
803.777	7974
803.919	8172
804.061	8434
804.204	8107
804.346	8100
804.488	7997
804.63	8088
804.773	8031
804.915	8027
805.057	8259
805.199	8145
805.341	8206
805.483	8225
805.626	8183
805.768	8054
805.91	8214
806.052	8202
806.194	8054
806.336	8309
806.478	8096
806.62	8054
806.762	8096
806.904	8279
807.046	8408
807.188	8393
807.33	8294
807.472	8282
807.614	8149
807.756	8084
807.898	7974
808.04	7871
808.182	7917
808.324	7814
808.465	7940
808.607	8115
808.749	8134
808.891	8214
809.033	8282
809.174	8263
809.316	8084
809.458	8092
809.6	8001
809.741	8050
809.883	8062
810.025	8161
810.166	8103
810.308	8039
810.45	8092
810.591	7871
810.733	7780
810.875	7605
811.016	7487
811.158	7548
811.299	7567
811.441	7708
811.582	7734
811.724	7636
811.865	7594
812.007	7521
812.148	7624
812.29	7643
812.431	7685
812.573	7822
812.714	8008
812.855	8142
812.997	8149
813.138	8275
813.279	8199
813.421	8119
813.562	8008
813.703	7864
813.845	7765
813.986	7533
814.127	7289
814.268	7274
814.41	7190
814.551	7103
814.692	7194
814.833	7076
814.974	7145
815.115	7069
815.256	6928
815.397	6939
815.539	6958
815.68	6867
815.821	6776
815.962	6848
816.103	6806
816.244	6734
816.385	6642
816.526	6604
816.666	6494
816.807	6277
816.948	6410
817.089	6551
817.23	6479
817.371	6361
817.512	6380
817.653	6376
817.793	6376
817.934	6395
818.075	6464
818.216	6418
818.356	6433
818.497	6194
818.638	6144
818.778	6201
818.919	6114
819.06	6171
819.2	6292
819.341	6315
819.481	6369
819.622	6521
819.762	6681
819.903	6662
820.043	6631
820.184	6570
820.324	6525
820.465	6684
820.605	6627
820.746	6707
820.886	6547
821.026	6642
821.167	6745
821.307	6821
821.447	6779
821.588	6677
821.728	6551
821.868	6494
822.008	6342
822.149	6391
822.289	6342
822.429	6117
822.569	6121
822.709	6155
822.849	5969
822.99	5870
823.13	5942
823.27	5908
823.41	5802
823.55	5821
823.69	5741
823.83	5798
823.97	5657
824.11	5528
824.25	5539
824.389	5524
824.529	5581
824.669	5551
824.809	5600
824.949	5630
825.089	5611
825.228	5535
825.368	5387
825.508	5360
825.648	5341
825.787	5364
825.927	5436
826.067	5364
826.206	5296
826.346	5376
826.485	5463
826.625	5467
826.765	5486
826.904	5459
827.044	5258
827.183	5147
827.323	5105
827.462	5242
827.601	5143
827.741	5220
827.88	5216
828.02	5083
828.159	5189
828.298	5265
828.437	5318
828.577	5284
828.716	5505
828.855	5311
828.994	5147
829.134	5121
829.273	5178
829.412	5143
829.551	5094
829.69	5117
829.829	5258
829.968	5357
830.107	5258
830.246	5269
830.385	5197
830.524	5102
830.663	5064
830.802	4965
830.941	4866
831.08	4919
831.219	4976
831.357	4984
831.496	5143
831.635	4927
831.774	4881
831.913	4896
832.051	4721
832.19	4706
832.329	4854
832.467	4675
832.606	4683
832.744	4656
832.883	4733
833.022	4687
833.16	4771
833.299	4805
833.437	4752
833.576	4835
833.714	4900
833.852	4858
833.991	4896
834.129	4949
834.267	4949
834.406	4942
834.544	5025
834.682	4938
834.821	4965
834.959	5136
835.097	4980
835.235	5117
835.373	5083
835.511	5067
835.65	4984
835.788	4999
835.926	4870
836.064	4850
836.202	4968
836.34	5102
836.478	5242
836.615	5117
836.753	5201
836.891	5311
837.029	5273
837.167	5204
837.305	5166
837.443	5117
837.58	5025
837.718	5208
837.856	5201
837.993	5151
838.131	5258
838.269	5246
838.406	5155
838.544	5143
838.681	4957
838.819	5003
838.956	4904
839.094	4930
839.231	4953
839.369	5064
839.506	5410
839.643	5220
839.781	5014
839.918	4953
840.055	5109
840.193	5022
840.33	5147
840.467	5109
840.604	5159
840.742	5440
840.879	5086
841.016	5121
841.153	5140
841.29	5337
841.427	5296
841.564	5303
841.701	5349
841.838	5288
841.975	5239
842.112	5273
842.249	5143
842.385	5124
842.522	5269
842.659	5170
842.796	5159
842.933	5128
843.069	5121
843.206	5166
843.343	5246
843.479	5246
843.616	5220
843.752	5025
843.889	4961
844.025	5162
844.162	5014
844.298	5166
844.435	5079
844.571	5045
844.708	5204
844.844	5296
844.98	5307
845.117	5299
845.253	5090
845.389	5113
845.525	5094
845.661	5147
845.798	5037
845.934	5132
846.07	5060
846.206	5151
846.342	5299
846.478	5109
846.614	4972
846.75	5018
846.886	4908
847.022	5162
847.158	4999
847.294	5025
847.429	5098
847.565	5048
847.701	5288
847.837	4915
847.972	4877
848.108	4942
848.244	4961
848.379	4786
848.515	4740
848.65	4702
848.786	4744
848.921	4752
849.057	4858
849.192	4896
849.328	4831
849.463	4847
849.598	4782
849.734	4721
849.869	4656
850.004	4637
850.14	4653
850.275	4618
850.41	4508
850.545	4565
850.68	4626
850.815	4618
850.95	4611
851.085	4885
851.22	4698
851.355	4672
851.49	4599
851.625	4641
851.76	4641
851.895	4500
852.03	4500
852.165	4599
852.299	4691
852.434	4778
852.569	4744
852.703	4706
852.838	4782
852.973	4930
853.107	4900
853.242	4744
853.376	4672
853.511	4561
853.645	4607
853.78	4797
853.914	4691
854.048	4622
854.183	4630
854.317	4771
854.451	4824
854.585	4649
854.72	4675
854.854	4710
854.988	4611
855.122	4584
855.256	4493
855.39	4656
855.524	4759
855.658	4725
855.792	4721
855.926	4706
856.06	4774
856.194	4771
856.327	4664
856.461	4618
856.595	4607
856.729	4607
856.862	4752
856.996	4702
857.13	4759
857.263	4694
857.397	4763
857.53	4645
857.664	4710
857.797	4683
857.931	4733
858.064	4706
858.197	4733
858.331	4637
858.464	4584
858.597	4542
858.731	4637
858.864	4592
858.997	4561
859.13	4664
859.263	4675
859.396	4660
859.529	4592
859.662	4493
859.795	4550
859.928	4668
860.061	4771
860.194	4706
860.327	4603
860.46	4561
860.592	4679
860.725	4767
860.858	4725
860.99	4535
861.123	4531
861.256	4561
861.388	4603
861.521	5330
861.653	4485
861.786	4432
861.918	4474
862.05	4497
862.183	4500
862.315	4622
862.447	4641
862.58	4542
862.712	4424
862.844	4318
862.976	4424
863.108	4443
863.24	4790
863.372	4341
863.504	4421
863.636	4379
863.768	4432
863.9	4379
864.032	4356
864.164	4356
864.296	4493
864.428	4531
864.559	4538
864.691	4508
864.823	4500
864.954	4504
865.086	4481
865.217	4428
865.349	4390
865.48	4413
865.612	4481
865.743	4588
865.875	4405
866.006	4428
866.137	4466
866.269	4424
866.4	4447
866.531	4394
866.662	4379
866.793	4394
866.924	4436
867.055	4459
867.186	4440
867.317	4402
867.448	4360
867.579	4386
867.71	4379
867.841	4363
867.972	4459
868.103	4447
868.233	4398
868.364	4455
868.495	4466
868.625	4622
868.756	4740
868.886	4569
869.017	4622
869.147	4729
869.278	4744
869.408	4580
869.539	4596
869.669	4694
869.799	4637
869.929	4809
870.06	4691
870.19	4930
870.32	4885
870.45	4946
870.58	4980
870.71	5064
870.84	5075
870.97	4904
871.1	4873
871.23	5140
871.36	5132
871.489	5037
871.619	5052
871.749	5071
871.879	5151
872.008	5132
872.138	5048
872.267	4999
872.397	4820
872.526	4767
872.656	4733
872.785	4790
872.915	4957
873.044	5033
873.173	4923
873.303	4946
873.432	4923
873.561	4965
873.69	4870
873.819	4957
873.948	4873
874.077	4877
874.206	4771
874.335	4831
874.464	4919
874.593	5037
874.722	4908
874.851	5086
874.979	5102
875.108	5010
875.237	4862
875.365	4831
875.494	4866
875.623	4965
875.751	4866
875.88	4881
876.008	4961
876.136	5056
876.265	5155
876.393	5318
876.521	5201
876.65	5178
876.778	5136
876.906	5083
877.034	4976
877.162	5086
877.29	4965
877.418	5029
877.546	5003
877.674	5075
877.802	5003
877.93	5041
878.058	4889
878.185	4873
878.313	4984
878.441	4934
878.568	4820
878.696	4831
878.824	4938
878.951	4991
879.079	5132
879.206	5311
879.333	5037
879.461	4930
879.588	4965
879.715	5105
879.842	5189
879.97	4976
880.097	4755
880.224	4698
880.351	4763
880.478	4843
880.605	4774
880.732	4778
880.859	5094
880.986	4889
881.112	4915
881.239	4774
881.366	4710
881.493	4584
881.619	4569
881.746	4649
881.872	4607
881.999	4660
882.125	4683
882.252	4812
882.378	4755
882.505	4930
882.631	4778
882.757	4634
882.883	4702
883.01	4717
883.136	4611
883.262	4569
883.388	4634
883.514	4771
883.64	4835
883.766	4782
883.892	4694
884.018	4675
884.143	4930
884.269	4946
884.395	4691
884.52	4615
884.646	4611
884.772	4558
884.897	4542
885.023	4660
885.148	4797
885.274	4847
885.399	4778
885.524	4679
885.65	4698
885.775	4748
885.9	4717
886.025	4831
886.15	4797
886.275	4683
886.4	4664
886.525	4710
886.65	4694
886.775	4675
886.9	4877
887.025	4987
887.149	4824
887.274	4645
887.399	4611
887.523	4550
887.648	4550
887.773	4538
887.897	4759
888.021	4755
888.146	4645
888.27	4774
888.395	4877
888.519	4786
888.643	4839
888.767	4850
888.891	4611
889.015	4588
889.139	4634
889.263	4588
889.387	4714
889.511	4862
889.635	4793
889.759	4603
889.883	4626
890.006	4706
890.13	4790
890.254	4603
890.377	4717
890.501	4542
890.624	4478
890.748	4588
890.871	4489
890.995	4390
891.118	4386
891.241	4508
891.364	4535
891.488	4573
891.611	4474
891.734	4516
891.857	4573
891.98	4554
892.103	4672
892.226	4577
892.349	4508
892.471	4417
892.594	4561
892.717	4588
892.839	4580
892.962	4607
893.085	4672
893.207	4580
893.33	4493
893.452	4497
893.575	4618
893.697	4523
893.819	4793
893.941	4866
894.064	4778
894.186	4588
894.308	4512
894.43	4733
894.552	4797
894.674	4721
894.796	4497
894.918	4512
895.04	4603
895.161	4714
895.283	4622
895.405	4550
895.526	4607
895.648	4675
895.769	4630
895.891	4698
896.012	4752
896.134	4706
896.255	4668
896.376	4618
896.498	4615
896.619	4656
896.74	4596
896.861	4649
896.982	4870
897.103	5071
897.224	4793
897.345	4691
897.466	4691
897.587	4702
897.708	4816
897.828	4721
897.949	4645
898.07	4527
898.19	4622
898.311	4767
898.431	4687
898.552	4767
898.672	4831
898.792	4744
898.913	4736
899.033	4634
899.153	4493
899.273	4405
899.393	4504
899.513	4504
899.633	4451
899.753	4527
899.873	4489
899.993	4550
900.113	4527
900.232	4573
900.352	4512
900.472	4516
900.591	4421
900.711	4470
900.83	4447
900.95	4565
901.069	4645
901.189	4516
901.308	4383
901.427	4337
901.546	4379
901.665	4447
901.784	4485
901.904	4337
902.023	4314
902.141	4227
902.26	4150
902.379	4272
902.498	4249
902.617	4223
902.735	4329
902.854	4390
902.973	4337
903.091	4204
903.21	4200
903.328	4306
903.446	4215
903.565	4249
903.683	4398
903.801	4284
903.919	4394
904.038	4398
904.156	4291
904.274	4402
904.392	4348
904.51	4432
904.627	4455
904.745	4504
904.863	4573
904.981	4390
905.098	4344
905.216	4337
905.334	4375
905.451	4455
905.569	4466
905.686	4538
905.803	4538
905.921	4428
906.038	4584
906.155	4504
906.272	4428
906.389	4440
906.506	4360
906.623	4352
906.74	4375
906.857	4303
906.974	4383
907.091	4481
907.208	4649
907.324	4588
907.441	4485
907.557	4344
907.674	4383
907.79	4325
907.907	4375
908.023	4440
908.139	4474
908.256	4478
908.372	4443
908.488	4470
908.604	4325
908.72	4306
908.836	4390
908.952	4333
909.068	4390
909.184	4519
909.3	4481
909.415	4577
909.531	4558
909.647	4360
909.762	4352
909.878	4360
909.993	4459
910.108	4413
910.224	4409
910.339	4508
910.454	4436
910.57	4360
910.685	4306
910.8	4668
910.915	4645
911.03	4512
911.145	4306
911.259	4314
911.374	4375
911.489	4295
911.604	4227
911.718	4200
911.833	4196
911.947	4082
912.062	4044
912.176	4200
912.291	4268
912.405	4238
912.519	4428
912.633	4493
912.748	4375
912.862	4303
912.976	4192
913.09	4109
913.204	4173
913.318	4223
913.431	4386
913.545	4333
913.659	4421
913.772	4356
913.886	4257
914	4215
914.113	4371
914.226	4417
914.34	4367
914.453	4230
914.566	4394
914.68	4333
914.793	4322
914.906	4166
915.019	4116
915.132	4029
915.245	4192
915.358	4188
915.47	4227
915.583	4265
915.696	4306
915.809	4348
915.921	4455
916.034	4280
916.146	4268
916.259	4242
916.371	4375
916.483	4337
916.595	4306
916.708	4284
916.82	4291
916.932	4329
917.044	4325
917.156	4299
917.268	4249
917.38	4253
917.491	4310
917.603	4337
917.715	4451
917.826	4413
917.938	4337
918.049	4227
918.161	4348
918.272	4558
918.384	4508
918.495	4481
918.606	4257
918.717	4268
918.828	4344
918.939	4367
919.05	4207
919.161	4310
919.272	4181
919.383	4207
919.494	4440
919.604	4607
919.715	4413
919.826	4379
919.936	4455
920.047	4519
920.157	4462
920.267	4675
920.378	4527
920.488	4455
920.598	4691
920.708	4896
920.818	4744
920.928	4721
921.038	4934
921.148	4885
921.258	4603
921.368	4573
921.477	4497
921.587	4443
921.697	4356
921.806	4584
921.916	4413
922.025	4284
922.134	4276
922.244	4188
922.353	4329
922.462	4162
922.571	4109
922.68	4017
922.789	3994
922.898	4048
923.007	4002
923.116	4120
923.224	4067
923.333	4044
923.442	4002
923.55	3960
923.659	4025
923.767	4105
923.876	3972
923.984	4124
924.092	3994
924.201	4078
924.309	4071
924.417	4147
924.525	4078
924.633	4109
924.741	4866
924.849	3930
924.956	4143
925.064	4021
925.172	3911
925.279	3960
925.387	4040
925.494	4059
925.602	4223
925.709	4219
925.816	4048
925.924	4128
926.031	4185
926.138	4177
926.245	4227
926.352	4105
926.459	4284
926.566	4276
926.673	4143
926.779	4055
926.886	4051
926.993	4021
927.099	3945
927.206	3941
927.312	3956
927.419	4067
927.525	3998
927.631	4078
927.737	3926
927.843	3949
927.95	3873
928.056	3934
928.162	4002
928.267	4044
928.373	4592
928.479	4055
928.585	3896
928.69	4032
928.796	4078
928.901	3964
929.007	3854
929.112	4006
929.218	3960
929.323	3960
929.428	3918
929.533	4082
929.638	3899
929.743	3930
929.848	4048
929.953	3983
930.058	3899
930.163	3789
930.267	3846
930.372	3953
930.477	3812
930.581	4120
930.685	3896
930.79	3846
930.894	3819
930.998	3838
931.103	4032
931.207	3724
931.311	3698
931.415	3660
931.519	3526
931.623	3557
