Data from test_V78500241_648.txt Node
Date: Fri Mar 25 16:53:30 CST 2022
User: usil
Spectrometer: V785-0024
Trigger mode: 0
Integration Time (sec): 4.000000E-1
Scans to average: 1
Nonlinearity correction enabled: false
Boxcar width: 0
Storing dark spectrum: false
XAxis mode: Wavelengths
Number of Pixels in Spectrum: 1024
>>>>>Begin Spectral Data<<<<<
801.071	7967
801.214	7932
801.356	7845
801.499	7841
801.641	7704
801.783	7845
801.926	8050
802.068	7986
802.211	7925
802.353	8031
802.496	7871
802.638	7890
802.78	7936
802.923	7887
803.065	7814
803.208	7772
803.35	7970
803.492	8024
803.635	8088
803.777	8020
803.919	8062
804.061	8450
804.204	8149
804.346	7997
804.488	7890
804.63	8111
804.773	7997
804.915	8024
805.057	8279
805.199	8202
805.341	8237
805.483	8233
805.626	8252
805.768	8096
805.91	8191
806.052	8138
806.194	8081
806.336	8252
806.478	8100
806.62	8005
806.762	8039
806.904	8240
807.046	8400
807.188	8336
807.33	8290
807.472	8309
807.614	8115
807.756	8149
807.898	7947
808.04	7852
808.182	7894
808.324	7811
808.465	7868
808.607	8107
808.749	8084
808.891	8180
809.033	8233
809.174	8183
809.316	8119
809.458	8043
809.6	8031
809.741	8031
809.883	8046
810.025	8024
810.166	8054
810.308	8058
810.45	8115
810.591	7909
810.733	7753
810.875	7746
811.016	7559
811.158	7544
811.299	7609
811.441	7731
811.582	7776
811.724	7544
811.865	7499
812.007	7597
812.148	7563
812.29	7628
812.431	7727
812.573	7887
812.714	8043
812.855	8149
812.997	8263
813.138	8298
813.279	8290
813.421	8153
813.562	7997
813.703	7894
813.845	7868
813.986	7552
814.127	7316
814.268	7266
814.41	7156
814.551	7213
814.692	7194
814.833	7065
814.974	7129
815.115	7164
815.256	6977
815.397	6958
815.539	6989
815.68	6863
815.821	6844
815.962	6977
816.103	6882
816.244	6791
816.385	6612
816.526	6604
816.666	6517
816.807	6357
816.948	6464
817.089	6498
817.23	6471
817.371	6410
817.512	6410
817.653	6357
817.793	6399
817.934	6456
818.075	6445
818.216	6471
818.356	6429
818.497	6273
818.638	6125
818.778	6155
818.919	6117
819.06	6163
819.2	6369
819.341	6342
819.481	6338
819.622	6517
819.762	6741
819.903	6700
820.043	6627
820.184	6597
820.324	6582
820.465	6681
820.605	6608
820.746	6601
820.886	6498
821.026	6684
821.167	6669
821.307	6783
821.447	6814
821.588	6673
821.728	6559
821.868	6517
822.008	6327
822.149	6410
822.289	6372
822.429	6155
822.569	6117
822.709	6121
822.849	5927
822.99	5893
823.13	6003
823.27	5927
823.41	5790
823.55	5779
823.69	5771
823.83	5779
823.97	5688
824.11	5573
824.25	5543
824.389	5566
824.529	5630
824.669	5497
824.809	5646
824.949	5691
825.089	5634
825.228	5581
825.368	5433
825.508	5364
825.648	5360
825.787	5372
825.927	5421
826.067	5299
826.206	5288
826.346	5429
826.485	5421
826.625	5410
826.765	5547
826.904	5543
827.044	5280
827.183	5170
827.323	5136
827.462	5239
827.601	5212
827.741	5162
827.88	5185
828.02	5121
828.159	5231
828.298	5322
828.437	5376
828.577	5303
828.716	5486
828.855	5372
828.994	5181
829.134	5155
829.273	5174
829.412	5162
829.551	5197
829.69	5170
829.829	5239
829.968	5357
830.107	5269
830.246	5296
830.385	5189
830.524	5128
830.663	5060
830.802	5029
830.941	4949
831.08	4911
831.219	5041
831.357	4980
831.496	5178
831.635	4972
831.774	4889
831.913	4877
832.051	4729
832.19	4774
832.329	4862
832.467	4717
832.606	4656
832.744	4725
832.883	4744
833.022	4778
833.16	4881
833.299	4911
833.437	4812
833.576	4862
833.714	4854
833.852	4892
833.991	4915
834.129	4953
834.267	4995
834.406	4946
834.544	4972
834.682	5006
834.821	4984
834.959	5185
835.097	5025
835.235	5181
835.373	5090
835.511	5094
835.65	5075
835.788	5045
835.926	4881
836.064	4892
836.202	4968
836.34	5159
836.478	5261
836.615	5128
836.753	5242
836.891	5280
837.029	5284
837.167	5178
837.305	5197
837.443	5220
837.58	5102
837.718	5296
837.856	5185
837.993	5147
838.131	5185
838.269	5258
838.406	5223
838.544	5231
838.681	5037
838.819	5003
838.956	4927
839.094	4930
839.231	5067
839.369	5140
839.506	5448
839.643	5303
839.781	5105
839.918	5041
840.055	5102
840.193	5151
840.33	5113
840.467	5132
840.604	5242
840.742	5493
840.879	5117
841.016	5098
841.153	5136
841.29	5349
841.427	5330
841.564	5284
841.701	5398
841.838	5318
841.975	5246
842.112	5254
842.249	5201
842.385	5105
842.522	5337
842.659	5204
842.796	5155
842.933	5227
843.069	5197
843.206	5162
843.343	5299
843.479	5261
843.616	5258
843.752	5025
843.889	5033
844.025	5239
844.162	5025
844.298	5265
844.435	5113
844.571	5079
844.708	5254
844.844	5364
844.98	5372
845.117	5307
845.253	5132
845.389	5090
845.525	5170
845.661	5151
845.798	5029
845.934	5166
846.07	5018
846.206	5201
846.342	5292
846.478	5178
846.614	5006
846.75	4953
846.886	4957
847.022	5102
847.158	5048
847.294	5041
847.429	5094
847.565	5067
847.701	5299
847.837	4873
847.972	4828
848.108	4938
848.244	4999
848.379	4786
848.515	4714
848.65	4710
848.786	4782
848.921	4763
849.057	4858
849.192	4885
849.328	4858
849.463	4873
849.598	4763
849.734	4771
849.869	4752
850.004	4656
850.14	4744
850.275	4645
850.41	4519
850.545	4592
850.68	4649
850.815	4729
850.95	4618
851.085	4862
851.22	4771
851.355	4653
851.49	4634
851.625	4603
851.76	4675
851.895	4558
852.03	4573
852.165	4660
852.299	4729
852.434	4801
852.569	4797
852.703	4767
852.838	4923
852.973	4957
853.107	4911
853.242	4736
853.376	4683
853.511	4588
853.645	4679
853.78	4870
853.914	4733
854.048	4637
854.183	4626
854.317	4725
854.451	4911
854.585	4679
854.72	4668
854.854	4748
854.988	4618
855.122	4637
855.256	4538
855.39	4668
855.524	4812
855.658	4710
855.792	4714
855.926	4717
856.06	4714
856.194	4797
856.327	4710
856.461	4618
856.595	4611
856.729	4668
856.862	4729
856.996	4725
857.13	4790
857.263	4744
857.397	4790
857.53	4691
857.664	4725
857.797	4752
857.931	4763
858.064	4641
858.197	4725
858.331	4714
858.464	4626
858.597	4527
858.731	4649
858.864	4649
858.997	4554
859.13	4618
859.263	4702
859.396	4710
859.529	4626
859.662	4607
859.795	4546
859.928	4588
860.061	4786
860.194	4736
860.327	4630
860.46	4573
860.592	4656
860.725	4782
860.858	4744
860.99	4622
861.123	4519
861.256	4550
861.388	4592
861.521	5322
861.653	4538
861.786	4436
861.918	4459
862.05	4523
862.183	4584
862.315	4622
862.447	4698
862.58	4603
862.712	4379
862.844	4310
862.976	4474
863.108	4474
863.24	4892
863.372	4379
863.504	4409
863.636	4424
863.768	4497
863.9	4432
864.032	4363
864.164	4402
864.296	4497
864.428	4542
864.559	4561
864.691	4546
864.823	4535
864.954	4538
865.086	4542
865.217	4493
865.349	4455
865.48	4470
865.612	4542
865.743	4637
865.875	4489
866.006	4474
866.137	4538
866.269	4447
866.4	4459
866.531	4447
866.662	4405
866.793	4417
866.924	4394
867.055	4512
867.186	4466
867.317	4455
867.448	4363
867.579	4405
867.71	4390
867.841	4424
867.972	4443
868.103	4493
868.233	4478
868.364	4421
868.495	4489
868.625	4660
868.756	4744
868.886	4580
869.017	4592
869.147	4755
869.278	4771
869.408	4675
869.539	4615
869.669	4752
869.799	4637
869.929	4763
870.06	4683
870.19	4987
870.32	4934
870.45	4896
870.58	4976
870.71	5083
870.84	5102
870.97	4938
871.1	4915
871.23	5128
871.36	5151
871.489	4968
871.619	5140
871.749	5105
871.879	5075
872.008	5174
872.138	5029
872.267	5022
872.397	4862
872.526	4801
872.656	4786
872.785	4835
872.915	4927
873.044	5045
873.173	4911
873.303	4968
873.432	4965
873.561	4934
873.69	4847
873.819	4877
873.948	4938
874.077	4858
874.206	4816
874.335	4733
874.464	4942
874.593	5075
874.722	5010
874.851	5079
874.979	5052
875.108	5079
875.237	4942
875.365	4889
875.494	4919
875.623	4968
875.751	4824
875.88	4873
876.008	4991
876.136	5075
876.265	5212
876.393	5436
876.521	5258
876.65	5265
876.778	5254
876.906	5094
877.034	5064
877.162	5060
877.29	5041
877.418	5075
877.546	5071
877.674	5045
877.802	5064
877.93	5052
878.058	4987
878.185	4896
878.313	4991
878.441	4972
878.568	4843
878.696	4946
878.824	5010
878.951	5014
879.079	5174
879.206	5299
879.333	5147
879.461	5003
879.588	5064
879.715	5201
879.842	5284
879.97	5014
880.097	4812
880.224	4763
880.351	4847
880.478	4877
880.605	4877
880.732	4816
880.859	5124
880.986	4934
881.112	4900
881.239	4847
881.366	4698
881.493	4694
881.619	4592
881.746	4694
881.872	4668
881.999	4694
882.125	4786
882.252	4767
882.378	4881
882.505	4991
882.631	4885
882.757	4691
882.883	4767
883.01	4790
883.136	4679
883.262	4622
883.388	4645
883.514	4877
883.64	4953
883.766	4828
883.892	4736
884.018	4820
884.143	4911
884.269	5071
884.395	4740
884.52	4672
884.646	4694
884.772	4618
884.897	4588
885.023	4729
885.148	4816
885.274	4889
885.399	4873
885.524	4782
885.65	4755
885.775	4778
885.9	4729
886.025	4847
886.15	4839
886.275	4805
886.4	4694
886.525	4786
886.65	4748
886.775	4736
886.9	4908
887.025	5052
887.149	4831
887.274	4702
887.399	4607
887.523	4634
887.648	4630
887.773	4653
887.897	4824
888.021	4797
888.146	4717
888.27	4862
888.395	4911
888.519	4858
888.643	4873
888.767	4843
888.891	4717
889.015	4653
889.139	4694
889.263	4637
889.387	4790
889.511	4904
889.635	4828
889.759	4641
889.883	4672
890.006	4767
890.13	4847
890.254	4694
890.377	4714
890.501	4535
890.624	4523
890.748	4668
890.871	4565
890.995	4512
891.118	4383
891.241	4538
891.364	4550
891.488	4683
891.611	4535
891.734	4580
891.857	4626
891.98	4599
892.103	4694
892.226	4664
892.349	4561
892.471	4466
892.594	4577
892.717	4618
892.839	4607
892.962	4622
893.085	4691
893.207	4634
893.33	4569
893.452	4550
893.575	4710
893.697	4565
893.819	4877
893.941	4889
894.064	4748
894.186	4607
894.308	4599
894.43	4759
894.552	4866
894.674	4748
894.796	4573
894.918	4656
895.04	4565
895.161	4729
895.283	4691
895.405	4626
895.526	4698
895.648	4702
895.769	4729
895.891	4748
896.012	4793
896.134	4759
896.255	4721
896.376	4702
896.498	4649
896.619	4721
896.74	4656
896.861	4710
896.982	4942
897.103	5109
897.224	4877
897.345	4778
897.466	4740
897.587	4782
897.708	4904
897.828	4828
897.949	4736
898.07	4641
898.19	4679
898.311	4862
898.431	4660
898.552	4790
898.672	4923
898.792	4881
898.913	4748
899.033	4607
899.153	4516
899.273	4459
899.393	4535
899.513	4580
899.633	4558
899.753	4584
899.873	4565
899.993	4569
900.113	4573
900.232	4637
900.352	4588
900.472	4500
900.591	4424
900.711	4512
900.83	4451
900.95	4660
901.069	4744
901.189	4603
901.308	4413
901.427	4383
901.546	4447
901.665	4489
901.784	4531
901.904	4413
902.023	4360
902.141	4227
902.26	4219
902.379	4356
902.498	4306
902.617	4303
902.735	4375
902.854	4466
902.973	4375
903.091	4200
903.21	4257
903.328	4379
903.446	4314
903.565	4276
903.683	4413
903.801	4352
903.919	4405
904.038	4497
904.156	4322
904.274	4497
904.392	4409
904.51	4470
904.627	4523
904.745	4599
904.863	4702
904.981	4455
905.098	4367
905.216	4405
905.334	4440
905.451	4481
905.569	4497
905.686	4542
905.803	4550
905.921	4417
906.038	4615
906.155	4554
906.272	4443
906.389	4485
906.506	4383
906.623	4379
906.74	4432
906.857	4367
906.974	4436
907.091	4588
907.208	4702
907.324	4634
907.441	4577
907.557	4402
907.674	4417
907.79	4398
907.907	4379
908.023	4550
908.139	4508
908.256	4447
908.372	4523
908.488	4508
908.604	4383
908.72	4341
908.836	4417
908.952	4413
909.068	4481
909.184	4577
909.3	4440
909.415	4611
909.531	4592
909.647	4398
909.762	4436
909.878	4337
909.993	4447
910.108	4413
910.224	4462
910.339	4554
910.454	4428
910.57	4413
910.685	4318
910.8	4653
910.915	4615
911.03	4538
911.145	4337
911.259	4360
911.374	4375
911.489	4314
911.604	4287
911.718	4227
911.833	4253
911.947	4139
912.062	4040
912.176	4276
912.291	4265
912.405	4284
912.519	4512
912.633	4546
912.748	4398
912.862	4363
912.976	4234
913.09	4124
913.204	4211
913.318	4287
913.431	4455
913.545	4405
913.659	4481
913.772	4443
913.886	4299
914	4249
914.113	4390
914.226	4417
914.34	4432
914.453	4276
914.566	4462
914.68	4314
914.793	4337
914.906	4162
915.019	4124
915.132	4086
915.245	4204
915.358	4272
915.47	4242
915.583	4318
915.696	4329
915.809	4413
915.921	4409
916.034	4280
916.146	4280
916.259	4238
916.371	4424
916.483	4360
916.595	4325
916.708	4348
916.82	4379
916.932	4383
917.044	4375
917.156	4329
917.268	4284
917.38	4325
917.491	4318
917.603	4409
917.715	4421
917.826	4478
917.938	4424
918.049	4253
918.161	4451
918.272	4561
918.384	4538
918.495	4466
918.606	4322
918.717	4291
918.828	4344
918.939	4390
919.05	4268
919.161	4344
919.272	4150
919.383	4253
919.494	4489
919.604	4645
919.715	4455
919.826	4383
919.936	4421
920.047	4550
920.157	4497
920.267	4733
920.378	4519
920.488	4538
920.598	4733
920.708	4938
920.818	4790
920.928	4736
921.038	5014
921.148	4968
921.258	4675
921.368	4630
921.477	4493
921.587	4485
921.697	4436
921.806	4550
921.916	4531
922.025	4303
922.134	4276
922.244	4238
922.353	4352
922.462	4230
922.571	4150
922.68	4044
922.789	3987
922.898	4086
923.007	4029
923.116	4112
923.224	4109
923.333	4135
923.442	4029
923.55	3994
923.659	4025
923.767	4147
923.876	4032
923.984	4124
924.092	4029
924.201	4097
924.309	4112
924.417	4173
924.525	4063
924.633	4158
924.741	5048
924.849	3991
924.956	4181
925.064	3994
925.172	3956
925.279	3960
925.387	4067
925.494	4067
925.602	4242
925.709	4204
925.816	4067
925.924	4128
926.031	4284
926.138	4227
926.245	4238
926.352	4101
926.459	4291
926.566	4303
926.673	4211
926.779	4139
926.886	4074
926.993	4002
927.099	3964
927.206	3937
927.312	3972
927.419	4131
927.525	4116
927.631	4082
927.737	4036
927.843	3975
927.95	3861
928.056	3972
928.162	4006
928.267	4017
928.373	4683
928.479	4090
928.585	3884
928.69	4059
928.796	4055
928.901	3979
929.007	3861
929.112	4029
929.218	3979
929.323	4006
929.428	3956
929.533	4131
929.638	3949
929.743	3972
929.848	4086
929.953	4021
930.058	3987
930.163	3816
930.267	3842
930.372	3968
930.477	3838
930.581	4086
930.685	3972
930.79	3865
930.894	3892
930.998	3884
931.103	4059
931.207	3713
931.311	3713
931.415	3656
931.519	3519
931.623	3561
