Data from test_V78500241_782.txt Node
Date: Fri Mar 25 16:54:26 CST 2022
User: usil
Spectrometer: V785-0024
Trigger mode: 0
Integration Time (sec): 4.000000E-1
Scans to average: 1
Nonlinearity correction enabled: false
Boxcar width: 0
Storing dark spectrum: false
XAxis mode: Wavelengths
Number of Pixels in Spectrum: 1024
>>>>>Begin Spectral Data<<<<<
801.071	8001
801.214	8069
801.356	7871
801.499	7917
801.641	7772
801.783	7799
801.926	7909
802.068	7917
802.211	7936
802.353	8001
802.496	7807
802.638	7879
802.78	7860
802.923	7883
803.065	7856
803.208	7830
803.35	7970
803.492	8142
803.635	8138
803.777	7997
803.919	8134
804.061	8389
804.204	8073
804.346	8073
804.488	7993
804.63	8138
804.773	8024
804.915	8043
805.057	8282
805.199	8126
805.341	8183
805.483	8301
805.626	8225
805.768	8115
805.91	8142
806.052	8180
806.194	8107
806.336	8305
806.478	8111
806.62	7997
806.762	8092
806.904	8214
807.046	8476
807.188	8400
807.33	8298
807.472	8317
807.614	8183
807.756	8088
807.898	7947
808.04	7868
808.182	7909
808.324	7894
808.465	7921
808.607	8073
808.749	8123
808.891	8103
809.033	8339
809.174	8221
809.316	8035
809.458	8024
809.6	7944
809.741	8024
809.883	8008
810.025	8077
810.166	8062
810.308	8024
810.45	8012
810.591	7917
810.733	7719
810.875	7685
811.016	7491
811.158	7480
811.299	7567
811.441	7658
811.582	7681
811.724	7529
811.865	7483
812.007	7594
812.148	7552
812.29	7537
812.431	7670
812.573	7799
812.714	7883
812.855	8084
812.997	8138
813.138	8317
813.279	8123
813.421	8043
813.562	8043
813.703	7898
813.845	7750
813.986	7324
814.127	7232
814.268	7194
814.41	7190
814.551	7118
814.692	7156
814.833	6996
814.974	7126
815.115	7099
815.256	6935
815.397	6928
815.539	6939
815.68	6798
815.821	6848
815.962	6818
816.103	6802
816.244	6692
816.385	6566
816.526	6570
816.666	6475
816.807	6289
816.948	6399
817.089	6422
817.23	6429
817.371	6357
817.512	6395
817.653	6399
817.793	6357
817.934	6399
818.075	6490
818.216	6365
818.356	6395
818.497	6220
818.638	6136
818.778	6121
818.919	6152
819.06	6129
819.2	6353
819.341	6258
819.481	6323
819.622	6532
819.762	6715
819.903	6741
820.043	6597
820.184	6559
820.324	6547
820.465	6642
820.605	6681
820.746	6612
820.886	6494
821.026	6654
821.167	6684
821.307	6772
821.447	6787
821.588	6654
821.728	6566
821.868	6460
822.008	6323
822.149	6346
822.289	6331
822.429	6117
822.569	6095
822.709	6087
822.849	5920
822.99	5920
823.13	5958
823.27	5908
823.41	5824
823.55	5779
823.69	5805
823.83	5840
823.97	5657
824.11	5558
824.25	5535
824.389	5589
824.529	5577
824.669	5532
824.809	5646
824.949	5646
825.089	5661
825.228	5646
825.368	5436
825.508	5391
825.648	5334
825.787	5395
825.927	5398
826.067	5372
826.206	5326
826.346	5444
826.485	5429
826.625	5474
826.765	5573
826.904	5532
827.044	5288
827.183	5223
827.323	5159
827.462	5273
827.601	5223
827.741	5246
827.88	5246
828.02	5151
828.159	5265
828.298	5357
828.437	5421
828.577	5330
828.716	5543
828.855	5395
828.994	5231
829.134	5155
829.273	5159
829.412	5208
829.551	5181
829.69	5159
829.829	5307
829.968	5372
830.107	5322
830.246	5353
830.385	5185
830.524	5193
830.663	5121
830.802	5029
830.941	4934
831.08	4904
831.219	5033
831.357	5025
831.496	5162
831.635	4976
831.774	4881
831.913	4877
832.051	4774
832.19	4805
832.329	4839
832.467	4721
832.606	4694
832.744	4774
832.883	4755
833.022	4771
833.16	4793
833.299	4877
833.437	4908
833.576	4850
833.714	4930
833.852	4843
833.991	4953
834.129	5018
834.267	4984
834.406	4946
834.544	4987
834.682	5018
834.821	5006
834.959	5162
835.097	5041
835.235	5220
835.373	5155
835.511	5140
835.65	5071
835.788	5048
835.926	4930
836.064	4946
836.202	4995
836.34	5174
836.478	5284
836.615	5181
836.753	5216
836.891	5311
837.029	5307
837.167	5208
837.305	5201
837.443	5113
837.58	5098
837.718	5326
837.856	5166
837.993	5174
838.131	5250
838.269	5284
838.406	5197
838.544	5181
838.681	5098
838.819	5041
838.956	4961
839.094	4946
839.231	5003
839.369	5083
839.506	5478
839.643	5277
839.781	5075
839.918	5052
840.055	5121
840.193	5140
840.33	5105
840.467	5162
840.604	5223
840.742	5448
840.879	5117
841.016	5113
841.153	5220
841.29	5395
841.427	5368
841.564	5379
841.701	5383
841.838	5326
841.975	5284
842.112	5311
842.249	5151
842.385	5143
842.522	5364
842.659	5178
842.796	5185
842.933	5250
843.069	5166
843.206	5231
843.343	5345
843.479	5212
843.616	5296
843.752	5056
843.889	5003
844.025	5261
844.162	5029
844.298	5239
844.435	5124
844.571	5067
844.708	5261
844.844	5311
844.98	5311
845.117	5254
845.253	5193
845.389	5128
845.525	5239
845.661	5155
845.798	5102
845.934	5140
846.07	5132
846.206	5242
846.342	5337
846.478	5223
846.614	5045
846.75	5003
846.886	4957
847.022	5170
847.158	5064
847.294	5075
847.429	5105
847.565	5083
847.701	5318
847.837	4911
847.972	4843
848.108	5003
848.244	4949
848.379	4820
848.515	4782
848.65	4733
848.786	4748
848.921	4828
849.057	4858
849.192	4866
849.328	4858
849.463	4923
849.598	4831
849.734	4790
849.869	4725
850.004	4626
850.14	4706
850.275	4596
850.41	4592
850.545	4561
850.68	4615
850.815	4641
850.95	4656
851.085	4831
851.22	4752
851.355	4691
851.49	4668
851.625	4645
851.76	4653
851.895	4580
852.03	4531
852.165	4660
852.299	4771
852.434	4786
852.569	4771
852.703	4812
852.838	4896
852.973	4965
853.107	4911
853.242	4778
853.376	4710
853.511	4561
853.645	4645
853.78	4805
853.914	4733
854.048	4710
854.183	4675
854.317	4733
854.451	4915
854.585	4691
854.72	4615
854.854	4752
854.988	4615
855.122	4641
855.256	4573
855.39	4641
855.524	4793
855.658	4744
855.792	4706
855.926	4778
856.06	4714
856.194	4835
856.327	4721
856.461	4622
856.595	4641
856.729	4645
856.862	4793
856.996	4733
857.13	4698
857.263	4767
857.397	4828
857.53	4702
857.664	4763
857.797	4793
857.931	4801
858.064	4744
858.197	4752
858.331	4687
858.464	4634
858.597	4527
858.731	4672
858.864	4649
858.997	4653
859.13	4706
859.263	4653
859.396	4717
859.529	4618
859.662	4611
859.795	4554
859.928	4618
860.061	4782
860.194	4812
860.327	4611
860.46	4561
860.592	4733
860.725	4744
860.858	4790
860.99	4618
861.123	4550
861.256	4565
861.388	4672
861.521	5307
861.653	4512
861.786	4474
861.918	4508
862.05	4516
862.183	4565
862.315	4645
862.447	4653
862.58	4550
862.712	4421
862.844	4337
862.976	4455
863.108	4478
863.24	4892
863.372	4356
863.504	4421
863.636	4390
863.768	4512
863.9	4443
864.032	4432
864.164	4432
864.296	4478
864.428	4538
864.559	4573
864.691	4550
864.823	4493
864.954	4504
865.086	4554
865.217	4447
865.349	4455
865.48	4440
865.612	4493
865.743	4645
865.875	4470
866.006	4394
866.137	4447
866.269	4436
866.4	4443
866.531	4405
866.662	4443
866.793	4466
866.924	4455
867.055	4474
867.186	4481
867.317	4443
867.448	4394
867.579	4390
867.71	4402
867.841	4379
867.972	4489
868.103	4459
868.233	4550
868.364	4451
868.495	4474
868.625	4725
868.756	4778
868.886	4622
869.017	4637
869.147	4778
869.278	4778
869.408	4668
869.539	4634
869.669	4717
869.799	4679
869.929	4790
870.06	4767
870.19	4965
870.32	4915
870.45	4953
870.58	5014
870.71	5079
870.84	5071
870.97	4968
871.1	4923
871.23	5181
871.36	5117
871.489	5079
871.619	5071
871.749	5090
871.879	5132
872.008	5178
872.138	5067
872.267	4999
872.397	4866
872.526	4805
872.656	4763
872.785	4839
872.915	4991
873.044	5071
873.173	4946
873.303	4968
873.432	4991
873.561	4968
873.69	4896
873.819	4908
873.948	4915
874.077	4828
874.206	4778
874.335	4839
874.464	4976
874.593	5014
874.722	4987
874.851	5151
874.979	5067
875.108	5029
875.237	4957
875.365	4911
875.494	4877
875.623	4972
875.751	4847
875.88	4866
876.008	4972
876.136	5060
876.265	5189
876.393	5337
876.521	5273
876.65	5242
876.778	5212
876.906	5045
877.034	5048
877.162	5018
877.29	4999
877.418	5037
877.546	5025
877.674	5052
877.802	5006
877.93	5083
878.058	4957
878.185	4816
878.313	4953
878.441	4965
878.568	4759
878.696	4877
878.824	4953
878.951	4999
879.079	5132
879.206	5284
879.333	5102
879.461	4984
879.588	4968
879.715	5102
879.842	5223
879.97	5048
880.097	4786
880.224	4752
880.351	4839
880.478	4809
880.605	4778
880.732	4812
880.859	5056
880.986	4923
881.112	4923
881.239	4797
881.366	4656
881.493	4630
881.619	4599
881.746	4698
881.872	4656
881.999	4672
882.125	4706
882.252	4831
882.378	4854
882.505	5025
882.631	4812
882.757	4702
882.883	4710
883.01	4752
883.136	4645
883.262	4626
883.388	4630
883.514	4786
883.64	4839
883.766	4805
883.892	4672
884.018	4694
884.143	4923
884.269	5018
884.395	4675
884.52	4607
884.646	4656
884.772	4622
884.897	4554
885.023	4691
885.148	4782
885.274	4885
885.399	4843
885.524	4714
885.65	4668
885.775	4763
885.9	4702
886.025	4854
886.15	4801
886.275	4694
886.4	4694
886.525	4740
886.65	4702
886.775	4740
886.9	4896
887.025	5025
887.149	4850
887.274	4683
887.399	4592
887.523	4561
887.648	4561
887.773	4592
887.897	4782
888.021	4744
888.146	4729
888.27	4778
888.395	4930
888.519	4801
888.643	4824
888.767	4877
888.891	4626
889.015	4592
889.139	4679
889.263	4599
889.387	4797
889.511	4828
889.635	4812
889.759	4683
889.883	4691
890.006	4767
890.13	4797
890.254	4611
890.377	4660
890.501	4531
890.624	4500
890.748	4596
890.871	4580
890.995	4462
891.118	4394
891.241	4569
891.364	4561
891.488	4599
891.611	4493
891.734	4550
891.857	4618
891.98	4569
892.103	4637
892.226	4603
892.349	4489
892.471	4424
892.594	4519
892.717	4546
892.839	4550
892.962	4660
893.085	4664
893.207	4588
893.33	4478
893.452	4546
893.575	4668
893.697	4577
893.819	4797
893.941	4820
894.064	4763
894.186	4596
894.308	4611
894.43	4714
894.552	4858
894.674	4786
894.796	4558
894.918	4611
895.04	4611
895.161	4740
895.283	4683
895.405	4497
895.526	4622
895.648	4672
895.769	4691
895.891	4706
896.012	4755
896.134	4714
896.255	4645
896.376	4653
896.498	4626
896.619	4664
896.74	4626
896.861	4675
896.982	4942
897.103	5033
897.224	4847
897.345	4740
897.466	4634
897.587	4721
897.708	4889
897.828	4721
897.949	4656
898.07	4573
898.19	4622
898.311	4850
898.431	4679
898.552	4736
898.672	4816
898.792	4736
898.913	4786
899.033	4641
899.153	4489
899.273	4462
899.393	4500
899.513	4527
899.633	4531
899.753	4546
899.873	4508
899.993	4527
900.113	4550
900.232	4596
900.352	4565
900.472	4497
900.591	4367
900.711	4500
900.83	4462
900.95	4580
901.069	4664
901.189	4565
901.308	4379
901.427	4322
901.546	4363
901.665	4481
901.784	4508
901.904	4421
902.023	4284
902.141	4219
902.26	4200
902.379	4329
902.498	4257
902.617	4246
902.735	4394
902.854	4379
902.973	4379
903.091	4192
903.21	4242
903.328	4291
903.446	4265
903.565	4261
903.683	4306
903.801	4306
903.919	4379
904.038	4466
904.156	4360
904.274	4409
904.392	4367
904.51	4405
904.627	4455
904.745	4554
904.863	4706
904.981	4375
905.098	4284
905.216	4371
905.334	4428
905.451	4440
905.569	4394
905.686	4535
905.803	4611
905.921	4447
906.038	4542
906.155	4455
906.272	4371
906.389	4459
906.506	4344
906.623	4413
906.74	4417
906.857	4363
906.974	4363
907.091	4504
907.208	4710
907.324	4599
907.441	4493
907.557	4322
907.674	4383
907.79	4337
907.907	4360
908.023	4478
908.139	4470
908.256	4417
908.372	4523
908.488	4462
908.604	4344
908.72	4371
908.836	4417
908.952	4402
909.068	4424
909.184	4565
909.3	4421
909.415	4584
909.531	4615
909.647	4341
909.762	4405
909.878	4341
909.993	4421
910.108	4421
910.224	4402
910.339	4516
910.454	4402
910.57	4383
910.685	4314
910.8	4637
910.915	4618
911.03	4519
911.145	4325
911.259	4367
911.374	4356
911.489	4265
911.604	4295
911.718	4181
911.833	4238
911.947	4093
912.062	4025
912.176	4238
912.291	4215
912.405	4249
912.519	4466
912.633	4474
912.748	4413
912.862	4352
912.976	4181
913.09	4067
913.204	4173
913.318	4276
913.431	4379
913.545	4375
913.659	4383
913.772	4356
913.886	4276
914	4242
914.113	4367
914.226	4421
914.34	4360
914.453	4242
914.566	4451
914.68	4257
914.793	4356
914.906	4158
915.019	4135
915.132	4086
915.245	4143
915.358	4169
915.47	4211
915.583	4280
915.696	4303
915.809	4386
915.921	4413
916.034	4261
916.146	4257
916.259	4211
916.371	4440
916.483	4344
916.595	4257
916.708	4367
916.82	4329
916.932	4314
917.044	4341
917.156	4348
917.268	4280
917.38	4306
917.491	4306
917.603	4344
917.715	4402
917.826	4459
917.938	4299
918.049	4242
918.161	4424
918.272	4504
918.384	4596
918.495	4451
918.606	4322
918.717	4234
918.828	4306
918.939	4394
919.05	4246
919.161	4303
919.272	4143
919.383	4196
919.494	4402
919.604	4641
919.715	4409
919.826	4363
919.936	4390
920.047	4527
920.157	4451
920.267	4698
920.378	4512
920.488	4527
920.598	4630
920.708	4881
920.818	4729
920.928	4763
921.038	4946
921.148	4919
921.258	4637
921.368	4588
921.477	4493
921.587	4489
921.697	4352
921.806	4561
921.916	4394
922.025	4261
922.134	4200
922.244	4185
922.353	4360
922.462	4120
922.571	4093
922.68	3991
922.789	3972
922.898	4055
923.007	3964
923.116	4067
923.224	4101
923.333	4048
923.442	4025
923.55	3975
923.659	4051
923.767	4097
923.876	3998
923.984	4120
924.092	3979
924.201	4044
924.309	4093
924.417	4101
924.525	4059
924.633	4078
924.741	4858
924.849	3945
924.956	4101
925.064	3991
925.172	3896
925.279	3964
925.387	4036
925.494	4044
925.602	4230
925.709	4223
925.816	4048
925.924	4131
926.031	4215
926.138	4177
926.245	4246
926.352	4116
926.459	4223
926.566	4310
926.673	4131
926.779	4078
926.886	4120
926.993	3968
927.099	3941
927.206	3937
927.312	3960
927.419	4071
927.525	4017
927.631	4040
927.737	3960
927.843	3956
927.95	3846
928.056	3960
928.162	3960
928.267	3994
928.373	4649
928.479	4093
928.585	3857
928.69	4013
928.796	4109
928.901	3949
929.007	3880
929.112	4017
929.218	3983
929.323	3915
929.428	3922
929.533	4105
929.638	3945
929.743	3930
929.848	4059
929.953	3987
930.058	3964
930.163	3740
930.267	3835
930.372	3949
930.477	3766
930.581	4105
930.685	3922
930.79	3812
930.894	3888
930.998	3876
931.103	4025
931.207	3728
931.311	3705
931.415	3709
931.519	3507
931.623	3542
