Data from test_V78500241_2214.txt Node
Date: Fri Mar 25 17:04:23 CST 2022
User: usil
Spectrometer: V785-0024
Trigger mode: 0
Integration Time (sec): 4.000000E-1
Scans to average: 1
Nonlinearity correction enabled: false
Boxcar width: 0
Storing dark spectrum: false
XAxis mode: Wavelengths
Number of Pixels in Spectrum: 1024
>>>>>Begin Spectral Data<<<<<
801.071	8058
801.214	7997
801.356	7833
801.499	7841
801.641	7803
801.783	7814
801.926	7986
802.068	7951
802.211	7982
802.353	7997
802.496	7890
802.638	7856
802.78	7940
802.923	7890
803.065	7860
803.208	7788
803.35	7967
803.492	8069
803.635	8180
803.777	8046
803.919	8153
804.061	8408
804.204	8180
804.346	8096
804.488	7970
804.63	8050
804.773	7978
804.915	8088
805.057	8275
805.199	8244
805.341	8210
805.483	8252
805.626	8214
805.768	8138
805.91	8229
806.052	8199
806.194	8084
806.336	8237
806.478	8107
806.62	8088
806.762	8149
806.904	8263
807.046	8450
807.188	8377
807.33	8305
807.472	8267
807.614	8218
807.756	8111
807.898	8001
808.04	7951
808.182	7890
808.324	7887
808.465	7887
808.607	8058
808.749	8126
808.891	8172
809.033	8309
809.174	8199
809.316	8103
809.458	8081
809.6	8016
809.741	8039
809.883	7974
810.025	8103
810.166	8050
810.308	8024
810.45	7947
810.591	7849
810.733	7742
810.875	7658
811.016	7525
811.158	7468
811.299	7571
811.441	7708
811.582	7681
811.724	7514
811.865	7529
812.007	7643
812.148	7559
812.29	7651
812.431	7700
812.573	7845
812.714	8001
812.855	8073
812.997	8111
813.138	8286
813.279	8145
813.421	8130
813.562	7898
813.703	7799
813.845	7708
813.986	7392
814.127	7278
814.268	7198
814.41	7118
814.551	7141
814.692	7160
814.833	7137
814.974	7099
815.115	7072
815.256	6932
815.397	6875
815.539	6958
815.68	6753
815.821	6692
815.962	6825
816.103	6791
816.244	6646
816.385	6601
816.526	6642
816.666	6551
816.807	6327
816.948	6441
817.089	6456
817.23	6426
817.371	6418
817.512	6391
817.653	6365
817.793	6342
817.934	6372
818.075	6502
818.216	6384
818.356	6399
818.497	6270
818.638	6136
818.778	6167
818.919	6117
819.06	6121
819.2	6342
819.341	6319
819.481	6391
819.622	6513
819.762	6741
819.903	6700
820.043	6612
820.184	6585
820.324	6551
820.465	6738
820.605	6669
820.746	6646
820.886	6506
821.026	6669
821.167	6654
821.307	6810
821.447	6760
821.588	6726
821.728	6585
821.868	6547
822.008	6304
822.149	6380
822.289	6388
822.429	6167
822.569	6083
822.709	6121
822.849	5882
822.99	5935
823.13	5920
823.27	5935
823.41	5771
823.55	5733
823.69	5790
823.83	5756
823.97	5695
824.11	5646
824.25	5505
824.389	5501
824.529	5615
824.669	5570
824.809	5668
824.949	5684
825.089	5611
825.228	5562
825.368	5436
825.508	5368
825.648	5337
825.787	5383
825.927	5364
826.067	5315
826.206	5330
826.346	5387
826.485	5398
826.625	5482
826.765	5581
826.904	5501
827.044	5269
827.183	5250
827.323	5162
827.462	5254
827.601	5250
827.741	5250
827.88	5292
828.02	5140
828.159	5239
828.298	5299
828.437	5383
828.577	5296
828.716	5520
828.855	5421
828.994	5147
829.134	5273
829.273	5231
829.412	5178
829.551	5189
829.69	5162
829.829	5284
829.968	5417
830.107	5288
830.246	5288
830.385	5212
830.524	5140
830.663	5090
830.802	5025
830.941	4965
831.08	4896
831.219	4995
831.357	4991
831.496	5231
831.635	4915
831.774	4889
831.913	4934
832.051	4793
832.19	4763
832.329	4850
832.467	4733
832.606	4653
832.744	4771
832.883	4790
833.022	4759
833.16	4816
833.299	4896
833.437	4847
833.576	4904
833.714	4843
833.852	4873
833.991	4930
834.129	5014
834.267	4968
834.406	4927
834.544	5079
834.682	4957
834.821	5029
834.959	5178
835.097	5048
835.235	5212
835.373	5060
835.511	5086
835.65	5075
835.788	5067
835.926	4923
836.064	4900
836.202	4923
836.34	5220
836.478	5250
836.615	5143
836.753	5280
836.891	5315
837.029	5280
837.167	5201
837.305	5181
837.443	5201
837.58	5098
837.718	5299
837.856	5216
837.993	5284
838.131	5261
838.269	5254
838.406	5239
838.544	5181
838.681	5041
838.819	5079
838.956	4915
839.094	4984
839.231	5045
839.369	5136
839.506	5440
839.643	5254
839.781	5098
839.918	5090
840.055	5174
840.193	5174
840.33	5159
840.467	5132
840.604	5223
840.742	5474
840.879	5113
841.016	5128
841.153	5166
841.29	5398
841.427	5387
841.564	5326
841.701	5417
841.838	5288
841.975	5303
842.112	5296
842.249	5197
842.385	5159
842.522	5360
842.659	5216
842.796	5174
842.933	5204
843.069	5159
843.206	5204
843.343	5322
843.479	5239
843.616	5296
843.752	5064
843.889	5029
844.025	5265
844.162	5033
844.298	5231
844.435	5140
844.571	5056
844.708	5231
844.844	5326
844.98	5341
845.117	5353
845.253	5201
845.389	5178
845.525	5197
845.661	5155
845.798	5094
845.934	5128
846.07	5090
846.206	5261
846.342	5315
846.478	5170
846.614	5022
846.75	4946
846.886	4961
847.022	5189
847.158	5041
847.294	5094
847.429	5136
847.565	5086
847.701	5341
847.837	4900
847.972	4816
848.108	4984
848.244	4980
848.379	4824
848.515	4797
848.65	4721
848.786	4786
848.921	4835
849.057	4900
849.192	4911
849.328	4839
849.463	4896
849.598	4862
849.734	4782
849.869	4710
850.004	4649
850.14	4683
850.275	4626
850.41	4592
850.545	4596
850.68	4649
850.815	4645
850.95	4607
851.085	4892
851.22	4759
851.355	4698
851.49	4664
851.625	4649
851.76	4748
851.895	4573
852.03	4565
852.165	4626
852.299	4763
852.434	4786
852.569	4767
852.703	4774
852.838	4831
852.973	4961
853.107	4949
853.242	4774
853.376	4706
853.511	4565
853.645	4645
853.78	4839
853.914	4736
854.048	4668
854.183	4668
854.317	4729
854.451	4927
854.585	4698
854.72	4660
854.854	4831
854.988	4584
855.122	4721
855.256	4584
855.39	4672
855.524	4797
855.658	4763
855.792	4725
855.926	4710
856.06	4797
856.194	4824
856.327	4736
856.461	4656
856.595	4641
856.729	4664
856.862	4755
856.996	4729
857.13	4725
857.263	4763
857.397	4824
857.53	4672
857.664	4771
857.797	4759
857.931	4771
858.064	4664
858.197	4759
858.331	4668
858.464	4653
858.597	4577
858.731	4702
858.864	4637
858.997	4607
859.13	4649
859.263	4744
859.396	4694
859.529	4637
859.662	4596
859.795	4546
859.928	4675
860.061	4767
860.194	4763
860.327	4596
860.46	4561
860.592	4748
860.725	4740
860.858	4736
860.99	4596
861.123	4527
861.256	4569
861.388	4653
861.521	5322
861.653	4493
861.786	4474
861.918	4485
862.05	4546
862.183	4550
862.315	4622
862.447	4660
862.58	4535
862.712	4478
862.844	4405
862.976	4436
863.108	4470
863.24	4790
863.372	4386
863.504	4413
863.636	4436
863.768	4512
863.9	4462
864.032	4402
864.164	4360
864.296	4497
864.428	4569
864.559	4615
864.691	4527
864.823	4580
864.954	4523
865.086	4485
865.217	4493
865.349	4455
865.48	4470
865.612	4531
865.743	4736
865.875	4481
866.006	4432
866.137	4512
866.269	4470
866.4	4451
866.531	4462
866.662	4409
866.793	4405
866.924	4440
867.055	4485
867.186	4462
867.317	4455
867.448	4329
867.579	4459
867.71	4432
867.841	4421
867.972	4493
868.103	4508
868.233	4421
868.364	4493
868.495	4485
868.625	4618
868.756	4805
868.886	4603
869.017	4580
869.147	4809
869.278	4778
869.408	4653
869.539	4653
869.669	4744
869.799	4656
869.929	4702
870.06	4748
870.19	4987
870.32	4968
870.45	4946
870.58	5018
870.71	5124
870.84	5143
870.97	4968
871.1	4946
871.23	5117
871.36	5109
871.489	5064
871.619	5105
871.749	5090
871.879	5155
872.008	5174
872.138	5060
872.267	5003
872.397	4847
872.526	4824
872.656	4736
872.785	4831
872.915	4987
873.044	5029
873.173	4957
873.303	5010
873.432	4999
873.561	4934
873.69	4892
873.819	4839
873.948	4919
874.077	4896
874.206	4748
874.335	4771
874.464	4968
874.593	5071
874.722	5022
874.851	5166
874.979	5060
875.108	5060
875.237	4957
875.365	4927
875.494	4911
875.623	4965
875.751	4862
875.88	4881
876.008	5006
876.136	5048
876.265	5174
876.393	5379
876.521	5265
876.65	5273
876.778	5170
876.906	5124
877.034	5029
877.162	5098
877.29	4957
877.418	5094
877.546	5079
877.674	5048
877.802	5022
877.93	5056
878.058	4984
878.185	4953
878.313	4949
878.441	4980
878.568	4831
878.696	4904
878.824	4991
878.951	5022
879.079	5132
879.206	5296
879.333	5124
879.461	5014
879.588	5079
879.715	5155
879.842	5220
879.97	4999
880.097	4820
880.224	4771
880.351	4778
880.478	4892
880.605	4805
880.732	4820
880.859	5109
880.986	4892
881.112	4915
881.239	4824
881.366	4675
881.493	4645
881.619	4561
881.746	4694
881.872	4710
881.999	4668
882.125	4694
882.252	4809
882.378	4862
882.505	5006
882.631	4786
882.757	4736
882.883	4786
883.01	4698
883.136	4725
883.262	4649
883.388	4603
883.514	4831
883.64	4915
883.766	4782
883.892	4717
884.018	4759
884.143	4904
884.269	5014
884.395	4710
884.52	4603
884.646	4679
884.772	4580
884.897	4546
885.023	4634
885.148	4774
885.274	4873
885.399	4797
885.524	4725
885.65	4694
885.775	4812
885.9	4733
886.025	4854
886.15	4870
886.275	4778
886.4	4702
886.525	4748
886.65	4717
886.775	4725
886.9	4946
887.025	5117
887.149	4831
887.274	4630
887.399	4596
887.523	4607
887.648	4588
887.773	4588
887.897	4759
888.021	4786
888.146	4721
888.27	4824
888.395	4938
888.519	4771
888.643	4797
888.767	4831
888.891	4714
889.015	4573
889.139	4679
889.263	4584
889.387	4793
889.511	4892
889.635	4801
889.759	4599
889.883	4618
890.006	4793
890.13	4843
890.254	4706
890.377	4668
890.501	4607
890.624	4542
890.748	4637
890.871	4508
890.995	4474
891.118	4424
891.241	4531
891.364	4603
891.488	4702
891.611	4497
891.734	4493
891.857	4592
891.98	4554
892.103	4687
892.226	4622
892.349	4527
892.471	4447
892.594	4588
892.717	4603
892.839	4603
892.962	4588
893.085	4649
893.207	4573
893.33	4497
893.452	4531
893.575	4675
893.697	4596
893.819	4820
893.941	4911
894.064	4828
894.186	4622
894.308	4580
894.43	4744
894.552	4820
894.674	4725
894.796	4584
894.918	4546
895.04	4577
895.161	4729
895.283	4626
895.405	4538
895.526	4611
895.648	4649
895.769	4675
895.891	4717
896.012	4782
896.134	4706
896.255	4710
896.376	4622
896.498	4607
896.619	4668
896.74	4596
896.861	4637
896.982	4900
897.103	5045
897.224	4843
897.345	4752
897.466	4664
897.587	4748
897.708	4873
897.828	4801
897.949	4645
898.07	4573
898.19	4630
898.311	4843
898.431	4664
898.552	4755
898.672	4828
898.792	4771
898.913	4771
899.033	4630
899.153	4538
899.273	4443
899.393	4508
899.513	4531
899.633	4538
899.753	4538
899.873	4508
899.993	4622
900.113	4561
900.232	4603
900.352	4512
900.472	4493
900.591	4402
900.711	4531
900.83	4424
900.95	4611
901.069	4668
901.189	4550
901.308	4360
901.427	4367
901.546	4428
901.665	4462
901.784	4516
901.904	4424
902.023	4360
902.141	4173
902.26	4196
902.379	4352
902.498	4242
902.617	4207
902.735	4363
902.854	4386
902.973	4383
903.091	4196
903.21	4238
903.328	4325
903.446	4257
903.565	4268
903.683	4344
903.801	4268
903.919	4390
904.038	4421
904.156	4348
904.274	4459
904.392	4402
904.51	4466
904.627	4500
904.745	4599
904.863	4599
904.981	4405
905.098	4310
905.216	4363
905.334	4455
905.451	4440
905.569	4443
905.686	4577
905.803	4577
905.921	4386
906.038	4584
906.155	4519
906.272	4405
906.389	4443
906.506	4383
906.623	4390
906.74	4390
906.857	4265
906.974	4360
907.091	4615
907.208	4714
907.324	4611
907.441	4485
907.557	4333
907.674	4341
907.79	4333
907.907	4390
908.023	4500
908.139	4474
908.256	4428
908.372	4470
908.488	4462
908.604	4379
908.72	4299
908.836	4402
908.952	4337
909.068	4417
909.184	4565
909.3	4489
909.415	4596
909.531	4569
909.647	4367
909.762	4371
909.878	4375
909.993	4451
910.108	4447
910.224	4379
910.339	4485
910.454	4402
910.57	4352
910.685	4265
910.8	4637
910.915	4592
911.03	4459
911.145	4383
911.259	4363
911.374	4352
911.489	4246
911.604	4314
911.718	4188
911.833	4207
911.947	4074
912.062	4059
912.176	4196
912.291	4261
912.405	4291
912.519	4478
912.633	4519
912.748	4417
912.862	4295
912.976	4169
913.09	4051
913.204	4154
913.318	4261
913.431	4398
913.545	4356
913.659	4451
913.772	4383
913.886	4242
914	4276
914.113	4424
914.226	4451
914.34	4394
914.453	4234
914.566	4409
914.68	4310
914.793	4325
914.906	4154
915.019	4131
915.132	4090
915.245	4158
915.358	4204
915.47	4257
915.583	4268
915.696	4314
915.809	4390
915.921	4459
916.034	4291
916.146	4246
916.259	4238
916.371	4348
916.483	4325
916.595	4234
916.708	4318
916.82	4322
916.932	4348
917.044	4299
917.156	4291
917.268	4268
917.38	4246
917.491	4280
917.603	4409
917.715	4386
917.826	4421
917.938	4371
918.049	4238
918.161	4413
918.272	4573
918.384	4512
918.495	4478
918.606	4291
918.717	4246
918.828	4352
918.939	4363
919.05	4257
919.161	4344
919.272	4135
919.383	4265
919.494	4440
919.604	4649
919.715	4398
919.826	4394
919.936	4428
920.047	4519
920.157	4455
920.267	4691
920.378	4527
920.488	4558
920.598	4683
920.708	4946
920.818	4782
920.928	4767
921.038	4927
921.148	4904
921.258	4649
921.368	4531
921.477	4565
921.587	4459
921.697	4409
921.806	4523
921.916	4409
922.025	4280
922.134	4310
922.244	4234
922.353	4341
922.462	4200
922.571	4135
922.68	4017
922.789	3979
922.898	4082
923.007	4021
923.116	4147
923.224	4082
923.333	4078
923.442	4025
923.55	4002
923.659	4048
923.767	4097
923.876	3983
923.984	4131
924.092	3964
924.201	4086
924.309	4071
924.417	4082
924.525	4082
924.633	4112
924.741	5102
924.849	3922
924.956	4120
925.064	3937
925.172	3865
925.279	3930
925.387	4040
925.494	4059
925.602	4227
925.709	4207
925.816	4010
925.924	4131
926.031	4249
926.138	4166
926.245	4200
926.352	4124
926.459	4291
926.566	4299
926.673	4162
926.779	4067
926.886	4105
926.993	3994
927.099	3983
927.206	3926
927.312	3930
927.419	4029
927.525	4044
927.631	4139
927.737	3998
927.843	4013
927.95	3850
928.056	3964
928.162	3960
928.267	4086
928.373	4698
928.479	4143
928.585	3892
928.69	4010
928.796	4109
928.901	3975
929.007	3854
929.112	4010
929.218	3991
929.323	3987
929.428	3926
929.533	4101
929.638	3880
929.743	3953
929.848	4071
929.953	3964
930.058	3873
930.163	3740
930.267	3827
930.372	3979
930.477	3808
930.581	4051
930.685	3930
930.79	3831
930.894	3899
930.998	3804
931.103	4055
931.207	3728
931.311	3759
931.415	3648
931.519	3519
931.623	3557
