Data from test_V78500241_2256.txt Node
Date: Fri Mar 25 17:04:41 CST 2022
User: usil
Spectrometer: V785-0024
Trigger mode: 0
Integration Time (sec): 4.000000E-1
Scans to average: 1
Nonlinearity correction enabled: false
Boxcar width: 0
Storing dark spectrum: false
XAxis mode: Wavelengths
Number of Pixels in Spectrum: 1024
>>>>>Begin Spectral Data<<<<<
801.071	8008
801.214	8046
801.356	7894
801.499	7928
801.641	7875
801.783	7841
801.926	7993
802.068	7906
802.211	7997
802.353	8024
802.496	7909
802.638	7925
802.78	7841
802.923	7913
803.065	7974
803.208	7887
803.35	7993
803.492	8016
803.635	8161
803.777	8035
803.919	8130
804.061	8537
804.204	8202
804.346	8050
804.488	7955
804.63	8130
804.773	8062
804.915	8092
805.057	8290
805.199	8252
805.341	8275
805.483	8199
805.626	8233
805.768	8183
805.91	8271
806.052	8206
806.194	8126
806.336	8313
806.478	8115
806.62	8111
806.762	8164
806.904	8317
807.046	8522
807.188	8377
807.33	8286
807.472	8366
807.614	8191
807.756	8176
807.898	8058
808.04	7803
808.182	7860
808.324	7833
808.465	7936
808.607	8145
808.749	8157
808.891	8240
809.033	8328
809.174	8271
809.316	8065
809.458	8024
809.6	8050
809.741	8138
809.883	8062
810.025	8069
810.166	8130
810.308	8043
810.45	7982
810.591	7887
810.733	7826
810.875	7742
811.016	7529
811.158	7540
811.299	7605
811.441	7696
811.582	7746
811.724	7601
811.865	7521
812.007	7597
812.148	7643
812.29	7658
812.431	7780
812.573	7871
812.714	7982
812.855	8115
812.997	8259
813.138	8290
813.279	8134
813.421	8024
813.562	7944
813.703	7887
813.845	7799
813.986	7476
814.127	7240
814.268	7266
814.41	7213
814.551	7217
814.692	7206
814.833	7145
814.974	7129
815.115	7179
815.256	6943
815.397	6985
815.539	6951
815.68	6837
815.821	6825
815.962	6859
816.103	6848
816.244	6684
816.385	6669
816.526	6601
816.666	6532
816.807	6308
816.948	6433
817.089	6486
817.23	6528
817.371	6391
817.512	6429
817.653	6388
817.793	6395
817.934	6372
818.075	6471
818.216	6365
818.356	6426
818.497	6254
818.638	6175
818.778	6133
818.919	6201
819.06	6152
819.2	6331
819.341	6426
819.481	6414
819.622	6551
819.762	6776
819.903	6726
820.043	6627
820.184	6528
820.324	6612
820.465	6707
820.605	6726
820.746	6642
820.886	6559
821.026	6673
821.167	6711
821.307	6833
821.447	6810
821.588	6696
821.728	6570
821.868	6498
822.008	6319
822.149	6338
822.289	6369
822.429	6125
822.569	6098
822.709	6190
822.849	5999
822.99	5977
823.13	5950
823.27	5950
823.41	5802
823.55	5790
823.69	5741
823.83	5764
823.97	5653
824.11	5551
824.25	5547
824.389	5581
824.529	5623
824.669	5551
824.809	5642
824.949	5623
825.089	5657
825.228	5577
825.368	5429
825.508	5372
825.648	5364
825.787	5398
825.927	5383
826.067	5387
826.206	5292
826.346	5387
826.485	5436
826.625	5444
826.765	5539
826.904	5463
827.044	5261
827.183	5117
827.323	5128
827.462	5223
827.601	5185
827.741	5128
827.88	5216
828.02	5094
828.159	5254
828.298	5318
828.437	5292
828.577	5223
828.716	5516
828.855	5364
828.994	5147
829.134	5102
829.273	5220
829.412	5159
829.551	5128
829.69	5162
829.829	5265
829.968	5357
830.107	5265
830.246	5299
830.385	5204
830.524	5166
830.663	5147
830.802	5045
830.941	4900
831.08	4923
831.219	5014
831.357	4999
831.496	5147
831.635	4881
831.774	4839
831.913	4858
832.051	4744
832.19	4736
832.329	4854
832.467	4717
832.606	4626
832.744	4714
832.883	4752
833.022	4736
833.16	4824
833.299	4812
833.437	4752
833.576	4828
833.714	4881
833.852	4862
833.991	4889
834.129	4987
834.267	4889
834.406	4885
834.544	5033
834.682	4953
834.821	4984
834.959	5189
835.097	4980
835.235	5201
835.373	5079
835.511	5071
835.65	5052
835.788	5048
835.926	4877
836.064	4911
836.202	4957
836.34	5140
836.478	5231
836.615	5155
836.753	5246
836.891	5326
837.029	5250
837.167	5197
837.305	5162
837.443	5197
837.58	5037
837.718	5277
837.856	5178
837.993	5174
838.131	5216
838.269	5246
838.406	5181
838.544	5227
838.681	5071
838.819	4991
838.956	4987
839.094	4900
839.231	5033
839.369	5037
839.506	5425
839.643	5299
839.781	5094
839.918	5010
840.055	5098
840.193	5102
840.33	5109
840.467	5140
840.604	5193
840.742	5433
840.879	5159
841.016	5113
841.153	5162
841.29	5402
841.427	5364
841.564	5265
841.701	5334
841.838	5239
841.975	5273
842.112	5227
842.249	5136
842.385	5086
842.522	5246
842.659	5147
842.796	5117
842.933	5193
843.069	5151
843.206	5128
843.343	5296
843.479	5284
843.616	5273
843.752	5018
843.889	5003
844.025	5246
844.162	5045
844.298	5261
844.435	5060
844.571	5067
844.708	5170
844.844	5307
844.98	5391
845.117	5284
845.253	5155
845.389	5109
845.525	5155
845.661	5136
845.798	5045
845.934	5094
846.07	5067
846.206	5227
846.342	5254
846.478	5181
846.614	4995
846.75	4957
846.886	4965
847.022	5121
847.158	5041
847.294	5067
847.429	5140
847.565	5060
847.701	5261
847.837	4847
847.972	4812
848.108	4930
848.244	4930
848.379	4812
848.515	4752
848.65	4733
848.786	4755
848.921	4793
849.057	4892
849.192	4870
849.328	4771
849.463	4900
849.598	4793
849.734	4759
849.869	4710
850.004	4607
850.14	4675
850.275	4622
850.41	4497
850.545	4550
850.68	4615
850.815	4649
850.95	4664
851.085	4812
851.22	4759
851.355	4675
851.49	4569
851.625	4588
851.76	4599
851.895	4550
852.03	4516
852.165	4637
852.299	4721
852.434	4839
852.569	4725
852.703	4755
852.838	4790
852.973	4934
853.107	4843
853.242	4714
853.376	4660
853.511	4558
853.645	4634
853.78	4767
853.914	4736
854.048	4694
854.183	4653
854.317	4733
854.451	4862
854.585	4656
854.72	4649
854.854	4729
854.988	4573
855.122	4634
855.256	4531
855.39	4668
855.524	4782
855.658	4771
855.792	4767
855.926	4748
856.06	4778
856.194	4820
856.327	4714
856.461	4622
856.595	4622
856.729	4641
856.862	4752
856.996	4683
857.13	4767
857.263	4771
857.397	4759
857.53	4675
857.664	4752
857.797	4793
857.931	4763
858.064	4698
858.197	4786
858.331	4679
858.464	4607
858.597	4478
858.731	4668
858.864	4649
858.997	4558
859.13	4596
859.263	4679
859.396	4729
859.529	4599
859.662	4554
859.795	4558
859.928	4641
860.061	4748
860.194	4748
860.327	4599
860.46	4584
860.592	4702
860.725	4763
860.858	4729
860.99	4546
861.123	4538
861.256	4504
861.388	4599
861.521	5303
861.653	4485
861.786	4440
861.918	4489
862.05	4512
862.183	4516
862.315	4664
862.447	4653
862.58	4565
862.712	4413
862.844	4344
862.976	4459
863.108	4470
863.24	4866
863.372	4344
863.504	4386
863.636	4409
863.768	4447
863.9	4436
864.032	4390
864.164	4405
864.296	4489
864.428	4542
864.559	4546
864.691	4504
864.823	4573
864.954	4504
865.086	4573
865.217	4478
865.349	4424
865.48	4481
865.612	4504
865.743	4607
865.875	4470
866.006	4443
866.137	4474
866.269	4428
866.4	4398
866.531	4394
866.662	4428
866.793	4432
866.924	4447
867.055	4493
867.186	4455
867.317	4459
867.448	4390
867.579	4436
867.71	4394
867.841	4394
867.972	4428
868.103	4424
868.233	4402
868.364	4402
868.495	4462
868.625	4634
868.756	4744
868.886	4550
869.017	4630
869.147	4805
869.278	4740
869.408	4660
869.539	4596
869.669	4714
869.799	4672
869.929	4797
870.06	4740
870.19	4980
870.32	4877
870.45	4938
870.58	5029
870.71	5086
870.84	5113
870.97	4984
871.1	4911
871.23	5124
871.36	5124
871.489	5041
871.619	5086
871.749	5117
871.879	5052
872.008	5170
872.138	5064
872.267	4934
872.397	4847
872.526	4828
872.656	4733
872.785	4755
872.915	4991
873.044	5067
873.173	4904
873.303	4957
873.432	4976
873.561	4965
873.69	4858
873.819	4850
873.948	4873
874.077	4801
874.206	4736
874.335	4820
874.464	4892
874.593	5056
874.722	4923
874.851	5124
874.979	5102
875.108	5060
875.237	4927
875.365	4900
875.494	4877
875.623	4961
875.751	4854
875.88	4873
876.008	4991
876.136	4999
876.265	5204
876.393	5364
876.521	5258
876.65	5239
876.778	5140
876.906	5109
877.034	5052
877.162	5041
877.29	5010
877.418	5060
877.546	5014
877.674	5003
877.802	5029
877.93	4995
878.058	4923
878.185	4885
878.313	4991
878.441	4953
878.568	4809
878.696	4790
878.824	4911
878.951	5018
879.079	5086
879.206	5307
879.333	5117
879.461	4987
879.588	5014
879.715	5109
879.842	5246
879.97	5022
880.097	4767
880.224	4748
880.351	4820
880.478	4858
880.605	4839
880.732	4820
880.859	5105
880.986	4866
881.112	4919
881.239	4755
881.366	4675
881.493	4607
881.619	4584
881.746	4599
881.872	4687
881.999	4694
882.125	4698
882.252	4744
882.378	4790
882.505	4953
882.631	4790
882.757	4656
882.883	4729
883.01	4748
883.136	4649
883.262	4569
883.388	4622
883.514	4793
883.64	4866
883.766	4828
883.892	4675
884.018	4733
884.143	4900
884.269	4980
884.395	4694
884.52	4645
884.646	4630
884.772	4558
884.897	4580
885.023	4691
885.148	4759
885.274	4824
885.399	4782
885.524	4721
885.65	4744
885.775	4748
885.9	4736
886.025	4824
886.15	4786
886.275	4721
886.4	4656
886.525	4729
886.65	4694
886.775	4717
886.9	4892
887.025	5022
887.149	4816
887.274	4645
887.399	4588
887.523	4603
887.648	4558
887.773	4622
887.897	4752
888.021	4824
888.146	4694
888.27	4805
888.395	4858
888.519	4786
888.643	4862
888.767	4881
888.891	4683
889.015	4622
889.139	4603
889.263	4641
889.387	4755
889.511	4843
889.635	4790
889.759	4626
889.883	4653
890.006	4736
890.13	4873
890.254	4626
890.377	4706
890.501	4527
890.624	4561
890.748	4618
890.871	4516
890.995	4432
891.118	4367
891.241	4485
891.364	4512
891.488	4580
891.611	4531
891.734	4554
891.857	4611
891.98	4577
892.103	4618
892.226	4592
892.349	4516
892.471	4402
892.594	4573
892.717	4573
892.839	4565
892.962	4641
893.085	4653
893.207	4641
893.33	4421
893.452	4516
893.575	4653
893.697	4580
893.819	4774
893.941	4805
894.064	4786
894.186	4546
894.308	4599
894.43	4717
894.552	4767
894.674	4752
894.796	4550
894.918	4668
895.04	4592
895.161	4698
895.283	4675
895.405	4573
895.526	4656
895.648	4706
895.769	4672
895.891	4637
896.012	4740
896.134	4767
896.255	4668
896.376	4672
896.498	4615
896.619	4714
896.74	4607
896.861	4607
896.982	4927
897.103	5113
897.224	4812
897.345	4717
897.466	4641
897.587	4706
897.708	4858
897.828	4786
897.949	4675
898.07	4550
898.19	4630
898.311	4847
898.431	4702
898.552	4714
898.672	4824
898.792	4809
898.913	4771
899.033	4641
899.153	4485
899.273	4417
899.393	4493
899.513	4497
899.633	4565
899.753	4550
899.873	4523
899.993	4558
900.113	4512
900.232	4607
900.352	4527
900.472	4516
900.591	4413
900.711	4478
900.83	4436
900.95	4656
901.069	4656
901.189	4561
901.308	4394
901.427	4314
901.546	4379
901.665	4466
901.784	4481
901.904	4379
902.023	4375
902.141	4196
902.26	4169
902.379	4284
902.498	4238
902.617	4207
902.735	4348
902.854	4421
902.973	4348
903.091	4185
903.21	4223
903.328	4303
903.446	4261
903.565	4234
903.683	4325
903.801	4314
903.919	4356
904.038	4405
904.156	4325
904.274	4363
904.392	4405
904.51	4440
904.627	4481
904.745	4584
904.863	4588
904.981	4375
905.098	4265
905.216	4360
905.334	4409
905.451	4428
905.569	4421
905.686	4527
905.803	4542
905.921	4447
906.038	4550
906.155	4462
906.272	4402
906.389	4440
906.506	4333
906.623	4367
906.74	4398
906.857	4287
906.974	4386
907.091	4558
907.208	4664
907.324	4580
907.441	4519
907.557	4322
907.674	4363
907.79	4318
907.907	4360
908.023	4474
908.139	4443
908.256	4459
908.372	4459
908.488	4447
908.604	4318
908.72	4276
908.836	4310
908.952	4386
909.068	4371
909.184	4626
909.3	4455
909.415	4615
909.531	4577
909.647	4341
909.762	4383
909.878	4341
909.993	4443
910.108	4390
910.224	4375
910.339	4459
910.454	4394
910.57	4329
910.685	4265
910.8	4645
910.915	4565
911.03	4500
911.145	4295
911.259	4360
911.374	4360
911.489	4325
911.604	4276
911.718	4185
911.833	4223
911.947	4093
912.062	3998
912.176	4207
912.291	4215
912.405	4211
912.519	4451
912.633	4462
912.748	4394
912.862	4325
912.976	4192
913.09	4055
913.204	4196
913.318	4268
913.431	4379
913.545	4383
913.659	4432
913.772	4310
913.886	4227
914	4207
914.113	4367
914.226	4451
914.34	4386
914.453	4246
914.566	4485
914.68	4303
914.793	4276
914.906	4188
915.019	4135
915.132	4101
915.245	4150
915.358	4238
915.47	4204
915.583	4268
915.696	4253
915.809	4413
915.921	4386
916.034	4257
916.146	4219
916.259	4227
916.371	4360
916.483	4367
916.595	4272
916.708	4310
916.82	4291
916.932	4291
917.044	4348
917.156	4367
917.268	4219
917.38	4249
917.491	4204
917.603	4329
917.715	4398
917.826	4440
917.938	4352
918.049	4242
918.161	4360
918.272	4516
918.384	4546
918.495	4443
918.606	4303
918.717	4223
918.828	4344
918.939	4375
919.05	4257
919.161	4306
919.272	4097
919.383	4200
919.494	4421
919.604	4577
919.715	4413
919.826	4325
919.936	4375
920.047	4546
920.157	4443
920.267	4691
920.378	4542
920.488	4500
920.598	4729
920.708	4835
920.818	4702
920.928	4706
921.038	4911
921.148	4923
921.258	4584
921.368	4592
921.477	4508
921.587	4421
921.697	4394
921.806	4527
921.916	4455
922.025	4257
922.134	4261
922.244	4169
922.353	4318
922.462	4200
922.571	4112
922.68	3979
922.789	3956
922.898	3987
923.007	3983
923.116	4082
923.224	4036
923.333	4051
923.442	4021
923.55	4006
923.659	4006
923.767	4109
923.876	3987
923.984	4090
924.092	4010
924.201	4032
924.309	4067
924.417	4128
924.525	4093
924.633	4120
924.741	5033
924.849	3903
924.956	4135
925.064	3979
925.172	3911
925.279	3968
925.387	4055
925.494	4021
925.602	4162
925.709	4139
925.816	4002
925.924	4154
926.031	4207
926.138	4147
926.245	4234
926.352	4112
926.459	4265
926.566	4280
926.673	4196
926.779	4063
926.886	4105
926.993	4002
927.099	3945
927.206	3907
927.312	3941
927.419	4048
927.525	4044
927.631	4097
927.737	3941
927.843	3960
927.95	3854
928.056	3956
928.162	3964
928.267	4074
928.373	4668
928.479	4097
928.585	3903
928.69	4071
928.796	4067
928.901	3983
929.007	3850
929.112	4006
929.218	3983
929.323	3949
929.428	3937
929.533	4086
929.638	3926
929.743	3941
929.848	4029
929.953	4006
930.058	3953
930.163	3755
930.267	3793
930.372	3979
930.477	3816
930.581	4097
930.685	3956
930.79	3816
930.894	3857
930.998	3850
931.103	4021
931.207	3736
931.311	3690
931.415	3667
931.519	3526
931.623	3545
