Data from test_V78500241_1377.txt Node
Date: Fri Mar 25 16:58:34 CST 2022
User: usil
Spectrometer: V785-0024
Trigger mode: 0
Integration Time (sec): 4.000000E-1
Scans to average: 1
Nonlinearity correction enabled: false
Boxcar width: 0
Storing dark spectrum: false
XAxis mode: Wavelengths
Number of Pixels in Spectrum: 1024
>>>>>Begin Spectral Data<<<<<
801.071	8081
801.214	8058
801.356	7932
801.499	7921
801.641	7856
801.783	7860
801.926	8046
802.068	7989
802.211	8081
802.353	8031
802.496	7879
802.638	7944
802.78	7932
802.923	7928
803.065	7890
803.208	7856
803.35	7986
803.492	8107
803.635	8199
803.777	8073
803.919	8161
804.061	8522
804.204	8199
804.346	8107
804.488	8031
804.63	8073
804.773	8046
804.915	8130
805.057	8362
805.199	8168
805.341	8263
805.483	8362
805.626	8176
805.768	8187
805.91	8180
806.052	8271
806.194	8123
806.336	8294
806.478	8130
806.62	8092
806.762	8172
806.904	8271
807.046	8495
807.188	8358
807.33	8358
807.472	8351
807.614	8240
807.756	8111
807.898	7997
808.04	7936
808.182	7913
808.324	7925
808.465	7925
808.607	8054
808.749	8210
808.891	8233
809.033	8389
809.174	8259
809.316	8115
809.458	8062
809.6	8024
809.741	8058
809.883	7993
810.025	8081
810.166	8077
810.308	8100
810.45	8020
810.591	7963
810.733	7727
810.875	7696
811.016	7548
811.158	7533
811.299	7677
811.441	7765
811.582	7799
811.724	7594
811.865	7502
812.007	7620
812.148	7567
812.29	7639
812.431	7780
812.573	7906
812.714	7932
812.855	8153
812.997	8218
813.138	8328
813.279	8252
813.421	8164
813.562	8020
813.703	7852
813.845	7811
813.986	7430
814.127	7297
814.268	7194
814.41	7225
814.551	7198
814.692	7225
814.833	7137
814.974	7114
815.115	7160
815.256	6989
815.397	6947
815.539	6901
815.68	6783
815.821	6844
815.962	6867
816.103	6878
816.244	6673
816.385	6597
816.526	6639
816.666	6555
816.807	6281
816.948	6479
817.089	6532
817.23	6418
817.371	6433
817.512	6414
817.653	6403
817.793	6422
817.934	6479
818.075	6490
818.216	6467
818.356	6456
818.497	6323
818.638	6144
818.778	6152
818.919	6129
819.06	6148
819.2	6395
819.341	6285
819.481	6407
819.622	6563
819.762	6764
819.903	6734
820.043	6585
820.184	6604
820.324	6642
820.465	6749
820.605	6662
820.746	6719
820.886	6570
821.026	6658
821.167	6757
821.307	6787
821.447	6806
821.588	6707
821.728	6642
821.868	6494
822.008	6357
822.149	6372
822.289	6365
822.429	6197
822.569	6117
822.709	6159
822.849	5942
822.99	5916
823.13	5889
823.27	5844
823.41	5798
823.55	5859
823.69	5783
823.83	5790
823.97	5661
824.11	5512
824.25	5539
824.389	5554
824.529	5611
824.669	5581
824.809	5627
824.949	5653
825.089	5611
825.228	5505
825.368	5360
825.508	5379
825.648	5337
825.787	5379
825.927	5364
826.067	5315
826.206	5311
826.346	5448
826.485	5417
826.625	5467
826.765	5573
826.904	5471
827.044	5284
827.183	5227
827.323	5147
827.462	5235
827.601	5197
827.741	5204
827.88	5208
828.02	5124
828.159	5246
828.298	5337
828.437	5341
828.577	5299
828.716	5497
828.855	5357
828.994	5197
829.134	5170
829.273	5185
829.412	5166
829.551	5174
829.69	5136
829.829	5208
829.968	5398
830.107	5280
830.246	5318
830.385	5185
830.524	5109
830.663	5067
830.802	4961
830.941	4870
831.08	4908
831.219	4991
831.357	4984
831.496	5170
831.635	5003
831.774	4854
831.913	4850
832.051	4717
832.19	4801
832.329	4858
832.467	4721
832.606	4618
832.744	4710
832.883	4763
833.022	4752
833.16	4809
833.299	4854
833.437	4858
833.576	4892
833.714	4843
833.852	4908
833.991	4904
834.129	4949
834.267	4984
834.406	4946
834.544	4927
834.682	4972
834.821	4949
834.959	5197
835.097	5003
835.235	5117
835.373	5113
835.511	5105
835.65	5064
835.788	5067
835.926	4908
836.064	4938
836.202	4885
836.34	5181
836.478	5242
836.615	5136
836.753	5254
836.891	5284
837.029	5269
837.167	5174
837.305	5166
837.443	5155
837.58	5113
837.718	5254
837.856	5235
837.993	5147
838.131	5231
838.269	5250
838.406	5220
838.544	5212
838.681	5033
838.819	5018
838.956	4896
839.094	4873
839.231	4961
839.369	5071
839.506	5440
839.643	5223
839.781	5121
839.918	4987
840.055	5147
840.193	5071
840.33	5083
840.467	5159
840.604	5189
840.742	5444
840.879	5102
841.016	5098
841.153	5159
841.29	5368
841.427	5391
841.564	5311
841.701	5326
841.838	5311
841.975	5250
842.112	5220
842.249	5162
842.385	5071
842.522	5330
842.659	5143
842.796	5132
842.933	5227
843.069	5159
843.206	5181
843.343	5288
843.479	5239
843.616	5239
843.752	5022
843.889	5022
844.025	5201
844.162	5025
844.298	5181
844.435	5143
844.571	5048
844.708	5197
844.844	5303
844.98	5322
845.117	5269
845.253	5117
845.389	5083
845.525	5143
845.661	5166
845.798	5037
845.934	5121
846.07	5033
846.206	5174
846.342	5261
846.478	5265
846.614	5037
846.75	4991
846.886	4923
847.022	5113
847.158	5048
847.294	5086
847.429	5086
847.565	5033
847.701	5326
847.837	4854
847.972	4801
848.108	4949
848.244	4961
848.379	4744
848.515	4759
848.65	4710
848.786	4744
848.921	4767
849.057	4843
849.192	4862
849.328	4854
849.463	4881
849.598	4839
849.734	4755
849.869	4767
850.004	4656
850.14	4668
850.275	4565
850.41	4508
850.545	4542
850.68	4653
850.815	4637
850.95	4596
851.085	4805
851.22	4801
851.355	4683
851.49	4615
851.625	4641
851.76	4645
851.895	4550
852.03	4550
852.165	4637
852.299	4725
852.434	4778
852.569	4786
852.703	4767
852.838	4881
852.973	4972
853.107	4957
853.242	4721
853.376	4668
853.511	4538
853.645	4611
853.78	4797
853.914	4717
854.048	4668
854.183	4675
854.317	4725
854.451	4858
854.585	4672
854.72	4656
854.854	4782
854.988	4569
855.122	4607
855.256	4489
855.39	4698
855.524	4782
855.658	4740
855.792	4702
855.926	4748
856.06	4771
856.194	4820
856.327	4691
856.461	4634
856.595	4615
856.729	4596
856.862	4767
856.996	4687
857.13	4687
857.263	4759
857.397	4793
857.53	4649
857.664	4748
857.797	4729
857.931	4801
858.064	4672
858.197	4721
858.331	4694
858.464	4596
858.597	4584
858.731	4656
858.864	4630
858.997	4637
859.13	4672
859.263	4683
859.396	4706
859.529	4584
859.662	4596
859.795	4523
859.928	4641
860.061	4717
860.194	4816
860.327	4596
860.46	4584
860.592	4660
860.725	4729
860.858	4736
860.99	4554
861.123	4535
861.256	4538
861.388	4634
861.521	5436
861.653	4428
861.786	4470
861.918	4443
862.05	4470
862.183	4599
862.315	4558
862.447	4649
862.58	4580
862.712	4398
862.844	4306
862.976	4531
863.108	4459
863.24	4957
863.372	4295
863.504	4394
863.636	4436
863.768	4462
863.9	4443
864.032	4348
864.164	4432
864.296	4481
864.428	4577
864.559	4497
864.691	4554
864.823	4546
864.954	4493
865.086	4535
865.217	4497
865.349	4421
865.48	4493
865.612	4542
865.743	4637
865.875	4519
866.006	4428
866.137	4451
866.269	4386
866.4	4466
866.531	4451
866.662	4383
866.793	4421
866.924	4424
867.055	4580
867.186	4447
867.317	4459
867.448	4398
867.579	4405
867.71	4413
867.841	4390
867.972	4500
868.103	4497
868.233	4462
868.364	4409
868.495	4455
868.625	4679
868.756	4721
868.886	4573
869.017	4641
869.147	4736
869.278	4809
869.408	4706
869.539	4630
869.669	4717
869.799	4641
869.929	4786
870.06	4755
870.19	4946
870.32	4889
870.45	4927
870.58	4972
870.71	5048
870.84	5094
870.97	4984
871.1	4965
871.23	5105
871.36	5079
871.489	4965
871.619	5045
871.749	5132
871.879	5159
872.008	5143
872.138	5060
872.267	4991
872.397	4828
872.526	4812
872.656	4748
872.785	4820
872.915	4942
873.044	5045
873.173	4946
873.303	4961
873.432	4934
873.561	5006
873.69	4911
873.819	4870
873.948	4923
874.077	4824
874.206	4744
874.335	4793
874.464	4995
874.593	4972
874.722	4953
874.851	5064
874.979	5071
875.108	4984
875.237	4938
875.365	4820
875.494	4946
875.623	4965
875.751	4839
875.88	4900
876.008	5006
876.136	5006
876.265	5162
876.393	5353
876.521	5254
876.65	5242
876.778	5189
876.906	5048
877.034	5056
877.162	5071
877.29	4987
877.418	5003
877.546	5067
877.674	5033
877.802	5010
877.93	5014
878.058	4942
878.185	4877
878.313	4953
878.441	4919
878.568	4835
878.696	4900
878.824	4904
878.951	4972
879.079	5136
879.206	5318
879.333	5117
879.461	4976
879.588	5045
879.715	5105
879.842	5208
879.97	4980
880.097	4782
880.224	4755
880.351	4733
880.478	4820
880.605	4828
880.732	4797
880.859	5124
880.986	4858
881.112	4896
881.239	4759
881.366	4641
881.493	4622
881.619	4592
881.746	4664
881.872	4672
881.999	4660
882.125	4679
882.252	4820
882.378	4892
882.505	4934
882.631	4763
882.757	4660
882.883	4698
883.01	4702
883.136	4660
883.262	4615
883.388	4645
883.514	4812
883.64	4866
883.766	4793
883.892	4691
884.018	4698
884.143	4847
884.269	4991
884.395	4634
884.52	4573
884.646	4672
884.772	4622
884.897	4535
885.023	4687
885.148	4774
885.274	4835
885.399	4831
885.524	4687
885.65	4691
885.775	4778
885.9	4691
886.025	4843
886.15	4828
886.275	4691
886.4	4607
886.525	4729
886.65	4668
886.775	4698
886.9	4908
887.025	5022
887.149	4767
887.274	4634
887.399	4538
887.523	4615
887.648	4573
887.773	4592
887.897	4771
888.021	4782
888.146	4626
888.27	4831
888.395	4889
888.519	4778
888.643	4797
888.767	4847
888.891	4683
889.015	4558
889.139	4664
889.263	4603
889.387	4710
889.511	4889
889.635	4809
889.759	4630
889.883	4622
890.006	4714
890.13	4820
890.254	4588
890.377	4634
890.501	4561
890.624	4546
890.748	4626
890.871	4500
890.995	4459
891.118	4363
891.241	4512
891.364	4516
891.488	4634
891.611	4493
891.734	4546
891.857	4660
891.98	4546
892.103	4645
892.226	4577
892.349	4443
892.471	4443
892.594	4546
892.717	4565
892.839	4558
892.962	4542
893.085	4660
893.207	4626
893.33	4436
893.452	4538
893.575	4660
893.697	4558
893.819	4786
893.941	4850
894.064	4763
894.186	4634
894.308	4596
894.43	4725
894.552	4790
894.674	4778
894.796	4512
894.918	4584
895.04	4569
895.161	4675
895.283	4698
895.405	4558
895.526	4630
895.648	4710
895.769	4668
895.891	4714
896.012	4668
896.134	4721
896.255	4706
896.376	4599
896.498	4603
896.619	4641
896.74	4607
896.861	4656
896.982	4915
897.103	5048
897.224	4805
897.345	4748
897.466	4645
897.587	4733
897.708	4847
897.828	4736
897.949	4687
898.07	4523
898.19	4584
898.311	4870
898.431	4615
898.552	4710
898.672	4820
898.792	4782
898.913	4748
899.033	4611
899.153	4493
899.273	4405
899.393	4440
899.513	4546
899.633	4531
899.753	4558
899.873	4474
899.993	4554
900.113	4535
900.232	4531
900.352	4550
900.472	4478
900.591	4417
900.711	4493
900.83	4394
900.95	4615
901.069	4668
901.189	4550
901.308	4367
901.427	4272
901.546	4352
901.665	4481
901.784	4474
901.904	4375
902.023	4325
902.141	4120
902.26	4166
902.379	4337
902.498	4196
902.617	4265
902.735	4394
902.854	4417
902.973	4379
903.091	4188
903.21	4215
903.328	4306
903.446	4219
903.565	4276
903.683	4398
903.801	4234
903.919	4424
904.038	4451
904.156	4318
904.274	4443
904.392	4417
904.51	4424
904.627	4447
904.745	4554
904.863	4611
904.981	4367
905.098	4337
905.216	4371
905.334	4413
905.451	4402
905.569	4417
905.686	4546
905.803	4538
905.921	4424
906.038	4535
906.155	4470
906.272	4421
906.389	4485
906.506	4356
906.623	4363
906.74	4402
906.857	4284
906.974	4402
907.091	4580
907.208	4683
907.324	4550
907.441	4485
907.557	4333
907.674	4329
907.79	4333
907.907	4390
908.023	4489
908.139	4455
908.256	4421
908.372	4440
908.488	4424
908.604	4329
908.72	4352
908.836	4356
908.952	4341
909.068	4356
909.184	4531
909.3	4504
909.415	4584
909.531	4527
909.647	4306
909.762	4371
909.878	4341
909.993	4443
910.108	4386
910.224	4402
910.339	4455
910.454	4409
910.57	4367
910.685	4299
910.8	4645
910.915	4577
911.03	4512
911.145	4329
911.259	4287
911.374	4390
911.489	4310
911.604	4227
911.718	4147
911.833	4207
911.947	4071
912.062	4048
912.176	4215
912.291	4238
912.405	4234
912.519	4440
912.633	4508
912.748	4356
912.862	4306
912.976	4219
913.09	4105
913.204	4154
913.318	4257
913.431	4356
913.545	4348
913.659	4428
913.772	4325
913.886	4173
914	4223
914.113	4383
914.226	4424
914.34	4432
914.453	4207
914.566	4443
914.68	4295
914.793	4291
914.906	4215
915.019	4143
915.132	4063
915.245	4158
915.358	4253
915.47	4276
915.583	4253
915.696	4280
915.809	4390
915.921	4394
916.034	4215
916.146	4253
916.259	4181
916.371	4402
916.483	4344
916.595	4215
916.708	4310
916.82	4257
916.932	4318
917.044	4314
917.156	4322
917.268	4234
917.38	4261
917.491	4219
917.603	4352
917.715	4428
917.826	4470
917.938	4322
918.049	4207
918.161	4344
918.272	4519
918.384	4516
918.495	4447
918.606	4318
918.717	4246
918.828	4329
918.939	4398
919.05	4246
919.161	4329
919.272	4154
919.383	4219
919.494	4428
919.604	4596
919.715	4443
919.826	4363
919.936	4375
920.047	4519
920.157	4459
920.267	4645
920.378	4584
920.488	4489
920.598	4691
920.708	4847
920.818	4763
920.928	4763
921.038	4889
921.148	4904
921.258	4637
921.368	4531
921.477	4455
921.587	4421
921.697	4379
921.806	4516
921.916	4432
922.025	4234
922.134	4230
922.244	4211
922.353	4306
922.462	4150
922.571	4124
922.68	4029
922.789	3964
922.898	4055
923.007	3968
923.116	4097
923.224	4067
923.333	4078
923.442	3987
923.55	3968
923.659	4017
923.767	4086
923.876	4010
923.984	4090
924.092	3979
924.201	4090
924.309	4059
924.417	4135
924.525	4044
924.633	4143
924.741	5003
924.849	3899
924.956	4105
925.064	3987
925.172	3903
925.279	3930
925.387	4051
925.494	4093
925.602	4185
925.709	4185
925.816	4055
925.924	4131
926.031	4257
926.138	4120
926.245	4169
926.352	4071
926.459	4268
926.566	4257
926.673	4200
926.779	4036
926.886	4074
926.993	3964
927.099	3926
927.206	3918
927.312	3937
927.419	4040
927.525	4013
927.631	4093
927.737	3953
927.843	3941
927.95	3865
928.056	3987
928.162	4029
928.267	4074
928.373	4641
928.479	4055
928.585	3857
928.69	4002
928.796	4055
928.901	3930
929.007	3808
929.112	3991
929.218	3964
929.323	3911
929.428	3930
929.533	4109
929.638	3884
929.743	3964
929.848	4090
929.953	3968
930.058	3903
930.163	3743
930.267	3835
930.372	4017
930.477	3808
930.581	4101
930.685	3983
930.79	3789
930.894	3869
930.998	3827
931.103	4078
931.207	3732
931.311	3717
931.415	3648
931.519	3488
931.623	3542
