Data from test_V78500241_14.txt Node
Date: Fri Mar 25 16:49:06 CST 2022
User: usil
Spectrometer: V785-0024
Trigger mode: 0
Integration Time (sec): 4.000000E-1
Scans to average: 1
Nonlinearity correction enabled: false
Boxcar width: 0
Storing dark spectrum: false
XAxis mode: Wavelengths
Number of Pixels in Spectrum: 1024
>>>>>Begin Spectral Data<<<<<
801.071	8096
801.214	8103
801.356	7955
801.499	7951
801.641	7894
801.783	7841
801.926	8046
802.068	8005
802.211	8088
802.353	8073
802.496	8050
802.638	8062
802.78	7989
802.923	7978
803.065	7875
803.208	7936
803.35	8027
803.492	8145
803.635	8145
803.777	7974
803.919	8229
804.061	8454
804.204	8275
804.346	8073
804.488	8073
804.63	8149
804.773	8016
804.915	8138
805.057	8317
805.199	8210
805.341	8301
805.483	8381
805.626	8252
805.768	8225
805.91	8244
806.052	8320
806.194	8164
806.336	8324
806.478	8168
806.62	8138
806.762	8168
806.904	8389
807.046	8480
807.188	8431
807.33	8370
807.472	8324
807.614	8233
807.756	8149
807.898	8054
808.04	7936
808.182	7947
808.324	7925
808.465	7974
808.607	8069
808.749	8187
808.891	8256
809.033	8377
809.174	8218
809.316	8043
809.458	8130
809.6	8043
809.741	8024
809.883	8077
810.025	8202
810.166	8172
810.308	8062
810.45	8145
810.591	7921
810.733	7826
810.875	7761
811.016	7616
811.158	7540
811.299	7753
811.441	7883
811.582	7799
811.724	7643
811.865	7582
812.007	7700
812.148	7658
812.29	7757
812.431	7811
812.573	8027
812.714	8073
812.855	8130
812.997	8252
813.138	8423
813.279	8153
813.421	8263
813.562	8054
813.703	7978
813.845	7811
813.986	7567
814.127	7350
814.268	7324
814.41	7240
814.551	7289
814.692	7270
814.833	7152
814.974	7175
815.115	7160
815.256	7034
815.397	6970
815.539	7015
815.68	6901
815.821	6768
815.962	6890
816.103	6905
816.244	6791
816.385	6700
816.526	6700
816.666	6604
816.807	6399
816.948	6509
817.089	6536
817.23	6521
817.371	6429
817.512	6513
817.653	6483
817.793	6384
817.934	6528
818.075	6521
818.216	6494
818.356	6490
818.497	6334
818.638	6182
818.778	6277
818.919	6190
819.06	6205
819.2	6395
819.341	6384
819.481	6418
819.622	6593
819.762	6825
819.903	6802
820.043	6597
820.184	6715
820.324	6673
820.465	6757
820.605	6707
820.746	6753
820.886	6623
821.026	6757
821.167	6764
821.307	6913
821.447	6837
821.588	6741
821.728	6627
821.868	6589
822.008	6467
822.149	6429
822.289	6395
822.429	6209
822.569	6167
822.709	6209
822.849	6015
822.99	6011
823.13	5942
823.27	5999
823.41	5847
823.55	5790
823.69	5855
823.83	5901
823.97	5783
824.11	5581
824.25	5608
824.389	5649
824.529	5691
824.669	5573
824.809	5707
824.949	5729
825.089	5726
825.228	5630
825.368	5493
825.508	5436
825.648	5429
825.787	5452
825.927	5436
826.067	5337
826.206	5360
826.346	5444
826.485	5455
826.625	5478
826.765	5661
826.904	5505
827.044	5307
827.183	5227
827.323	5166
827.462	5326
827.601	5227
827.741	5299
827.88	5357
828.02	5193
828.159	5337
828.298	5379
828.437	5467
828.577	5391
828.716	5543
828.855	5337
828.994	5208
829.134	5280
829.273	5216
829.412	5212
829.551	5292
829.69	5239
829.829	5303
829.968	5425
830.107	5341
830.246	5402
830.385	5212
830.524	5166
830.663	5151
830.802	5064
830.941	4904
831.08	4942
831.219	5079
831.357	5025
831.496	5258
831.635	4953
831.774	4934
831.913	4946
832.051	4812
832.19	4790
832.329	4934
832.467	4782
832.606	4694
832.744	4767
832.883	4816
833.022	4793
833.16	4839
833.299	4896
833.437	4923
833.576	4877
833.714	4930
833.852	4984
833.991	4980
834.129	5075
834.267	5025
834.406	4995
834.544	5064
834.682	5048
834.821	5014
834.959	5254
835.097	5041
835.235	5189
835.373	5208
835.511	5189
835.65	5105
835.788	5090
835.926	4976
836.064	4919
836.202	4942
836.34	5212
836.478	5288
836.615	5204
836.753	5296
836.891	5334
837.029	5334
837.167	5273
837.305	5235
837.443	5197
837.58	5117
837.718	5376
837.856	5292
837.993	5220
838.131	5269
838.269	5277
838.406	5284
838.544	5269
838.681	5132
838.819	5117
838.956	4999
839.094	5029
839.231	5029
839.369	5201
839.506	5486
839.643	5315
839.781	5140
839.918	5102
840.055	5121
840.193	5147
840.33	5227
840.467	5261
840.604	5235
840.742	5501
840.879	5155
841.016	5136
841.153	5193
841.29	5414
841.427	5360
841.564	5395
841.701	5417
841.838	5353
841.975	5303
842.112	5349
842.249	5201
842.385	5159
842.522	5406
842.659	5269
842.796	5201
842.933	5208
843.069	5204
843.206	5235
843.343	5372
843.479	5250
843.616	5364
843.752	5102
843.889	5098
844.025	5307
844.162	5094
844.298	5246
844.435	5140
844.571	5140
844.708	5288
844.844	5368
844.98	5410
845.117	5417
845.253	5216
845.389	5162
845.525	5220
845.661	5193
845.798	5124
845.934	5227
846.07	5052
846.206	5258
846.342	5334
846.478	5220
846.614	5064
846.75	5060
846.886	4991
847.022	5197
847.158	5071
847.294	5159
847.429	5197
847.565	5083
847.701	5383
847.837	4919
847.972	4877
848.108	5033
848.244	5022
848.379	4877
848.515	4820
848.65	4752
848.786	4828
848.921	4858
849.057	4946
849.192	4949
849.328	4892
849.463	4885
849.598	4877
849.734	4801
849.869	4763
850.004	4653
850.14	4790
850.275	4687
850.41	4546
850.545	4592
850.68	4702
850.815	4653
850.95	4668
851.085	4892
851.22	4816
851.355	4752
851.49	4668
851.625	4706
851.76	4698
851.895	4611
852.03	4645
852.165	4736
852.299	4759
852.434	4877
852.569	4805
852.703	4812
852.838	4881
852.973	5052
853.107	4961
853.242	4820
853.376	4740
853.511	4622
853.645	4687
853.78	4839
853.914	4755
854.048	4740
854.183	4698
854.317	4721
854.451	5003
854.585	4729
854.72	4694
854.854	4801
854.988	4668
855.122	4706
855.256	4622
855.39	4744
855.524	4843
855.658	4801
855.792	4744
855.926	4782
856.06	4812
856.194	4896
856.327	4706
856.461	4702
856.595	4694
856.729	4706
856.862	4828
856.996	4771
857.13	4801
857.263	4820
857.397	4797
857.53	4717
857.664	4755
857.797	4850
857.931	4847
858.064	4759
858.197	4847
858.331	4736
858.464	4656
858.597	4554
858.731	4645
858.864	4698
858.997	4645
859.13	4736
859.263	4729
859.396	4797
859.529	4675
859.662	4649
859.795	4569
859.928	4672
860.061	4824
860.194	4873
860.327	4668
860.46	4653
860.592	4778
860.725	4767
860.858	4790
860.99	4634
861.123	4588
861.256	4561
861.388	4710
861.521	5436
861.653	4580
861.786	4504
861.918	4550
862.05	4565
862.183	4611
862.315	4645
862.447	4740
862.58	4611
862.712	4436
862.844	4363
862.976	4538
863.108	4573
863.24	4919
863.372	4413
863.504	4466
863.636	4462
863.768	4527
863.9	4451
864.032	4474
864.164	4455
864.296	4542
864.428	4577
864.559	4603
864.691	4641
864.823	4523
864.954	4527
865.086	4565
865.217	4500
865.349	4504
865.48	4493
865.612	4573
865.743	4691
865.875	4535
866.006	4508
866.137	4478
866.269	4485
866.4	4466
866.531	4493
866.662	4459
866.793	4462
866.924	4470
867.055	4538
867.186	4535
867.317	4447
867.448	4462
867.579	4428
867.71	4466
867.841	4405
867.972	4504
868.103	4485
868.233	4481
868.364	4519
868.495	4519
868.625	4733
868.756	4759
868.886	4630
869.017	4691
869.147	4786
869.278	4793
869.408	4717
869.539	4729
869.669	4755
869.799	4691
869.929	4812
870.06	4717
870.19	5025
870.32	4987
870.45	4972
870.58	5109
870.71	5170
870.84	5117
870.97	4946
871.1	4953
871.23	5216
871.36	5151
871.489	5048
871.619	5159
871.749	5178
871.879	5201
872.008	5246
872.138	5098
872.267	5022
872.397	4908
872.526	4877
872.656	4740
872.785	4873
872.915	4984
873.044	5086
873.173	4938
873.303	5075
873.432	5003
873.561	4999
873.69	4949
873.819	4930
873.948	4953
874.077	4854
874.206	4774
874.335	4843
874.464	4961
874.593	5204
874.722	4965
874.851	5159
874.979	5132
875.108	5109
875.237	4999
875.365	4900
875.494	4953
875.623	4995
875.751	4915
875.88	4946
876.008	5014
876.136	5056
876.265	5265
876.393	5387
876.521	5349
876.65	5250
876.778	5227
876.906	5147
877.034	5147
877.162	5113
877.29	5075
877.418	5151
877.546	5117
877.674	5079
877.802	5094
877.93	5075
878.058	4938
878.185	4984
878.313	5033
878.441	5018
878.568	4805
878.696	4919
878.824	5041
878.951	5014
879.079	5216
879.206	5307
879.333	5151
879.461	5041
879.588	5083
879.715	5185
879.842	5250
879.97	5060
880.097	4892
880.224	4797
880.351	4873
880.478	4877
880.605	4892
880.732	4824
880.859	5159
880.986	4953
881.112	4976
881.239	4763
881.366	4733
881.493	4634
881.619	4641
881.746	4687
881.872	4653
881.999	4702
882.125	4748
882.252	4839
882.378	4896
882.505	4930
882.631	4835
882.757	4774
882.883	4778
883.01	4790
883.136	4740
883.262	4691
883.388	4637
883.514	4850
883.64	4892
883.766	4870
883.892	4721
884.018	4778
884.143	4927
884.269	5022
884.395	4698
884.52	4698
884.646	4729
884.772	4664
884.897	4622
885.023	4653
885.148	4839
885.274	4938
885.399	4866
885.524	4759
885.65	4771
885.775	4793
885.9	4786
886.025	4908
886.15	4809
886.275	4763
886.4	4744
886.525	4797
886.65	4744
886.775	4729
886.9	4957
887.025	5075
887.149	4831
887.274	4702
887.399	4607
887.523	4668
887.648	4622
887.773	4653
887.897	4824
888.021	4816
888.146	4691
888.27	4896
888.395	4965
888.519	4873
888.643	4847
888.767	4824
888.891	4714
889.015	4664
889.139	4702
889.263	4664
889.387	4801
889.511	4938
889.635	4862
889.759	4706
889.883	4694
890.006	4774
890.13	4915
890.254	4630
890.377	4740
890.501	4577
890.624	4546
890.748	4683
890.871	4546
890.995	4512
891.118	4413
891.241	4569
891.364	4550
891.488	4645
891.611	4512
891.734	4592
891.857	4660
891.98	4584
892.103	4664
892.226	4637
892.349	4599
892.471	4516
892.594	4599
892.717	4611
892.839	4656
892.962	4641
893.085	4691
893.207	4637
893.33	4508
893.452	4565
893.575	4736
893.697	4577
893.819	4824
893.941	4892
894.064	4782
894.186	4630
894.308	4588
894.43	4740
894.552	4885
894.674	4763
894.796	4584
894.918	4664
895.04	4603
895.161	4744
895.283	4729
895.405	4615
895.526	4675
895.648	4721
895.769	4683
895.891	4771
896.012	4778
896.134	4744
896.255	4725
896.376	4694
896.498	4687
896.619	4733
896.74	4675
896.861	4748
896.982	4987
897.103	5083
897.224	4870
897.345	4790
897.466	4698
897.587	4782
897.708	4923
897.828	4896
897.949	4729
898.07	4592
898.19	4714
898.311	4831
898.431	4771
898.552	4774
898.672	4877
898.792	4862
898.913	4812
899.033	4649
899.153	4565
899.273	4459
899.393	4558
899.513	4645
899.633	4569
899.753	4596
899.873	4554
899.993	4626
900.113	4656
900.232	4649
900.352	4618
900.472	4519
900.591	4481
900.711	4508
900.83	4462
900.95	4672
901.069	4752
901.189	4592
901.308	4413
901.427	4398
901.546	4443
901.665	4554
901.784	4535
901.904	4413
902.023	4348
902.141	4200
902.26	4207
902.379	4371
902.498	4299
902.617	4284
902.735	4443
902.854	4409
902.973	4417
903.091	4291
903.21	4261
903.328	4375
903.446	4360
903.565	4291
903.683	4409
903.801	4325
903.919	4462
904.038	4470
904.156	4337
904.274	4500
904.392	4470
904.51	4485
904.627	4531
904.745	4664
904.863	4683
904.981	4394
905.098	4363
905.216	4481
905.334	4493
905.451	4474
905.569	4462
905.686	4622
905.803	4664
905.921	4451
906.038	4588
906.155	4538
906.272	4470
906.389	4512
906.506	4417
906.623	4390
906.74	4421
906.857	4333
906.974	4436
907.091	4550
907.208	4736
907.324	4558
907.441	4519
907.557	4394
907.674	4367
907.79	4348
907.907	4436
908.023	4554
908.139	4523
908.256	4516
908.372	4516
908.488	4500
908.604	4432
908.72	4386
908.836	4356
908.952	4424
909.068	4489
909.184	4630
909.3	4523
909.415	4649
909.531	4569
909.647	4413
909.762	4360
909.878	4413
909.993	4493
910.108	4466
910.224	4508
910.339	4531
910.454	4478
910.57	4417
910.685	4390
910.8	4729
910.915	4649
911.03	4573
911.145	4409
911.259	4386
911.374	4485
911.489	4344
911.604	4348
911.718	4188
911.833	4227
911.947	4139
912.062	4067
912.176	4291
912.291	4314
912.405	4276
912.519	4550
912.633	4634
912.748	4405
912.862	4360
912.976	4223
913.09	4120
913.204	4200
913.318	4337
913.431	4489
913.545	4386
913.659	4470
913.772	4405
913.886	4261
914	4287
914.113	4470
914.226	4405
914.34	4398
914.453	4295
914.566	4451
914.68	4348
914.793	4356
914.906	4192
915.019	4128
915.132	4154
915.245	4204
915.358	4272
915.47	4325
915.583	4310
915.696	4402
915.809	4478
915.921	4497
916.034	4314
916.146	4303
916.259	4295
916.371	4459
916.483	4405
916.595	4360
916.708	4386
916.82	4394
916.932	4344
917.044	4363
917.156	4390
917.268	4287
917.38	4333
917.491	4314
917.603	4409
917.715	4481
917.826	4459
917.938	4394
918.049	4322
918.161	4470
918.272	4596
918.384	4603
918.495	4459
918.606	4310
918.717	4291
918.828	4398
918.939	4405
919.05	4325
919.161	4379
919.272	4215
919.383	4276
919.494	4478
919.604	4687
919.715	4493
919.826	4390
919.936	4485
920.047	4577
920.157	4523
920.267	4763
920.378	4538
920.488	4580
920.598	4809
920.708	4938
920.818	4816
920.928	4767
921.038	5018
921.148	4968
921.258	4694
921.368	4637
921.477	4508
921.587	4535
921.697	4443
921.806	4626
921.916	4500
922.025	4329
922.134	4318
922.244	4246
922.353	4344
922.462	4287
922.571	4200
922.68	4055
922.789	4040
922.898	4013
923.007	4032
923.116	4166
923.224	4097
923.333	4154
923.442	4029
923.55	4025
923.659	4078
923.767	4135
923.876	3998
923.984	4139
924.092	4067
924.201	4101
924.309	4074
924.417	4154
924.525	4109
924.633	4139
924.741	5105
924.849	3968
924.956	4188
925.064	3968
925.172	3972
925.279	3987
925.387	4112
925.494	4082
925.602	4242
925.709	4257
925.816	4044
925.924	4185
926.031	4299
926.138	4227
926.245	4219
926.352	4116
926.459	4280
926.566	4337
926.673	4215
926.779	4143
926.886	4120
926.993	4048
927.099	3994
927.206	3968
927.312	3953
927.419	4116
927.525	4116
927.631	4124
927.737	4021
927.843	3994
927.95	3884
928.056	3991
928.162	4090
928.267	4116
928.373	4744
928.479	4166
928.585	3903
928.69	4082
928.796	4105
928.901	3991
929.007	3934
929.112	4059
929.218	4029
929.323	3987
929.428	3968
929.533	4192
929.638	3941
929.743	3987
929.848	4082
929.953	4036
930.058	3968
930.163	3831
930.267	3842
930.372	4010
930.477	3884
930.581	4131
930.685	3983
930.79	3903
930.894	3915
930.998	3876
931.103	4071
931.207	3736
931.311	3747
931.415	3713
931.519	3564
931.623	3576
