Data from test_V78500241_2191.txt Node
Date: Fri Mar 25 17:04:14 CST 2022
User: usil
Spectrometer: V785-0024
Trigger mode: 0
Integration Time (sec): 4.000000E-1
Scans to average: 1
Nonlinearity correction enabled: false
Boxcar width: 0
Storing dark spectrum: false
XAxis mode: Wavelengths
Number of Pixels in Spectrum: 1024
>>>>>Begin Spectral Data<<<<<
801.071	7993
801.214	7856
801.356	7830
801.499	7898
801.641	7776
801.783	7784
801.926	7989
802.068	7970
802.211	7974
802.353	7993
802.496	7788
802.638	7868
802.78	7887
802.923	7989
803.065	7837
803.208	7784
803.35	7913
803.492	8081
803.635	8210
803.777	8020
803.919	8111
804.061	8450
804.204	8081
804.346	8092
804.488	7982
804.63	8027
804.773	7997
804.915	8088
805.057	8313
805.199	8225
805.341	8164
805.483	8206
805.626	8172
805.768	8119
805.91	8199
806.052	8180
806.194	7993
806.336	8218
806.478	8069
806.62	8115
806.762	8164
806.904	8313
807.046	8427
807.188	8381
807.33	8263
807.472	8343
807.614	8103
807.756	8168
807.898	8058
808.04	7970
808.182	7902
808.324	7841
808.465	7879
808.607	8077
808.749	8103
808.891	8267
809.033	8279
809.174	8191
809.316	8065
809.458	8107
809.6	8020
809.741	8092
809.883	8043
810.025	8103
810.166	8043
810.308	8020
810.45	8035
810.591	7913
810.733	7670
810.875	7723
811.016	7476
811.158	7510
811.299	7529
811.441	7620
811.582	7662
811.724	7529
811.865	7510
812.007	7529
812.148	7624
812.29	7548
812.431	7750
812.573	7822
812.714	7974
812.855	8126
812.997	8153
813.138	8210
813.279	8111
813.421	8084
813.562	7887
813.703	7864
813.845	7704
813.986	7411
814.127	7244
814.268	7168
814.41	7164
814.551	7213
814.692	7145
814.833	7099
814.974	7160
815.115	7114
815.256	6920
815.397	6943
815.539	6973
815.68	6757
815.821	6779
815.962	6840
816.103	6844
816.244	6700
816.385	6585
816.526	6563
816.666	6502
816.807	6281
816.948	6422
817.089	6460
817.23	6403
817.371	6388
817.512	6380
817.653	6369
817.793	6323
817.934	6384
818.075	6448
818.216	6414
818.356	6361
818.497	6262
818.638	6140
818.778	6201
818.919	6121
819.06	6136
819.2	6254
819.341	6319
819.481	6357
819.622	6528
819.762	6730
819.903	6688
820.043	6635
820.184	6582
820.324	6551
820.465	6722
820.605	6719
820.746	6620
820.886	6570
821.026	6608
821.167	6722
821.307	6802
821.447	6776
821.588	6650
821.728	6544
821.868	6467
822.008	6296
822.149	6399
822.289	6350
822.429	6190
822.569	6148
822.709	6083
822.849	5931
822.99	5912
823.13	5931
823.27	5954
823.41	5783
823.55	5760
823.69	5760
823.83	5775
823.97	5695
824.11	5532
824.25	5509
824.389	5562
824.529	5581
824.669	5516
824.809	5596
824.949	5699
825.089	5611
825.228	5505
825.368	5402
825.508	5341
825.648	5330
825.787	5315
825.927	5414
826.067	5303
826.206	5265
826.346	5372
826.485	5410
826.625	5353
826.765	5543
826.904	5497
827.044	5296
827.183	5170
827.323	5132
827.462	5242
827.601	5208
827.741	5189
827.88	5246
828.02	5071
828.159	5201
828.298	5284
828.437	5368
828.577	5269
828.716	5501
828.855	5330
828.994	5159
829.134	5117
829.273	5181
829.412	5170
829.551	5143
829.69	5174
829.829	5292
829.968	5357
830.107	5284
830.246	5235
830.385	5128
830.524	5124
830.663	5079
830.802	4949
830.941	4904
831.08	4858
831.219	4908
831.357	4953
831.496	5185
831.635	4889
831.774	4873
831.913	4812
832.051	4786
832.19	4729
832.329	4824
832.467	4675
832.606	4630
832.744	4698
832.883	4694
833.022	4706
833.16	4793
833.299	4847
833.437	4843
833.576	4809
833.714	4816
833.852	4831
833.991	4866
834.129	4919
834.267	4942
834.406	4915
834.544	4949
834.682	4968
834.821	4919
834.959	5201
835.097	4984
835.235	5113
835.373	5075
835.511	5102
835.65	5041
835.788	4980
835.926	4850
836.064	4839
836.202	4957
836.34	5102
836.478	5216
836.615	5132
836.753	5208
836.891	5280
837.029	5303
837.167	5170
837.305	5170
837.443	5185
837.58	5041
837.718	5220
837.856	5178
837.993	5185
838.131	5223
838.269	5197
838.406	5223
838.544	5181
838.681	5083
838.819	4991
838.956	4862
839.094	4892
839.231	4976
839.369	5067
839.506	5429
839.643	5239
839.781	5037
839.918	4999
840.055	5075
840.193	5132
840.33	5124
840.467	5064
840.604	5174
840.742	5459
840.879	5086
841.016	5071
841.153	5143
841.29	5398
841.427	5341
841.564	5299
841.701	5353
841.838	5227
841.975	5193
842.112	5242
842.249	5178
842.385	5113
842.522	5326
842.659	5170
842.796	5121
842.933	5166
843.069	5147
843.206	5159
843.343	5284
843.479	5231
843.616	5258
843.752	5071
843.889	5037
844.025	5201
844.162	4991
844.298	5170
844.435	5060
844.571	5018
844.708	5212
844.844	5261
844.98	5330
845.117	5265
845.253	5109
845.389	5086
845.525	5117
845.661	5136
845.798	5041
845.934	5105
846.07	5029
846.206	5185
846.342	5258
846.478	5193
846.614	4991
846.75	4968
846.886	4858
847.022	5113
847.158	5033
847.294	5102
847.429	5083
847.565	5060
847.701	5284
847.837	4824
847.972	4862
848.108	4957
848.244	4957
848.379	4767
848.515	4694
848.65	4714
848.786	4786
848.921	4786
849.057	4873
849.192	4923
849.328	4820
849.463	4793
849.598	4812
849.734	4759
849.869	4675
850.004	4668
850.14	4687
850.275	4561
850.41	4535
850.545	4611
850.68	4577
850.815	4607
850.95	4584
851.085	4850
851.22	4763
851.355	4660
851.49	4618
851.625	4618
851.76	4630
851.895	4573
852.03	4550
852.165	4611
852.299	4729
852.434	4748
852.569	4694
852.703	4782
852.838	4816
852.973	4938
853.107	4885
853.242	4744
853.376	4645
853.511	4542
853.645	4615
853.78	4828
853.914	4698
854.048	4626
854.183	4668
854.317	4672
854.451	4774
854.585	4630
854.72	4561
854.854	4786
854.988	4626
855.122	4611
855.256	4527
855.39	4672
855.524	4725
855.658	4755
855.792	4664
855.926	4706
856.06	4733
856.194	4831
856.327	4668
856.461	4588
856.595	4615
856.729	4580
856.862	4736
856.996	4683
857.13	4721
857.263	4725
857.397	4786
857.53	4694
857.664	4733
857.797	4740
857.931	4752
858.064	4649
858.197	4706
858.331	4634
858.464	4573
858.597	4523
858.731	4649
858.864	4641
858.997	4637
859.13	4641
859.263	4664
859.396	4706
859.529	4531
859.662	4565
859.795	4569
859.928	4618
860.061	4771
860.194	4767
860.327	4565
860.46	4558
860.592	4679
860.725	4721
860.858	4683
860.99	4569
861.123	4489
861.256	4550
861.388	4615
861.521	5372
861.653	4466
861.786	4462
861.918	4462
862.05	4523
862.183	4546
862.315	4626
862.447	4618
862.58	4573
862.712	4356
862.844	4284
862.976	4459
863.108	4500
863.24	4782
863.372	4291
863.504	4428
863.636	4375
863.768	4478
863.9	4398
864.032	4356
864.164	4402
864.296	4440
864.428	4558
864.559	4577
864.691	4519
864.823	4512
864.954	4466
865.086	4504
865.217	4478
865.349	4383
865.48	4405
865.612	4451
865.743	4599
865.875	4485
866.006	4440
866.137	4504
866.269	4424
866.4	4447
866.531	4367
866.662	4367
866.793	4436
866.924	4428
867.055	4508
867.186	4432
867.317	4447
867.448	4409
867.579	4402
867.71	4386
867.841	4333
867.972	4489
868.103	4440
868.233	4432
868.364	4432
868.495	4459
868.625	4634
868.756	4710
868.886	4542
869.017	4653
869.147	4721
869.278	4759
869.408	4637
869.539	4622
869.669	4721
869.799	4675
869.929	4721
870.06	4721
870.19	4946
870.32	4919
870.45	4904
870.58	5003
870.71	5052
870.84	5083
870.97	4911
871.1	4892
871.23	5113
871.36	5117
871.489	5048
871.619	5048
871.749	5083
871.879	5098
872.008	5109
872.138	5064
872.267	4942
872.397	4843
872.526	4771
872.656	4744
872.785	4763
872.915	4934
873.044	5060
873.173	4976
873.303	4953
873.432	4942
873.561	4911
873.69	4881
873.819	4858
873.948	4953
874.077	4759
874.206	4744
874.335	4835
874.464	4946
874.593	5033
874.722	4904
874.851	5102
874.979	5003
875.108	4984
875.237	4930
875.365	4885
875.494	4896
875.623	4911
875.751	4793
875.88	4847
876.008	5022
876.136	5052
876.265	5189
876.393	5322
876.521	5223
876.65	5170
876.778	5121
876.906	5045
877.034	5052
877.162	4999
877.29	4946
877.418	5083
877.546	4999
877.674	5060
877.802	4976
877.93	4980
878.058	4877
878.185	4877
878.313	4972
878.441	4923
878.568	4767
878.696	4904
878.824	4984
878.951	4995
879.079	5113
879.206	5254
879.333	5109
879.461	4961
879.588	4980
879.715	5132
879.842	5231
879.97	4984
880.097	4744
880.224	4729
880.351	4778
880.478	4839
880.605	4831
880.732	4771
880.859	5060
880.986	4828
881.112	4908
881.239	4755
881.366	4634
881.493	4577
881.619	4573
881.746	4641
881.872	4626
881.999	4649
882.125	4706
882.252	4755
882.378	4812
882.505	4919
882.631	4824
882.757	4672
882.883	4714
883.01	4717
883.136	4649
883.262	4645
883.388	4653
883.514	4820
883.64	4854
883.766	4831
883.892	4641
884.018	4725
884.143	4843
884.269	5037
884.395	4672
884.52	4637
884.646	4653
884.772	4611
884.897	4565
885.023	4725
885.148	4866
885.274	4904
885.399	4774
885.524	4668
885.65	4733
885.775	4809
885.9	4717
886.025	4908
886.15	4820
886.275	4714
886.4	4691
886.525	4778
886.65	4702
886.775	4706
886.9	4896
887.025	5075
887.149	4877
887.274	4683
887.399	4599
887.523	4691
887.648	4615
887.773	4637
887.897	4816
888.021	4824
888.146	4721
888.27	4877
888.395	4953
888.519	4847
888.643	4847
888.767	4839
888.891	4733
889.015	4660
889.139	4729
889.263	4672
889.387	4755
889.511	4934
889.635	4850
889.759	4702
889.883	4691
890.006	4805
890.13	4858
890.254	4660
890.377	4725
890.501	4550
890.624	4588
890.748	4717
890.871	4592
890.995	4481
891.118	4421
891.241	4558
891.364	4596
891.488	4706
891.611	4531
891.734	4550
891.857	4630
891.98	4561
892.103	4660
892.226	4660
892.349	4580
892.471	4459
892.594	4577
892.717	4653
892.839	4573
892.962	4664
893.085	4664
893.207	4645
893.33	4466
893.452	4565
893.575	4675
893.697	4622
893.819	4816
893.941	4847
894.064	4854
894.186	4603
894.308	4618
894.43	4812
894.552	4816
894.674	4843
894.796	4618
894.918	4622
895.04	4580
895.161	4740
895.283	4691
895.405	4596
895.526	4664
895.648	4736
895.769	4702
895.891	4721
896.012	4778
896.134	4759
896.255	4759
896.376	4694
896.498	4656
896.619	4725
896.74	4641
896.861	4672
896.982	4938
897.103	5117
897.224	4850
897.345	4740
897.466	4679
897.587	4748
897.708	4900
897.828	4835
897.949	4725
898.07	4637
898.19	4634
898.311	4847
898.431	4710
898.552	4797
898.672	4866
898.792	4763
898.913	4790
899.033	4683
899.153	4554
899.273	4462
899.393	4519
899.513	4531
899.633	4527
899.753	4535
899.873	4527
899.993	4615
900.113	4561
900.232	4630
900.352	4546
900.472	4531
900.591	4417
900.711	4500
900.83	4451
900.95	4641
901.069	4748
901.189	4607
901.308	4379
901.427	4352
901.546	4360
901.665	4504
901.784	4546
901.904	4405
902.023	4314
902.141	4219
902.26	4185
902.379	4287
902.498	4280
902.617	4215
902.735	4386
902.854	4474
902.973	4383
903.091	4162
903.21	4268
903.328	4310
903.446	4284
903.565	4310
903.683	4352
903.801	4329
903.919	4432
904.038	4466
904.156	4333
904.274	4455
904.392	4405
904.51	4447
904.627	4478
904.745	4615
904.863	4634
904.981	4455
905.098	4314
905.216	4379
905.334	4462
905.451	4485
905.569	4470
905.686	4618
905.803	4599
905.921	4421
906.038	4599
906.155	4527
906.272	4428
906.389	4504
906.506	4383
906.623	4371
906.74	4447
906.857	4325
906.974	4379
907.091	4584
907.208	4729
907.324	4588
907.441	4508
907.557	4383
907.674	4375
907.79	4348
907.907	4390
908.023	4538
908.139	4508
908.256	4489
908.372	4497
908.488	4527
908.604	4375
908.72	4325
908.836	4443
908.952	4398
909.068	4489
909.184	4611
909.3	4523
909.415	4577
909.531	4577
909.647	4390
909.762	4371
909.878	4341
909.993	4462
910.108	4421
910.224	4436
910.339	4508
910.454	4398
910.57	4375
910.685	4310
910.8	4668
910.915	4630
911.03	4508
911.145	4352
911.259	4352
911.374	4405
911.489	4352
911.604	4318
911.718	4185
911.833	4219
911.947	4101
912.062	4044
912.176	4306
912.291	4280
912.405	4287
912.519	4466
912.633	4500
912.748	4424
912.862	4344
912.976	4230
913.09	4109
913.204	4185
913.318	4261
913.431	4405
913.545	4367
913.659	4481
913.772	4329
913.886	4295
914	4219
914.113	4386
914.226	4470
914.34	4341
914.453	4280
914.566	4485
914.68	4303
914.793	4383
914.906	4181
915.019	4177
915.132	4120
915.245	4204
915.358	4287
915.47	4276
915.583	4268
915.696	4322
915.809	4440
915.921	4440
916.034	4265
916.146	4234
916.259	4223
916.371	4447
916.483	4432
916.595	4284
916.708	4303
916.82	4367
916.932	4352
917.044	4383
917.156	4367
917.268	4287
917.38	4318
917.491	4318
917.603	4352
917.715	4436
917.826	4500
917.938	4398
918.049	4284
918.161	4443
918.272	4569
918.384	4565
918.495	4500
918.606	4325
918.717	4276
918.828	4390
918.939	4394
919.05	4295
919.161	4371
919.272	4128
919.383	4265
919.494	4485
919.604	4687
919.715	4497
919.826	4405
919.936	4390
920.047	4561
920.157	4489
920.267	4698
920.378	4538
920.488	4561
920.598	4744
920.708	4949
920.818	4752
920.928	4744
921.038	4968
921.148	4965
921.258	4622
921.368	4573
921.477	4538
921.587	4436
921.697	4421
921.806	4596
921.916	4436
922.025	4268
922.134	4303
922.244	4211
922.353	4337
922.462	4192
922.571	4215
922.68	4040
922.789	3975
922.898	4063
923.007	4006
923.116	4082
923.224	4078
923.333	4093
923.442	4002
923.55	3998
923.659	4006
923.767	4071
923.876	4017
923.984	4101
924.092	3998
924.201	4097
924.309	4074
924.417	4196
924.525	4101
924.633	4139
924.741	5056
924.849	3937
924.956	4143
925.064	3983
925.172	3941
925.279	3991
925.387	4128
925.494	4097
925.602	4207
925.709	4253
925.816	4124
925.924	4154
926.031	4192
926.138	4230
926.245	4238
926.352	4071
926.459	4223
926.566	4344
926.673	4120
926.779	4082
926.886	4101
926.993	4010
927.099	3991
927.206	3956
927.312	3934
927.419	4051
927.525	4078
927.631	4093
927.737	3994
927.843	3987
927.95	3888
928.056	3987
928.162	3975
928.267	4074
928.373	4736
928.479	4128
928.585	3922
928.69	4097
928.796	4135
928.901	3991
929.007	3854
929.112	4032
929.218	4002
929.323	3945
929.428	3949
929.533	4093
929.638	3926
929.743	4013
929.848	4067
929.953	4032
930.058	3934
930.163	3831
930.267	3846
930.372	4002
930.477	3861
930.581	4131
930.685	3953
930.79	3838
930.894	3869
930.998	3857
931.103	4078
931.207	3728
931.311	3705
931.415	3724
931.519	3606
931.623	3568
