Data from test_V78500241_1503.txt Node
Date: Fri Mar 25 16:59:27 CST 2022
User: usil
Spectrometer: V785-0024
Trigger mode: 0
Integration Time (sec): 4.000000E-1
Scans to average: 1
Nonlinearity correction enabled: false
Boxcar width: 0
Storing dark spectrum: false
XAxis mode: Wavelengths
Number of Pixels in Spectrum: 1024
>>>>>Begin Spectral Data<<<<<
801.071	8008
801.214	7944
801.356	7849
801.499	7921
801.641	7898
801.783	7837
801.926	7997
802.068	7989
802.211	8016
802.353	7959
802.496	7814
802.638	7917
802.78	7917
802.923	7932
803.065	7868
803.208	7856
803.35	7986
803.492	8100
803.635	8138
803.777	8012
803.919	8073
804.061	8396
804.204	8180
804.346	8092
804.488	7974
804.63	8119
804.773	7993
804.915	8058
805.057	8263
805.199	8142
805.341	8221
805.483	8282
805.626	8183
805.768	8142
805.91	8142
806.052	8206
806.194	8199
806.336	8301
806.478	8073
806.62	8065
806.762	8138
806.904	8305
807.046	8480
807.188	8393
807.33	8339
807.472	8317
807.614	8183
807.756	8180
807.898	8058
808.04	7928
808.182	7879
808.324	7849
808.465	7921
808.607	8115
808.749	8134
808.891	8164
809.033	8195
809.174	8206
809.316	8164
809.458	8054
809.6	7940
809.741	8039
809.883	8058
810.025	8088
810.166	8050
810.308	8100
810.45	7947
810.591	7860
810.733	7719
810.875	7674
811.016	7518
811.158	7468
811.299	7601
811.441	7693
811.582	7712
811.724	7582
811.865	7521
812.007	7575
812.148	7605
812.29	7636
812.431	7757
812.573	7947
812.714	8024
812.855	8123
812.997	8195
813.138	8290
813.279	8157
813.421	8065
813.562	8058
813.703	7833
813.845	7712
813.986	7415
814.127	7232
814.268	7240
814.41	7232
814.551	7160
814.692	7225
814.833	7152
814.974	7099
815.115	7095
815.256	6970
815.397	6871
815.539	6943
815.68	6806
815.821	6776
815.962	6779
816.103	6833
816.244	6692
816.385	6574
816.526	6578
816.666	6502
816.807	6277
816.948	6471
817.089	6441
817.23	6414
817.371	6376
817.512	6380
817.653	6395
817.793	6300
817.934	6410
818.075	6441
818.216	6350
818.356	6448
818.497	6171
818.638	6121
818.778	6171
818.919	6167
819.06	6144
819.2	6296
819.341	6365
819.481	6372
819.622	6540
819.762	6738
819.903	6681
820.043	6616
820.184	6593
820.324	6551
820.465	6688
820.605	6650
820.746	6631
820.886	6570
821.026	6642
821.167	6696
821.307	6787
821.447	6734
821.588	6688
821.728	6597
821.868	6471
822.008	6296
822.149	6357
822.289	6369
822.429	6171
822.569	6155
822.709	6140
822.849	5931
822.99	5813
823.13	5889
823.27	5882
823.41	5790
823.55	5783
823.69	5737
823.83	5767
823.97	5684
824.11	5554
824.25	5524
824.389	5554
824.529	5642
824.669	5486
824.809	5600
824.949	5646
825.089	5608
825.228	5543
825.368	5353
825.508	5296
825.648	5345
825.787	5357
825.927	5387
826.067	5292
826.206	5318
826.346	5406
826.485	5433
826.625	5410
826.765	5490
826.904	5467
827.044	5235
827.183	5162
827.323	5128
827.462	5220
827.601	5185
827.741	5121
827.88	5204
828.02	5132
828.159	5197
828.298	5330
828.437	5326
828.577	5299
828.716	5463
828.855	5261
828.994	5136
829.134	5166
829.273	5216
829.412	5124
829.551	5136
829.69	5155
829.829	5284
829.968	5303
830.107	5288
830.246	5292
830.385	5159
830.524	5159
830.663	5064
830.802	4972
830.941	4847
831.08	4900
831.219	4949
831.357	4961
831.496	5140
831.635	4839
831.774	4870
831.913	4854
832.051	4733
832.19	4729
832.329	4892
832.467	4672
832.606	4615
832.744	4748
832.883	4691
833.022	4729
833.16	4767
833.299	4847
833.437	4831
833.576	4828
833.714	4843
833.852	4854
833.991	4870
834.129	4961
834.267	4934
834.406	4908
834.544	4915
834.682	4957
834.821	4949
834.959	5155
835.097	4953
835.235	5128
835.373	5022
835.511	5121
835.65	5037
835.788	5045
835.926	4919
836.064	4885
836.202	4942
836.34	5113
836.478	5189
836.615	5128
836.753	5231
836.891	5277
837.029	5254
837.167	5204
837.305	5124
837.443	5147
837.58	5037
837.718	5242
837.856	5231
837.993	5185
838.131	5239
838.269	5140
838.406	5181
838.544	5208
838.681	5052
838.819	4987
838.956	4877
839.094	4877
839.231	4968
839.369	5060
839.506	5402
839.643	5242
839.781	5052
839.918	5041
840.055	5079
840.193	5075
840.33	5075
840.467	5109
840.604	5162
840.742	5398
840.879	5037
841.016	5090
841.153	5094
841.29	5425
841.427	5315
841.564	5296
841.701	5360
841.838	5273
841.975	5181
842.112	5265
842.249	5132
842.385	5124
842.522	5360
842.659	5185
842.796	5143
842.933	5201
843.069	5098
843.206	5067
843.343	5269
843.479	5212
843.616	5303
843.752	5014
843.889	4965
844.025	5235
844.162	5014
844.298	5189
844.435	5056
844.571	5018
844.708	5143
844.844	5284
844.98	5303
845.117	5277
845.253	5098
845.389	5140
845.525	5098
845.661	5143
845.798	5010
845.934	5151
846.07	5025
846.206	5212
846.342	5292
846.478	5174
846.614	5022
846.75	4961
846.886	4923
847.022	5159
847.158	4984
847.294	5083
847.429	5124
847.565	5048
847.701	5341
847.837	4862
847.972	4820
848.108	4957
848.244	4908
848.379	4767
848.515	4687
848.65	4717
848.786	4717
848.921	4744
849.057	4877
849.192	4885
849.328	4809
849.463	4828
849.598	4809
849.734	4729
849.869	4675
850.004	4622
850.14	4626
850.275	4599
850.41	4466
850.545	4546
850.68	4569
850.815	4615
850.95	4599
851.085	4843
851.22	4736
851.355	4637
851.49	4596
851.625	4611
851.76	4641
851.895	4573
852.03	4531
852.165	4668
852.299	4691
852.434	4801
852.569	4736
852.703	4752
852.838	4870
852.973	4919
853.107	4870
853.242	4630
853.376	4653
853.511	4554
853.645	4611
853.78	4759
853.914	4649
854.048	4641
854.183	4660
854.317	4660
854.451	4847
854.585	4645
854.72	4592
854.854	4702
854.988	4622
855.122	4637
855.256	4523
855.39	4687
855.524	4797
855.658	4717
855.792	4698
855.926	4687
856.06	4706
856.194	4801
856.327	4645
856.461	4607
856.595	4645
856.729	4569
856.862	4736
856.996	4687
857.13	4725
857.263	4736
857.397	4797
857.53	4645
857.664	4710
857.797	4774
857.931	4774
858.064	4664
858.197	4714
858.331	4626
858.464	4588
858.597	4519
858.731	4656
858.864	4645
858.997	4580
859.13	4679
859.263	4675
859.396	4698
859.529	4599
859.662	4561
859.795	4538
859.928	4596
860.061	4759
860.194	4793
860.327	4630
860.46	4542
860.592	4672
860.725	4656
860.858	4679
860.99	4523
861.123	4558
861.256	4489
861.388	4656
861.521	5311
861.653	4508
861.786	4432
861.918	4405
862.05	4497
862.183	4561
862.315	4580
862.447	4649
862.58	4569
862.712	4386
862.844	4352
862.976	4455
863.108	4432
863.24	4812
863.372	4337
863.504	4447
863.636	4363
863.768	4485
863.9	4470
864.032	4367
864.164	4398
864.296	4497
864.428	4531
864.559	4531
864.691	4535
864.823	4538
864.954	4516
865.086	4497
865.217	4489
865.349	4383
865.48	4474
865.612	4481
865.743	4668
865.875	4466
866.006	4383
866.137	4447
866.269	4462
866.4	4386
866.531	4413
866.662	4413
866.793	4394
866.924	4455
867.055	4462
867.186	4428
867.317	4417
867.448	4352
867.579	4390
867.71	4371
867.841	4344
867.972	4470
868.103	4424
868.233	4421
868.364	4409
868.495	4455
868.625	4706
868.756	4748
868.886	4542
869.017	4592
869.147	4725
869.278	4767
869.408	4668
869.539	4637
869.669	4706
869.799	4675
869.929	4755
870.06	4721
870.19	4942
870.32	4900
870.45	4923
870.58	4965
870.71	5045
870.84	5060
870.97	4923
871.1	4919
871.23	5147
871.36	5090
871.489	4968
871.619	5109
871.749	5071
871.879	5083
872.008	5216
872.138	5033
872.267	4961
872.397	4793
872.526	4767
872.656	4710
872.785	4820
872.915	4911
873.044	5037
873.173	4930
873.303	4946
873.432	4915
873.561	4881
873.69	4835
873.819	4881
873.948	4885
874.077	4797
874.206	4717
874.335	4774
874.464	4930
874.593	5090
874.722	4923
874.851	5105
874.979	5029
875.108	4961
875.237	4923
875.365	4866
875.494	4885
875.623	4976
875.751	4805
875.88	4881
876.008	4957
876.136	5025
876.265	5197
876.393	5360
876.521	5265
876.65	5231
876.778	5147
876.906	5071
877.034	4999
877.162	5064
877.29	4908
877.418	5056
877.546	5041
877.674	5010
877.802	5041
877.93	5022
878.058	4870
878.185	4877
878.313	4915
878.441	4919
878.568	4847
878.696	4873
878.824	4953
878.951	4999
879.079	5143
879.206	5269
879.333	5060
879.461	4961
879.588	4991
879.715	5121
879.842	5212
879.97	5037
880.097	4793
880.224	4759
880.351	4816
880.478	4809
880.605	4805
880.732	4793
880.859	5105
880.986	4904
881.112	4908
881.239	4725
881.366	4615
881.493	4630
881.619	4573
881.746	4641
881.872	4672
881.999	4683
882.125	4694
882.252	4805
882.378	4850
882.505	4938
882.631	4759
882.757	4656
882.883	4717
883.01	4744
883.136	4653
883.262	4569
883.388	4599
883.514	4801
883.64	4828
883.766	4771
883.892	4653
884.018	4656
884.143	4870
884.269	4980
884.395	4656
884.52	4611
884.646	4599
884.772	4577
884.897	4561
885.023	4668
885.148	4786
885.274	4828
885.399	4801
885.524	4698
885.65	4717
885.775	4740
885.9	4725
886.025	4820
886.15	4752
886.275	4698
886.4	4618
886.525	4740
886.65	4675
886.775	4729
886.9	4949
887.025	4999
887.149	4736
887.274	4679
887.399	4584
887.523	4630
887.648	4603
887.773	4660
887.897	4725
888.021	4763
888.146	4634
888.27	4763
888.395	4889
888.519	4797
888.643	4850
888.767	4854
888.891	4683
889.015	4615
889.139	4573
889.263	4599
889.387	4733
889.511	4797
889.635	4805
889.759	4653
889.883	4672
890.006	4725
890.13	4812
890.254	4565
890.377	4691
890.501	4516
890.624	4512
890.748	4694
890.871	4508
890.995	4417
891.118	4390
891.241	4497
891.364	4497
891.488	4603
891.611	4527
891.734	4569
891.857	4565
891.98	4546
892.103	4641
892.226	4554
892.349	4523
892.471	4436
892.594	4538
892.717	4584
892.839	4546
892.962	4569
893.085	4641
893.207	4558
893.33	4440
893.452	4538
893.575	4694
893.697	4611
893.819	4763
893.941	4809
894.064	4774
894.186	4637
894.308	4558
894.43	4740
894.552	4850
894.674	4710
894.796	4516
894.918	4580
895.04	4508
895.161	4710
895.283	4596
895.405	4596
895.526	4615
895.648	4664
895.769	4653
895.891	4725
896.012	4706
896.134	4664
896.255	4683
896.376	4607
896.498	4615
896.619	4702
896.74	4580
896.861	4641
896.982	4908
897.103	5132
897.224	4847
897.345	4759
897.466	4660
897.587	4714
897.708	4828
897.828	4759
897.949	4615
898.07	4542
898.19	4675
898.311	4786
898.431	4630
898.552	4675
898.672	4843
898.792	4763
898.913	4687
899.033	4641
899.153	4500
899.273	4432
899.393	4474
899.513	4519
899.633	4512
899.753	4580
899.873	4485
899.993	4561
900.113	4493
900.232	4580
900.352	4569
900.472	4459
900.591	4428
900.711	4497
900.83	4394
900.95	4607
901.069	4698
901.189	4527
901.308	4402
901.427	4253
901.546	4318
901.665	4447
901.784	4500
901.904	4363
902.023	4329
902.141	4177
902.26	4166
902.379	4276
902.498	4200
902.617	4177
902.735	4383
902.854	4344
902.973	4371
903.091	4181
903.21	4227
903.328	4322
903.446	4272
903.565	4246
903.683	4325
903.801	4238
903.919	4363
904.038	4451
904.156	4276
904.274	4451
904.392	4413
904.51	4417
904.627	4417
904.745	4637
904.863	4626
904.981	4371
905.098	4280
905.216	4371
905.334	4440
905.451	4409
905.569	4375
905.686	4531
905.803	4592
905.921	4394
906.038	4558
906.155	4478
906.272	4375
906.389	4466
906.506	4379
906.623	4344
906.74	4367
906.857	4310
906.974	4386
907.091	4565
907.208	4710
907.324	4626
907.441	4485
907.557	4398
907.674	4322
907.79	4265
907.907	4390
908.023	4459
908.139	4481
908.256	4428
908.372	4478
908.488	4432
908.604	4363
908.72	4322
908.836	4375
908.952	4383
909.068	4398
909.184	4542
909.3	4432
909.415	4588
909.531	4561
909.647	4333
909.762	4329
909.878	4272
909.993	4413
910.108	4424
910.224	4360
910.339	4443
910.454	4352
910.57	4360
910.685	4303
910.8	4653
910.915	4584
911.03	4527
911.145	4310
911.259	4348
911.374	4394
911.489	4318
911.604	4249
911.718	4200
911.833	4230
911.947	4036
912.062	4036
912.176	4211
912.291	4207
912.405	4227
912.519	4443
912.633	4504
912.748	4394
912.862	4291
912.976	4204
913.09	4090
913.204	4196
913.318	4234
913.431	4367
913.545	4371
913.659	4390
913.772	4341
913.886	4246
914	4219
914.113	4333
914.226	4428
914.34	4409
914.453	4211
914.566	4413
914.68	4265
914.793	4337
914.906	4150
915.019	4139
915.132	4063
915.245	4200
915.358	4207
915.47	4242
915.583	4249
915.696	4344
915.809	4443
915.921	4436
916.034	4265
916.146	4257
916.259	4227
916.371	4363
916.483	4379
916.595	4253
916.708	4291
916.82	4310
916.932	4303
917.044	4325
917.156	4306
917.268	4253
917.38	4303
917.491	4314
917.603	4329
917.715	4436
917.826	4409
917.938	4322
918.049	4215
918.161	4409
918.272	4542
918.384	4512
918.495	4428
918.606	4310
918.717	4257
918.828	4295
918.939	4322
919.05	4181
919.161	4272
919.272	4131
919.383	4249
919.494	4421
919.604	4588
919.715	4485
919.826	4352
919.936	4363
920.047	4531
920.157	4508
920.267	4733
920.378	4516
920.488	4504
920.598	4702
920.708	4850
920.818	4733
920.928	4717
921.038	4984
921.148	4862
921.258	4603
921.368	4508
921.477	4489
921.587	4504
921.697	4402
921.806	4523
921.916	4402
922.025	4242
922.134	4276
922.244	4200
922.353	4344
922.462	4162
922.571	4124
922.68	3998
922.789	3975
922.898	4021
923.007	3983
923.116	4090
923.224	4063
923.333	4074
923.442	3953
923.55	3968
923.659	4063
923.767	4093
923.876	3968
923.984	4055
924.092	3987
924.201	4082
924.309	4109
924.417	4120
924.525	4044
924.633	4116
924.741	4870
924.849	3892
924.956	4150
925.064	3956
925.172	3922
925.279	3949
925.387	4051
925.494	4051
925.602	4257
925.709	4207
925.816	4063
925.924	4124
926.031	4227
926.138	4162
926.245	4230
926.352	4078
926.459	4249
926.566	4310
926.673	4154
926.779	4051
926.886	4105
926.993	3983
927.099	3956
927.206	3915
927.312	3922
927.419	4055
927.525	4044
927.631	4055
927.737	3964
927.843	3922
927.95	3831
928.056	3949
928.162	3998
928.267	4067
928.373	4561
928.479	4112
928.585	3896
928.69	3991
928.796	4067
928.901	3975
929.007	3835
929.112	4029
929.218	3953
929.323	3953
929.428	3949
929.533	4097
929.638	3842
929.743	3964
929.848	4067
929.953	3994
930.058	3930
930.163	3781
930.267	3808
930.372	3956
930.477	3774
930.581	4086
930.685	3915
930.79	3823
930.894	3850
930.998	3865
931.103	4025
931.207	3770
931.311	3679
931.415	3690
931.519	3500
931.623	3538
