Data from test_V78500241_2082.txt Node
Date: Fri Mar 25 17:03:28 CST 2022
User: usil
Spectrometer: V785-0024
Trigger mode: 0
Integration Time (sec): 4.000000E-1
Scans to average: 1
Nonlinearity correction enabled: false
Boxcar width: 0
Storing dark spectrum: false
XAxis mode: Wavelengths
Number of Pixels in Spectrum: 1024
>>>>>Begin Spectral Data<<<<<
801.071	7963
801.214	7932
801.356	7845
801.499	7868
801.641	7776
801.783	7833
801.926	7928
802.068	7963
802.211	7970
802.353	7974
802.496	7811
802.638	7818
802.78	7887
802.923	7887
803.065	7879
803.208	7887
803.35	7955
803.492	8043
803.635	8115
803.777	8020
803.919	8081
804.061	8450
804.204	8157
804.346	8020
804.488	7932
804.63	8020
804.773	8008
804.915	8046
805.057	8256
805.199	8153
805.341	8115
805.483	8172
805.626	8187
805.768	8107
805.91	8138
806.052	8142
806.194	8096
806.336	8351
806.478	8024
806.62	8077
806.762	8092
806.904	8214
807.046	8473
807.188	8317
807.33	8275
807.472	8313
807.614	8191
807.756	8107
807.898	8008
808.04	7902
808.182	7788
808.324	7845
808.465	7898
808.607	8020
808.749	8088
808.891	8176
809.033	8309
809.174	8210
809.316	8088
809.458	8027
809.6	7997
809.741	8046
809.883	7997
810.025	8054
810.166	8050
810.308	8058
810.45	7967
810.591	7830
810.733	7666
810.875	7620
811.016	7502
811.158	7457
811.299	7540
811.441	7655
811.582	7628
811.724	7537
811.865	7476
812.007	7582
812.148	7548
812.29	7609
812.431	7677
812.573	7902
812.714	7959
812.855	8130
812.997	8149
813.138	8229
813.279	8164
813.421	8008
813.562	7917
813.703	7837
813.845	7795
813.986	7422
814.127	7221
814.268	7168
814.41	7160
814.551	7171
814.692	7187
814.833	7069
814.974	7110
815.115	7133
815.256	6943
815.397	6951
815.539	6863
815.68	6821
815.821	6798
815.962	6833
816.103	6749
816.244	6692
816.385	6627
816.526	6578
816.666	6483
816.807	6323
816.948	6445
817.089	6403
817.23	6426
817.371	6395
817.512	6361
817.653	6399
817.793	6372
817.934	6361
818.075	6422
818.216	6441
818.356	6437
818.497	6216
818.638	6159
818.778	6167
818.919	6098
819.06	6095
819.2	6319
819.341	6361
819.481	6372
819.622	6502
819.762	6749
819.903	6631
820.043	6559
820.184	6582
820.324	6601
820.465	6696
820.605	6654
820.746	6688
820.886	6467
821.026	6673
821.167	6700
821.307	6798
821.447	6757
821.588	6681
821.728	6536
821.868	6445
822.008	6262
822.149	6357
822.289	6403
822.429	6159
822.569	6068
822.709	6121
822.849	5942
822.99	5821
823.13	5878
823.27	5942
823.41	5817
823.55	5805
823.69	5764
823.83	5764
823.97	5661
824.11	5471
824.25	5524
824.389	5558
824.529	5535
824.669	5497
824.809	5611
824.949	5611
825.089	5600
825.228	5509
825.368	5387
825.508	5337
825.648	5303
825.787	5372
825.927	5353
826.067	5288
826.206	5261
826.346	5372
826.485	5337
826.625	5360
826.765	5524
826.904	5463
827.044	5250
827.183	5189
827.323	5124
827.462	5242
827.601	5197
827.741	5204
827.88	5227
828.02	5098
828.159	5201
828.298	5265
828.437	5345
828.577	5254
828.716	5520
828.855	5330
828.994	5159
829.134	5155
829.273	5193
829.412	5086
829.551	5094
829.69	5193
829.829	5181
829.968	5345
830.107	5231
830.246	5280
830.385	5155
830.524	5128
830.663	5105
830.802	4976
830.941	4885
831.08	4866
831.219	4957
831.357	4987
831.496	5181
831.635	4896
831.774	4828
831.913	4839
832.051	4702
832.19	4736
832.329	4881
832.467	4637
832.606	4626
832.744	4698
832.883	4653
833.022	4725
833.16	4782
833.299	4854
833.437	4850
833.576	4862
833.714	4831
833.852	4877
833.991	4854
834.129	4980
834.267	4946
834.406	4961
834.544	4923
834.682	4976
834.821	4995
834.959	5170
835.097	5003
835.235	5098
835.373	5098
835.511	5102
835.65	5025
835.788	4976
835.926	4843
836.064	4843
836.202	4930
836.34	5208
836.478	5212
836.615	5140
836.753	5197
836.891	5315
837.029	5258
837.167	5170
837.305	5147
837.443	5117
837.58	5014
837.718	5273
837.856	5189
837.993	5143
838.131	5220
838.269	5242
838.406	5170
838.544	5189
838.681	5010
838.819	4991
838.956	4927
839.094	4850
839.231	4957
839.369	5109
839.506	5429
839.643	5258
839.781	5075
839.918	5025
840.055	5071
840.193	5140
840.33	5090
840.467	5132
840.604	5128
840.742	5383
840.879	5071
841.016	5048
841.153	5102
841.29	5341
841.427	5357
841.564	5280
841.701	5345
841.838	5265
841.975	5204
842.112	5341
842.249	5132
842.385	5090
842.522	5269
842.659	5170
842.796	5151
842.933	5151
843.069	5162
843.206	5185
843.343	5364
843.479	5197
843.616	5280
843.752	5014
843.889	5025
844.025	5242
844.162	5022
844.298	5193
844.435	5048
844.571	5025
844.708	5109
844.844	5242
844.98	5360
845.117	5299
845.253	5143
845.389	5056
845.525	5181
845.661	5155
845.798	4942
845.934	5121
846.07	5033
846.206	5178
846.342	5280
846.478	5117
846.614	4995
846.75	4965
846.886	4919
847.022	5067
847.158	5018
847.294	5102
847.429	5109
847.565	5010
847.701	5318
847.837	4877
847.972	4831
848.108	4927
848.244	4934
848.379	4778
848.515	4725
848.65	4740
848.786	4729
848.921	4778
849.057	4881
849.192	4873
849.328	4774
849.463	4847
849.598	4778
849.734	4752
849.869	4683
850.004	4656
850.14	4668
850.275	4599
850.41	4497
850.545	4603
850.68	4611
850.815	4649
850.95	4626
851.085	4908
851.22	4752
851.355	4691
851.49	4675
851.625	4675
851.76	4679
851.895	4561
852.03	4584
852.165	4637
852.299	4790
852.434	4797
852.569	4729
852.703	4824
852.838	4854
852.973	4987
853.107	4904
853.242	4778
853.376	4706
853.511	4603
853.645	4679
853.78	4835
853.914	4752
854.048	4675
854.183	4687
854.317	4714
854.451	4930
854.585	4664
854.72	4702
854.854	4755
854.988	4615
855.122	4653
855.256	4546
855.39	4694
855.524	4816
855.658	4786
855.792	4759
855.926	4740
856.06	4828
856.194	4820
856.327	4748
856.461	4679
856.595	4649
856.729	4599
856.862	4771
856.996	4725
857.13	4793
857.263	4812
857.397	4843
857.53	4668
857.664	4771
857.797	4820
857.931	4820
858.064	4805
858.197	4740
858.331	4706
858.464	4660
858.597	4542
858.731	4630
858.864	4630
858.997	4664
859.13	4679
859.263	4649
859.396	4729
859.529	4679
859.662	4584
859.795	4580
859.928	4698
860.061	4809
860.194	4816
860.327	4634
860.46	4554
860.592	4733
860.725	4740
860.858	4748
860.99	4603
861.123	4554
861.256	4599
861.388	4649
861.521	5433
861.653	4519
861.786	4447
861.918	4485
862.05	4607
862.183	4558
862.315	4634
862.447	4656
862.58	4615
862.712	4447
862.844	4398
862.976	4443
863.108	4462
863.24	4828
863.372	4367
863.504	4470
863.636	4409
863.768	4455
863.9	4466
864.032	4360
864.164	4470
864.296	4519
864.428	4603
864.559	4538
864.691	4573
864.823	4550
864.954	4527
865.086	4531
865.217	4459
865.349	4523
865.48	4561
865.612	4519
865.743	4634
865.875	4493
866.006	4508
866.137	4481
866.269	4440
866.4	4489
866.531	4504
866.662	4424
866.793	4424
866.924	4443
867.055	4531
867.186	4519
867.317	4417
867.448	4421
867.579	4424
867.71	4432
867.841	4432
867.972	4443
868.103	4451
868.233	4462
868.364	4409
868.495	4542
868.625	4710
868.756	4748
868.886	4554
869.017	4668
869.147	4752
869.278	4767
869.408	4641
869.539	4660
869.669	4767
869.799	4710
869.929	4786
870.06	4744
870.19	4968
870.32	4968
870.45	4930
870.58	4995
870.71	5113
870.84	5132
870.97	4976
871.1	4908
871.23	5174
871.36	5181
871.489	5006
871.619	5094
871.749	5124
871.879	5208
872.008	5227
872.138	5113
872.267	5045
872.397	4919
872.526	4854
872.656	4778
872.785	4820
872.915	4946
873.044	5018
873.173	4949
873.303	5010
873.432	4961
873.561	4972
873.69	4908
873.819	4877
873.948	4991
874.077	4858
874.206	4774
874.335	4843
874.464	4927
874.593	5052
874.722	5041
874.851	5174
874.979	5090
875.108	5064
875.237	4972
875.365	4930
875.494	4942
875.623	4984
875.751	4854
875.88	4892
876.008	5029
876.136	5052
876.265	5258
876.393	5376
876.521	5307
876.65	5261
876.778	5216
876.906	5102
877.034	5052
877.162	5048
877.29	5018
877.418	5105
877.546	5041
877.674	5086
877.802	5083
877.93	5067
878.058	4953
878.185	4908
878.313	4972
878.441	4957
878.568	4831
878.696	4965
878.824	4984
878.951	5048
879.079	5155
879.206	5261
879.333	5166
879.461	5014
879.588	5052
879.715	5143
879.842	5261
879.97	5048
880.097	4805
880.224	4805
880.351	4774
880.478	4854
880.605	4801
880.732	4843
880.859	5128
880.986	4953
881.112	4839
881.239	4801
881.366	4706
881.493	4668
881.619	4607
881.746	4672
881.872	4694
881.999	4641
882.125	4721
882.252	4793
882.378	4835
882.505	4980
882.631	4873
882.757	4725
882.883	4759
883.01	4831
883.136	4691
883.262	4645
883.388	4634
883.514	4820
883.64	4881
883.766	4809
883.892	4694
884.018	4729
884.143	4877
884.269	5037
884.395	4694
884.52	4668
884.646	4698
884.772	4611
884.897	4561
885.023	4679
885.148	4816
885.274	4885
885.399	4850
885.524	4698
885.65	4706
885.775	4748
885.9	4740
886.025	4824
886.15	4809
886.275	4733
886.4	4698
886.525	4736
886.65	4736
886.775	4717
886.9	4965
887.025	5071
887.149	4850
887.274	4691
887.399	4592
887.523	4599
887.648	4596
887.773	4611
887.897	4778
888.021	4820
888.146	4710
888.27	4801
888.395	4915
888.519	4843
888.643	4854
888.767	4877
888.891	4725
889.015	4637
889.139	4675
889.263	4641
889.387	4801
889.511	4911
889.635	4797
889.759	4691
889.883	4748
890.006	4763
890.13	4835
890.254	4603
890.377	4691
890.501	4554
890.624	4573
890.748	4664
890.871	4489
890.995	4413
891.118	4413
891.241	4550
891.364	4558
891.488	4691
891.611	4535
891.734	4546
891.857	4637
891.98	4592
892.103	4679
892.226	4607
892.349	4592
892.471	4462
892.594	4603
892.717	4626
892.839	4561
892.962	4569
893.085	4755
893.207	4573
893.33	4481
893.452	4535
893.575	4702
893.697	4565
893.819	4831
893.941	4835
894.064	4763
894.186	4596
894.308	4546
894.43	4744
894.552	4801
894.674	4797
894.796	4580
894.918	4580
895.04	4592
895.161	4755
895.283	4706
895.405	4554
895.526	4626
895.648	4714
895.769	4710
895.891	4763
896.012	4778
896.134	4733
896.255	4694
896.376	4683
896.498	4596
896.619	4649
896.74	4618
896.861	4656
896.982	4942
897.103	5056
897.224	4812
897.345	4729
897.466	4694
897.587	4717
897.708	4847
897.828	4824
897.949	4725
898.07	4592
898.19	4694
898.311	4839
898.431	4672
898.552	4763
898.672	4850
898.792	4782
898.913	4759
899.033	4710
899.153	4500
899.273	4527
899.393	4500
899.513	4516
899.633	4538
899.753	4573
899.873	4546
899.993	4607
900.113	4565
900.232	4596
900.352	4535
900.472	4531
900.591	4436
900.711	4489
900.83	4508
900.95	4596
901.069	4717
901.189	4519
901.308	4348
901.427	4344
901.546	4390
901.665	4493
901.784	4542
901.904	4409
902.023	4352
902.141	4287
902.26	4158
902.379	4333
902.498	4291
902.617	4249
902.735	4409
902.854	4394
902.973	4371
903.091	4242
903.21	4249
903.328	4352
903.446	4291
903.565	4246
903.683	4394
903.801	4257
903.919	4413
904.038	4424
904.156	4363
904.274	4451
904.392	4371
904.51	4421
904.627	4474
904.745	4592
904.863	4649
904.981	4443
905.098	4333
905.216	4394
905.334	4466
905.451	4497
905.569	4440
905.686	4561
905.803	4592
905.921	4398
906.038	4527
906.155	4512
906.272	4386
906.389	4481
906.506	4375
906.623	4379
906.74	4424
906.857	4318
906.974	4383
907.091	4565
907.208	4683
907.324	4645
907.441	4500
907.557	4337
907.674	4390
907.79	4310
907.907	4440
908.023	4474
908.139	4500
908.256	4451
908.372	4512
908.488	4466
908.604	4424
908.72	4394
908.836	4394
908.952	4436
909.068	4481
909.184	4580
909.3	4462
909.415	4622
909.531	4580
909.647	4379
909.762	4352
909.878	4333
909.993	4447
910.108	4421
910.224	4436
910.339	4447
910.454	4462
910.57	4306
910.685	4276
910.8	4660
910.915	4634
911.03	4516
911.145	4371
911.259	4375
911.374	4352
911.489	4310
911.604	4268
911.718	4158
911.833	4215
911.947	4074
912.062	4055
912.176	4249
912.291	4238
912.405	4223
912.519	4432
912.633	4535
912.748	4337
912.862	4322
912.976	4204
913.09	4150
913.204	4234
913.318	4200
913.431	4356
913.545	4402
913.659	4428
913.772	4337
913.886	4249
914	4268
914.113	4405
914.226	4493
914.34	4394
914.453	4268
914.566	4417
914.68	4276
914.793	4325
914.906	4211
915.019	4109
915.132	4086
915.245	4154
915.358	4204
915.47	4253
915.583	4280
915.696	4310
915.809	4398
915.921	4424
916.034	4303
916.146	4265
916.259	4238
916.371	4352
916.483	4394
916.595	4299
916.708	4314
916.82	4325
916.932	4341
917.044	4314
917.156	4341
917.268	4234
917.38	4299
917.491	4306
917.603	4367
917.715	4394
917.826	4459
917.938	4409
918.049	4299
918.161	4409
918.272	4538
918.384	4596
918.495	4493
918.606	4344
918.717	4276
918.828	4390
918.939	4363
919.05	4242
919.161	4375
919.272	4143
919.383	4272
919.494	4432
919.604	4679
919.715	4485
919.826	4424
919.936	4402
920.047	4588
920.157	4542
920.267	4763
920.378	4538
920.488	4535
920.598	4717
920.708	4908
920.818	4831
920.928	4831
921.038	5006
921.148	4991
921.258	4653
921.368	4599
921.477	4542
921.587	4504
921.697	4409
921.806	4596
921.916	4443
922.025	4325
922.134	4299
922.244	4268
922.353	4314
922.462	4230
922.571	4204
922.68	4055
922.789	3983
922.898	4040
923.007	4078
923.116	4124
923.224	4116
923.333	4128
923.442	4036
923.55	4029
923.659	4055
923.767	4120
923.876	4048
923.984	4124
924.092	4051
924.201	4169
924.309	4147
924.417	4196
924.525	4082
924.633	4116
924.741	5094
924.849	3934
924.956	4173
925.064	4017
925.172	3945
925.279	3975
925.387	4109
925.494	4120
925.602	4257
925.709	4185
925.816	4055
925.924	4204
926.031	4306
926.138	4188
926.245	4257
926.352	4139
926.459	4253
926.566	4352
926.673	4147
926.779	4166
926.886	4135
926.993	4055
927.099	4055
927.206	4010
927.312	3956
927.419	4093
927.525	4074
927.631	4116
927.737	3991
927.843	4025
927.95	3892
928.056	3953
928.162	4040
928.267	4120
928.373	4630
928.479	4181
928.585	3884
928.69	4048
928.796	4101
928.901	3979
929.007	3903
929.112	4074
929.218	4040
929.323	3983
929.428	3994
929.533	4112
929.638	3949
929.743	3979
929.848	4059
929.953	4055
930.058	3964
930.163	3831
930.267	3876
930.372	4055
930.477	3911
930.581	4154
930.685	4017
930.79	3823
930.894	3918
930.998	3884
931.103	4071
931.207	3747
931.311	3724
931.415	3717
931.519	3572
931.623	3622
