Data from test_V78500241_1205.txt Node
Date: Fri Mar 25 16:57:22 CST 2022
User: usil
Spectrometer: V785-0024
Trigger mode: 0
Integration Time (sec): 4.000000E-1
Scans to average: 1
Nonlinearity correction enabled: false
Boxcar width: 0
Storing dark spectrum: false
XAxis mode: Wavelengths
Number of Pixels in Spectrum: 1024
>>>>>Begin Spectral Data<<<<<
801.071	8050
801.214	8054
801.356	7890
801.499	7875
801.641	7826
801.783	7734
801.926	8031
802.068	7944
802.211	7959
802.353	8020
802.496	7837
802.638	7906
802.78	7967
802.923	7974
803.065	7925
803.208	7841
803.35	8035
803.492	8062
803.635	8161
803.777	8100
803.919	8187
804.061	8461
804.204	8225
804.346	8046
804.488	7997
804.63	8035
804.773	8001
804.915	8077
805.057	8267
805.199	8054
805.341	8221
805.483	8275
805.626	8164
805.768	8153
805.91	8161
806.052	8206
806.194	8149
806.336	8313
806.478	8100
806.62	8077
806.762	8123
806.904	8328
807.046	8488
807.188	8347
807.33	8244
807.472	8259
807.614	8092
807.756	8210
807.898	8020
808.04	8012
808.182	7932
808.324	7906
808.465	7940
808.607	8145
808.749	8123
808.891	8180
809.033	8256
809.174	8149
809.316	8024
809.458	8123
809.6	7974
809.741	8065
809.883	7993
810.025	8001
810.166	8119
810.308	8077
810.45	8005
810.591	7845
810.733	7658
810.875	7647
811.016	7506
811.158	7434
811.299	7529
811.441	7658
811.582	7670
811.724	7609
811.865	7559
812.007	7578
812.148	7655
812.29	7556
812.431	7715
812.573	7871
812.714	7947
812.855	8020
812.997	8168
813.138	8263
813.279	8126
813.421	8050
813.562	7993
813.703	7868
813.845	7742
813.986	7464
814.127	7255
814.268	7213
814.41	7259
814.551	7152
814.692	7107
814.833	7027
814.974	7065
815.115	7149
815.256	6897
815.397	6905
815.539	6939
815.68	6795
815.821	6745
815.962	6875
816.103	6814
816.244	6684
816.385	6662
816.526	6544
816.666	6486
816.807	6296
816.948	6429
817.089	6445
817.23	6414
817.371	6372
817.512	6399
817.653	6399
817.793	6247
817.934	6403
818.075	6464
818.216	6395
818.356	6391
818.497	6254
818.638	6144
818.778	6140
818.919	6121
819.06	6136
819.2	6350
819.341	6350
819.481	6372
819.622	6498
819.762	6677
819.903	6665
820.043	6555
820.184	6528
820.324	6570
820.465	6703
820.605	6654
820.746	6574
820.886	6551
821.026	6589
821.167	6673
821.307	6821
821.447	6738
821.588	6620
821.728	6532
821.868	6490
822.008	6315
822.149	6342
822.289	6334
822.429	6148
822.569	6038
822.709	6163
822.849	5897
822.99	5912
823.13	5859
823.27	5946
823.41	5756
823.55	5748
823.69	5729
823.83	5756
823.97	5668
824.11	5558
824.25	5493
824.389	5562
824.529	5600
824.669	5520
824.809	5611
824.949	5668
825.089	5611
825.228	5539
825.368	5402
825.508	5345
825.648	5360
825.787	5330
825.927	5444
826.067	5288
826.206	5322
826.346	5387
826.485	5410
826.625	5425
826.765	5551
826.904	5486
827.044	5299
827.183	5212
827.323	5147
827.462	5246
827.601	5143
827.741	5174
827.88	5223
828.02	5094
828.159	5258
828.298	5303
828.437	5383
828.577	5269
828.716	5532
828.855	5345
828.994	5235
829.134	5128
829.273	5216
829.412	5143
829.551	5174
829.69	5193
829.829	5246
829.968	5421
830.107	5288
830.246	5330
830.385	5227
830.524	5166
830.663	5037
830.802	4987
830.941	4930
831.08	4892
831.219	5029
831.357	5018
831.496	5117
831.635	4949
831.774	4881
831.913	4843
832.051	4759
832.19	4744
832.329	4866
832.467	4740
832.606	4645
832.744	4801
832.883	4759
833.022	4744
833.16	4793
833.299	4858
833.437	4885
833.576	4854
833.714	4847
833.852	4892
833.991	4957
834.129	5003
834.267	4919
834.406	4904
834.544	5010
834.682	5003
834.821	5006
834.959	5178
835.097	5003
835.235	5170
835.373	5121
835.511	5075
835.65	5102
835.788	5060
835.926	4942
836.064	4900
836.202	4968
836.34	5204
836.478	5220
836.615	5136
836.753	5235
836.891	5284
837.029	5284
837.167	5201
837.305	5193
837.443	5136
837.58	5147
837.718	5269
837.856	5273
837.993	5185
838.131	5277
838.269	5246
838.406	5277
838.544	5170
838.681	5067
838.819	5048
838.956	4911
839.094	4972
839.231	5052
839.369	5098
839.506	5406
839.643	5322
839.781	5056
839.918	5067
840.055	5105
840.193	5159
840.33	5102
840.467	5155
840.604	5204
840.742	5436
840.879	5102
841.016	5094
841.153	5216
841.29	5402
841.427	5311
841.564	5341
841.701	5376
841.838	5307
841.975	5303
842.112	5326
842.249	5159
842.385	5136
842.522	5372
842.659	5250
842.796	5151
842.933	5170
843.069	5170
843.206	5181
843.343	5372
843.479	5273
843.616	5288
843.752	5052
843.889	5029
844.025	5189
844.162	5060
844.298	5239
844.435	5075
844.571	5052
844.708	5242
844.844	5337
844.98	5357
845.117	5315
845.253	5178
845.389	5064
845.525	5204
845.661	5128
845.798	5071
845.934	5170
846.07	5052
846.206	5250
846.342	5330
846.478	5181
846.614	5052
846.75	4984
846.886	4892
847.022	5162
847.158	5029
847.294	5090
847.429	5143
847.565	5075
847.701	5345
847.837	4858
847.972	4858
848.108	4995
848.244	4953
848.379	4839
848.515	4748
848.65	4706
848.786	4759
848.921	4816
849.057	4828
849.192	4934
849.328	4862
849.463	4881
849.598	4778
849.734	4790
849.869	4729
850.004	4668
850.14	4702
850.275	4653
850.41	4588
850.545	4565
850.68	4603
850.815	4683
850.95	4637
851.085	4831
851.22	4759
851.355	4675
851.49	4645
851.625	4660
851.76	4626
851.895	4607
852.03	4523
852.165	4706
852.299	4755
852.434	4759
852.569	4755
852.703	4809
852.838	4911
852.973	4949
853.107	4904
853.242	4790
853.376	4668
853.511	4584
853.645	4596
853.78	4854
853.914	4733
854.048	4675
854.183	4634
854.317	4725
854.451	4862
854.585	4691
854.72	4641
854.854	4740
854.988	4607
855.122	4694
855.256	4527
855.39	4706
855.524	4793
855.658	4793
855.792	4698
855.926	4710
856.06	4767
856.194	4797
856.327	4736
856.461	4607
856.595	4626
856.729	4645
856.862	4771
856.996	4706
857.13	4759
857.263	4717
857.397	4774
857.53	4679
857.664	4748
857.797	4748
857.931	4824
858.064	4694
858.197	4774
858.331	4649
858.464	4630
858.597	4569
858.731	4641
858.864	4645
858.997	4668
859.13	4656
859.263	4645
859.396	4706
859.529	4615
859.662	4558
859.795	4546
859.928	4656
860.061	4774
860.194	4782
860.327	4592
860.46	4618
860.592	4721
860.725	4706
860.858	4755
860.99	4603
861.123	4519
861.256	4523
861.388	4615
861.521	5337
861.653	4500
861.786	4474
861.918	4527
862.05	4538
862.183	4588
862.315	4645
862.447	4710
862.58	4603
862.712	4447
862.844	4310
862.976	4474
863.108	4481
863.24	4938
863.372	4348
863.504	4428
863.636	4424
863.768	4451
863.9	4489
864.032	4386
864.164	4443
864.296	4508
864.428	4577
864.559	4622
864.691	4542
864.823	4584
864.954	4485
865.086	4554
865.217	4455
865.349	4455
865.48	4443
865.612	4508
865.743	4679
865.875	4504
866.006	4428
866.137	4478
866.269	4428
866.4	4466
866.531	4436
866.662	4424
866.793	4432
866.924	4413
867.055	4512
867.186	4474
867.317	4409
867.448	4402
867.579	4440
867.71	4413
867.841	4447
867.972	4527
868.103	4500
868.233	4447
868.364	4470
868.495	4485
868.625	4664
868.756	4782
868.886	4565
869.017	4664
869.147	4786
869.278	4793
869.408	4694
869.539	4607
869.669	4729
869.799	4668
869.929	4748
870.06	4763
870.19	4957
870.32	4892
870.45	4972
870.58	5022
870.71	5109
870.84	5128
870.97	4949
871.1	4930
871.23	5128
871.36	5151
871.489	4987
871.619	5102
871.749	5086
871.879	5121
872.008	5132
872.138	5018
872.267	4987
872.397	4923
872.526	4801
872.656	4714
872.785	4828
872.915	4991
873.044	5109
873.173	4980
873.303	4987
873.432	4957
873.561	4995
873.69	4900
873.819	4873
873.948	4923
874.077	4847
874.206	4801
874.335	4820
874.464	4972
874.593	5052
874.722	4957
874.851	5136
874.979	5052
875.108	4995
875.237	4972
875.365	4908
875.494	4904
875.623	5006
875.751	4839
875.88	4881
876.008	5033
876.136	5067
876.265	5231
876.393	5322
876.521	5265
876.65	5246
876.778	5143
876.906	5067
877.034	5010
877.162	5029
877.29	4942
877.418	5086
877.546	5071
877.674	5079
877.802	5060
877.93	5041
878.058	4953
878.185	4843
878.313	4953
878.441	4938
878.568	4797
878.696	4923
878.824	4961
878.951	4965
879.079	5105
879.206	5284
879.333	5132
879.461	5037
879.588	5014
879.715	5083
879.842	5265
879.97	4987
880.097	4812
880.224	4733
880.351	4763
880.478	4847
880.605	4828
880.732	4809
880.859	5071
880.986	4892
881.112	4927
881.239	4763
881.366	4660
881.493	4596
881.619	4672
881.746	4649
881.872	4637
881.999	4698
882.125	4675
882.252	4767
882.378	4862
882.505	4980
882.631	4828
882.757	4672
882.883	4717
883.01	4736
883.136	4656
883.262	4569
883.388	4645
883.514	4793
883.64	4904
883.766	4793
883.892	4721
884.018	4782
884.143	4889
884.269	5029
884.395	4649
884.52	4649
884.646	4660
884.772	4630
884.897	4580
885.023	4615
885.148	4812
885.274	4843
885.399	4812
885.524	4733
885.65	4675
885.775	4771
885.9	4710
886.025	4881
886.15	4786
886.275	4752
886.4	4603
886.525	4755
886.65	4725
886.775	4706
886.9	4843
887.025	5006
887.149	4809
887.274	4660
887.399	4656
887.523	4634
887.648	4565
887.773	4535
887.897	4759
888.021	4755
888.146	4679
888.27	4843
888.395	4919
888.519	4824
888.643	4809
888.767	4820
888.891	4679
889.015	4664
889.139	4683
889.263	4618
889.387	4714
889.511	4915
889.635	4786
889.759	4675
889.883	4691
890.006	4729
890.13	4812
890.254	4626
890.377	4725
890.501	4569
890.624	4550
890.748	4641
890.871	4535
890.995	4409
891.118	4451
891.241	4508
891.364	4542
891.488	4683
891.611	4481
891.734	4497
891.857	4622
891.98	4519
892.103	4656
892.226	4596
892.349	4573
892.471	4447
892.594	4538
892.717	4615
892.839	4626
892.962	4596
893.085	4691
893.207	4649
893.33	4481
893.452	4573
893.575	4675
893.697	4622
893.819	4771
893.941	4854
894.064	4755
894.186	4565
894.308	4626
894.43	4725
894.552	4831
894.674	4748
894.796	4523
894.918	4573
895.04	4546
895.161	4744
895.283	4668
895.405	4558
895.526	4645
895.648	4706
895.769	4679
895.891	4694
896.012	4752
896.134	4786
896.255	4679
896.376	4660
896.498	4603
896.619	4748
896.74	4577
896.861	4630
896.982	4957
897.103	5075
897.224	4820
897.345	4736
897.466	4702
897.587	4763
897.708	4839
897.828	4809
897.949	4687
898.07	4523
898.19	4683
898.311	4858
898.431	4649
898.552	4736
898.672	4850
898.792	4793
898.913	4744
899.033	4641
899.153	4538
899.273	4462
899.393	4508
899.513	4516
899.633	4561
899.753	4538
899.873	4474
899.993	4569
900.113	4546
900.232	4599
900.352	4538
900.472	4504
900.591	4367
900.711	4512
900.83	4443
900.95	4622
901.069	4653
901.189	4527
901.308	4394
901.427	4303
901.546	4348
901.665	4459
901.784	4531
901.904	4417
902.023	4306
902.141	4139
902.26	4207
902.379	4314
902.498	4246
902.617	4211
902.735	4360
902.854	4424
902.973	4386
903.091	4196
903.21	4242
903.328	4314
903.446	4325
903.565	4268
903.683	4337
903.801	4272
903.919	4386
904.038	4424
904.156	4306
904.274	4470
904.392	4386
904.51	4451
904.627	4485
904.745	4615
904.863	4603
904.981	4405
905.098	4303
905.216	4356
905.334	4474
905.451	4462
905.569	4424
905.686	4561
905.803	4599
905.921	4417
906.038	4561
906.155	4478
906.272	4363
906.389	4428
906.506	4371
906.623	4375
906.74	4394
906.857	4287
906.974	4390
907.091	4538
907.208	4656
907.324	4618
907.441	4504
907.557	4356
907.674	4344
907.79	4337
907.907	4394
908.023	4542
908.139	4451
908.256	4402
908.372	4481
908.488	4424
908.604	4405
908.72	4344
908.836	4356
908.952	4348
909.068	4398
909.184	4565
909.3	4523
909.415	4592
909.531	4542
909.647	4341
909.762	4356
909.878	4310
909.993	4478
910.108	4318
910.224	4432
910.339	4478
910.454	4417
910.57	4375
910.685	4314
910.8	4645
910.915	4580
911.03	4455
911.145	4318
911.259	4322
911.374	4303
911.489	4337
911.604	4287
911.718	4185
911.833	4230
911.947	4055
912.062	4055
912.176	4242
912.291	4276
912.405	4242
912.519	4424
912.633	4485
912.748	4329
912.862	4287
912.976	4223
913.09	4090
913.204	4162
913.318	4200
913.431	4375
913.545	4383
913.659	4493
913.772	4398
913.886	4265
914	4227
914.113	4348
914.226	4443
914.34	4398
914.453	4196
914.566	4417
914.68	4318
914.793	4341
914.906	4120
915.019	4124
915.132	4078
915.245	4227
915.358	4223
915.47	4192
915.583	4257
915.696	4261
915.809	4367
915.921	4424
916.034	4257
916.146	4253
916.259	4223
916.371	4375
916.483	4325
916.595	4287
916.708	4310
916.82	4318
916.932	4314
917.044	4314
917.156	4337
917.268	4234
917.38	4303
917.491	4249
917.603	4306
917.715	4394
917.826	4398
917.938	4344
918.049	4196
918.161	4394
918.272	4489
918.384	4542
918.495	4459
918.606	4310
918.717	4230
918.828	4272
918.939	4360
919.05	4287
919.161	4295
919.272	4112
919.383	4249
919.494	4398
919.604	4630
919.715	4424
919.826	4348
919.936	4363
920.047	4523
920.157	4542
920.267	4679
920.378	4527
920.488	4508
920.598	4767
920.708	4828
920.818	4778
920.928	4744
921.038	4930
921.148	4938
921.258	4573
921.368	4550
921.477	4531
921.587	4436
921.697	4386
921.806	4550
921.916	4440
922.025	4249
922.134	4291
922.244	4200
922.353	4348
922.462	4227
922.571	4101
922.68	3998
922.789	3983
922.898	4002
923.007	3949
923.116	4093
923.224	4048
923.333	4090
923.442	4010
923.55	3956
923.659	4029
923.767	4078
923.876	4029
923.984	4124
924.092	3964
924.201	4074
924.309	4090
924.417	4071
924.525	4067
924.633	4078
924.741	5052
924.849	3884
924.956	4090
925.064	3979
925.172	3918
925.279	3937
925.387	4090
925.494	4074
925.602	4211
925.709	4135
925.816	4040
925.924	4128
926.031	4227
926.138	4158
926.245	4181
926.352	4112
926.459	4249
926.566	4257
926.673	4196
926.779	4063
926.886	4071
926.993	3998
927.099	3930
927.206	3972
927.312	3983
927.419	4078
927.525	4017
927.631	4093
927.737	3979
927.843	3926
927.95	3865
928.056	3911
928.162	3991
928.267	4036
928.373	4710
928.479	4101
928.585	3907
928.69	3994
928.796	4036
928.901	3998
929.007	3888
929.112	3964
929.218	3987
929.323	3941
929.428	3907
929.533	4112
929.638	3915
929.743	3968
929.848	4055
929.953	4017
930.058	3956
930.163	3804
930.267	3823
930.372	3964
930.477	3819
930.581	4029
930.685	3926
930.79	3812
930.894	3865
930.998	3842
931.103	4013
931.207	3717
931.311	3679
931.415	3724
931.519	3466
931.623	3553
