Data from test_V78500241_802.txt Node
Date: Fri Mar 25 16:54:34 CST 2022
User: usil
Spectrometer: V785-0024
Trigger mode: 0
Integration Time (sec): 4.000000E-1
Scans to average: 1
Nonlinearity correction enabled: false
Boxcar width: 0
Storing dark spectrum: false
XAxis mode: Wavelengths
Number of Pixels in Spectrum: 1024
>>>>>Begin Spectral Data<<<<<
801.071	7974
801.214	7951
801.356	7875
801.499	7894
801.641	7734
801.783	7818
801.926	7936
802.068	7928
802.211	7947
802.353	7989
802.496	7811
802.638	7890
802.78	7879
802.923	7955
803.065	7879
803.208	7856
803.35	8065
803.492	8081
803.635	8084
803.777	8024
803.919	8062
804.061	8377
804.204	8107
804.346	8039
804.488	7944
804.63	8161
804.773	8031
804.915	8100
805.057	8210
805.199	8111
805.341	8100
805.483	8244
805.626	8214
805.768	8149
805.91	8183
806.052	8183
806.194	8054
806.336	8343
806.478	8069
806.62	8062
806.762	8081
806.904	8309
807.046	8454
807.188	8305
807.33	8279
807.472	8370
807.614	8199
807.756	8081
807.898	7955
808.04	7845
808.182	7864
808.324	7841
808.465	7928
808.607	7993
808.749	8088
808.891	8225
809.033	8305
809.174	8221
809.316	8103
809.458	8145
809.6	8008
809.741	7963
809.883	8035
810.025	8103
810.166	8081
810.308	8024
810.45	8046
810.591	7898
810.733	7765
810.875	7700
811.016	7483
811.158	7449
811.299	7559
811.441	7647
811.582	7677
811.724	7597
811.865	7537
812.007	7559
812.148	7597
812.29	7639
812.431	7677
812.573	7879
812.714	7944
812.855	8073
812.997	8279
813.138	8355
813.279	8119
813.421	8073
813.562	8050
813.703	7879
813.845	7719
813.986	7521
814.127	7270
814.268	7206
814.41	7187
814.551	7095
814.692	7156
814.833	7053
814.974	7053
815.115	7076
815.256	6894
815.397	6928
815.539	6977
815.68	6829
815.821	6760
815.962	6833
816.103	6734
816.244	6719
816.385	6601
816.526	6669
816.666	6467
816.807	6243
816.948	6388
817.089	6422
817.23	6441
817.371	6334
817.512	6384
817.653	6410
817.793	6327
817.934	6407
818.075	6467
818.216	6456
818.356	6365
818.497	6228
818.638	6140
818.778	6114
818.919	6060
819.06	6110
819.2	6285
819.341	6331
819.481	6369
819.622	6532
819.762	6703
819.903	6688
820.043	6604
820.184	6525
820.324	6551
820.465	6642
820.605	6677
820.746	6677
820.886	6448
821.026	6665
821.167	6738
821.307	6753
821.447	6734
821.588	6669
821.728	6604
821.868	6422
822.008	6331
822.149	6380
822.289	6353
822.429	6194
822.569	6095
822.709	6079
822.849	5908
822.99	5961
823.13	5897
823.27	5878
823.41	5786
823.55	5767
823.69	5691
823.83	5798
823.97	5653
824.11	5501
824.25	5497
824.389	5528
824.529	5562
824.669	5486
824.809	5653
824.949	5634
825.089	5600
825.228	5501
825.368	5410
825.508	5334
825.648	5345
825.787	5414
825.927	5364
826.067	5280
826.206	5250
826.346	5391
826.485	5417
826.625	5357
826.765	5539
826.904	5490
827.044	5292
827.183	5155
827.323	5094
827.462	5254
827.601	5140
827.741	5181
827.88	5181
828.02	5121
828.159	5216
828.298	5265
828.437	5379
828.577	5288
828.716	5501
828.855	5326
828.994	5193
829.134	5121
829.273	5151
829.412	5178
829.551	5136
829.69	5162
829.829	5189
829.968	5353
830.107	5254
830.246	5250
830.385	5178
830.524	5132
830.663	5140
830.802	5003
830.941	4923
831.08	4835
831.219	4908
831.357	4995
831.496	5128
831.635	4908
831.774	4843
831.913	4847
832.051	4721
832.19	4710
832.329	4824
832.467	4649
832.606	4626
832.744	4687
832.883	4744
833.022	4759
833.16	4790
833.299	4850
833.437	4801
833.576	4824
833.714	4850
833.852	4858
833.991	4892
834.129	4911
834.267	5022
834.406	4847
834.544	4980
834.682	4934
834.821	5003
834.959	5216
835.097	5045
835.235	5105
835.373	5079
835.511	5071
835.65	5048
835.788	5037
835.926	4881
836.064	4858
836.202	4881
836.34	5174
836.478	5197
836.615	5121
836.753	5181
836.891	5292
837.029	5242
837.167	5128
837.305	5174
837.443	5143
837.58	5109
837.718	5280
837.856	5208
837.993	5151
838.131	5280
838.269	5159
838.406	5220
838.544	5159
838.681	5045
838.819	4987
838.956	4911
839.094	4923
839.231	5029
839.369	5109
839.506	5402
839.643	5250
839.781	5010
839.918	4984
840.055	5102
840.193	5090
840.33	5132
840.467	5113
840.604	5178
840.742	5440
840.879	5086
841.016	5037
841.153	5117
841.29	5330
841.427	5265
841.564	5311
841.701	5341
841.838	5296
841.975	5201
842.112	5246
842.249	5140
842.385	5117
842.522	5372
842.659	5155
842.796	5140
842.933	5181
843.069	5166
843.206	5147
843.343	5341
843.479	5216
843.616	5254
843.752	4995
843.889	4991
844.025	5197
844.162	4965
844.298	5208
844.435	5052
844.571	5052
844.708	5185
844.844	5288
844.98	5299
845.117	5261
845.253	5105
845.389	5029
845.525	5147
845.661	5117
845.798	4984
845.934	5094
846.07	5045
846.206	5151
846.342	5277
846.478	5197
846.614	5006
846.75	4968
846.886	4911
847.022	5121
847.158	5010
847.294	5006
847.429	5064
847.565	5075
847.701	5303
847.837	4854
847.972	4812
848.108	4965
848.244	4923
848.379	4771
848.515	4729
848.65	4710
848.786	4771
848.921	4710
849.057	4858
849.192	4870
849.328	4820
849.463	4809
849.598	4767
849.734	4721
849.869	4679
850.004	4649
850.14	4660
850.275	4637
850.41	4512
850.545	4538
850.68	4596
850.815	4599
850.95	4622
851.085	4824
851.22	4793
851.355	4656
851.49	4565
851.625	4588
851.76	4611
851.895	4558
852.03	4558
852.165	4603
852.299	4725
852.434	4801
852.569	4717
852.703	4744
852.838	4809
852.973	4911
853.107	4904
853.242	4740
853.376	4687
853.511	4542
853.645	4607
853.78	4797
853.914	4649
854.048	4668
854.183	4679
854.317	4660
854.451	4828
854.585	4664
854.72	4618
854.854	4706
854.988	4554
855.122	4622
855.256	4531
855.39	4653
855.524	4797
855.658	4714
855.792	4675
855.926	4687
856.06	4755
856.194	4801
856.327	4656
856.461	4599
856.595	4596
856.729	4630
856.862	4748
856.996	4664
857.13	4687
857.263	4759
857.397	4797
857.53	4656
857.664	4717
857.797	4748
857.931	4805
858.064	4702
858.197	4683
858.331	4637
858.464	4569
858.597	4504
858.731	4618
858.864	4641
858.997	4584
859.13	4660
859.263	4660
859.396	4733
859.529	4554
859.662	4535
859.795	4489
859.928	4615
860.061	4774
860.194	4778
860.327	4603
860.46	4573
860.592	4717
860.725	4733
860.858	4733
860.99	4550
861.123	4531
861.256	4546
861.388	4626
861.521	5223
861.653	4504
861.786	4402
861.918	4447
862.05	4462
862.183	4558
862.315	4630
862.447	4698
862.58	4561
862.712	4367
862.844	4341
862.976	4481
863.108	4470
863.24	4752
863.372	4348
863.504	4405
863.636	4363
863.768	4489
863.9	4409
864.032	4371
864.164	4413
864.296	4421
864.428	4519
864.559	4588
864.691	4542
864.823	4508
864.954	4504
865.086	4516
865.217	4440
865.349	4363
865.48	4432
865.612	4440
865.743	4592
865.875	4489
866.006	4413
866.137	4432
866.269	4409
866.4	4466
866.531	4459
866.662	4413
866.793	4360
866.924	4352
867.055	4504
867.186	4417
867.317	4379
867.448	4352
867.579	4375
867.71	4394
867.841	4348
867.972	4455
868.103	4481
868.233	4455
868.364	4455
868.495	4500
868.625	4664
868.756	4740
868.886	4550
869.017	4573
869.147	4786
869.278	4748
869.408	4622
869.539	4656
869.669	4721
869.799	4626
869.929	4774
870.06	4698
870.19	4889
870.32	4904
870.45	4938
870.58	4987
870.71	5064
870.84	5083
870.97	4946
871.1	4862
871.23	5147
871.36	5174
871.489	5003
871.619	5045
871.749	5052
871.879	5151
872.008	5136
872.138	5075
872.267	4968
872.397	4820
872.526	4793
872.656	4736
872.785	4763
872.915	4946
873.044	4980
873.173	4953
873.303	4942
873.432	4908
873.561	4934
873.69	4896
873.819	4801
873.948	4904
874.077	4835
874.206	4740
874.335	4714
874.464	4911
874.593	5052
874.722	4991
874.851	5136
874.979	4980
875.108	5102
875.237	4873
875.365	4850
875.494	4934
875.623	4961
875.751	4854
875.88	4877
876.008	4930
876.136	5048
876.265	5151
876.393	5311
876.521	5231
876.65	5231
876.778	5159
876.906	5083
877.034	5029
877.162	5083
877.29	4976
877.418	5067
877.546	5025
877.674	4999
877.802	5045
877.93	5029
878.058	4896
878.185	4896
878.313	4953
878.441	4908
878.568	4782
878.696	4896
878.824	4991
878.951	4999
879.079	5140
879.206	5318
879.333	5102
879.461	4904
879.588	4968
879.715	5071
879.842	5204
879.97	4991
880.097	4748
880.224	4767
880.351	4809
880.478	4816
880.605	4740
880.732	4801
880.859	5102
880.986	4873
881.112	4976
881.239	4752
881.366	4691
881.493	4630
881.619	4618
881.746	4622
881.872	4649
881.999	4664
882.125	4683
882.252	4736
882.378	4805
882.505	5003
882.631	4786
882.757	4664
882.883	4755
883.01	4733
883.136	4660
883.262	4565
883.388	4588
883.514	4824
883.64	4820
883.766	4763
883.892	4653
884.018	4702
884.143	4873
884.269	4984
884.395	4660
884.52	4653
884.646	4683
884.772	4561
884.897	4512
885.023	4668
885.148	4763
885.274	4850
885.399	4782
885.524	4694
885.65	4698
885.775	4733
885.9	4668
886.025	4877
886.15	4771
886.275	4744
886.4	4626
886.525	4736
886.65	4706
886.775	4664
886.9	4900
887.025	5056
887.149	4801
887.274	4641
887.399	4580
887.523	4637
887.648	4573
887.773	4519
887.897	4729
888.021	4759
888.146	4679
888.27	4824
888.395	4866
888.519	4835
888.643	4809
888.767	4805
888.891	4691
889.015	4626
889.139	4618
889.263	4615
889.387	4809
889.511	4850
889.635	4786
889.759	4653
889.883	4683
890.006	4725
890.13	4850
890.254	4584
890.377	4691
890.501	4497
890.624	4478
890.748	4630
890.871	4516
890.995	4451
891.118	4443
891.241	4489
891.364	4508
891.488	4641
891.611	4474
891.734	4554
891.857	4603
891.98	4546
892.103	4630
892.226	4599
892.349	4516
892.471	4417
892.594	4535
892.717	4550
892.839	4573
892.962	4565
893.085	4664
893.207	4607
893.33	4466
893.452	4542
893.575	4630
893.697	4584
893.819	4748
893.941	4793
894.064	4748
894.186	4603
894.308	4580
894.43	4736
894.552	4797
894.674	4733
894.796	4592
894.918	4569
895.04	4546
895.161	4710
895.283	4615
895.405	4538
895.526	4626
895.648	4679
895.769	4687
895.891	4675
896.012	4752
896.134	4774
896.255	4721
896.376	4653
896.498	4592
896.619	4653
896.74	4603
896.861	4668
896.982	4946
897.103	5105
897.224	4797
897.345	4778
897.466	4672
897.587	4786
897.708	4847
897.828	4839
897.949	4668
898.07	4561
898.19	4622
898.311	4816
898.431	4664
898.552	4683
898.672	4782
898.792	4744
898.913	4736
899.033	4626
899.153	4512
899.273	4424
899.393	4470
899.513	4531
899.633	4516
899.753	4577
899.873	4462
899.993	4603
900.113	4584
900.232	4558
900.352	4558
900.472	4493
900.591	4344
900.711	4519
900.83	4440
900.95	4607
901.069	4698
901.189	4546
901.308	4352
901.427	4284
901.546	4409
901.665	4459
901.784	4447
901.904	4352
902.023	4329
902.141	4181
902.26	4128
902.379	4337
902.498	4257
902.617	4158
902.735	4329
902.854	4363
902.973	4303
903.091	4204
903.21	4200
903.328	4291
903.446	4265
903.565	4295
903.683	4360
903.801	4249
903.919	4394
904.038	4432
904.156	4325
904.274	4440
904.392	4383
904.51	4379
904.627	4451
904.745	4580
904.863	4622
904.981	4413
905.098	4295
905.216	4325
905.334	4455
905.451	4432
905.569	4440
905.686	4535
905.803	4531
905.921	4440
906.038	4573
906.155	4432
906.272	4409
906.389	4451
906.506	4360
906.623	4356
906.74	4413
906.857	4310
906.974	4432
907.091	4516
907.208	4698
907.324	4634
907.441	4531
907.557	4329
907.674	4322
907.79	4299
907.907	4371
908.023	4512
908.139	4470
908.256	4424
908.372	4493
908.488	4436
908.604	4352
908.72	4333
908.836	4341
908.952	4352
909.068	4394
909.184	4546
909.3	4436
909.415	4580
909.531	4554
909.647	4333
909.762	4383
909.878	4314
909.993	4440
910.108	4409
910.224	4432
910.339	4497
910.454	4413
910.57	4325
910.685	4299
910.8	4694
910.915	4558
911.03	4409
911.145	4284
911.259	4310
911.374	4310
911.489	4234
911.604	4265
911.718	4143
911.833	4196
911.947	4059
912.062	4051
912.176	4173
912.291	4211
912.405	4238
912.519	4459
912.633	4436
912.748	4405
912.862	4306
912.976	4219
913.09	4097
913.204	4158
913.318	4253
913.431	4329
913.545	4337
913.659	4459
913.772	4329
913.886	4287
914	4261
914.113	4379
914.226	4360
914.34	4413
914.453	4253
914.566	4398
914.68	4325
914.793	4291
914.906	4188
915.019	4086
915.132	4063
915.245	4185
915.358	4166
915.47	4223
915.583	4257
915.696	4242
915.809	4375
915.921	4455
916.034	4295
916.146	4242
916.259	4234
916.371	4363
916.483	4352
916.595	4253
916.708	4379
916.82	4242
916.932	4344
917.044	4352
917.156	4299
917.268	4261
917.38	4322
917.491	4276
917.603	4303
917.715	4428
917.826	4474
917.938	4394
918.049	4268
918.161	4344
918.272	4523
918.384	4554
918.495	4466
918.606	4272
918.717	4246
918.828	4299
918.939	4325
919.05	4303
919.161	4341
919.272	4139
919.383	4253
919.494	4432
919.604	4603
919.715	4409
919.826	4360
919.936	4405
920.047	4523
920.157	4497
920.267	4721
920.378	4523
920.488	4474
920.598	4694
920.708	4881
920.818	4744
920.928	4725
921.038	5029
921.148	4870
921.258	4603
921.368	4588
921.477	4481
921.587	4447
921.697	4341
921.806	4519
921.916	4493
922.025	4238
922.134	4272
922.244	4268
922.353	4325
922.462	4181
922.571	4120
922.68	4048
922.789	3983
922.898	4006
923.007	4036
923.116	4109
923.224	4067
923.333	4044
923.442	3968
923.55	3994
923.659	4048
923.767	4090
923.876	4017
923.984	4124
924.092	3972
924.201	4025
924.309	4086
924.417	4105
924.525	4055
924.633	4071
924.741	4801
924.849	3930
924.956	4135
925.064	3960
925.172	3892
925.279	3987
925.387	4040
925.494	4071
925.602	4211
925.709	4200
925.816	4048
925.924	4071
926.031	4181
926.138	4143
926.245	4207
926.352	4082
926.459	4192
926.566	4310
926.673	4162
926.779	4074
926.886	4051
926.993	3975
927.099	3972
927.206	3876
927.312	3930
927.419	4029
927.525	3979
927.631	4082
927.737	3964
927.843	3941
927.95	3869
928.056	3937
928.162	4017
928.267	4082
928.373	4691
928.479	4101
928.585	3888
928.69	3994
928.796	4082
928.901	3964
929.007	3838
929.112	3983
929.218	3998
929.323	3941
929.428	3930
929.533	4090
929.638	3949
929.743	3953
929.848	4059
929.953	3949
930.058	3926
930.163	3789
930.267	3838
930.372	3972
930.477	3823
930.581	4078
930.685	3930
930.79	3797
930.894	3907
930.998	3850
931.103	3991
931.207	3759
931.311	3701
931.415	3705
931.519	3542
931.623	3538
