Data from test_V78500241_1143.txt Node
Date: Fri Mar 25 16:56:56 CST 2022
User: usil
Spectrometer: V785-0024
Trigger mode: 0
Integration Time (sec): 4.000000E-1
Scans to average: 1
Nonlinearity correction enabled: false
Boxcar width: 0
Storing dark spectrum: false
XAxis mode: Wavelengths
Number of Pixels in Spectrum: 1024
>>>>>Begin Spectral Data<<<<<
801.071	8096
801.214	7989
801.356	7902
801.499	7932
801.641	7715
801.783	7746
801.926	7936
802.068	7837
802.211	7928
802.353	7959
802.496	7769
802.638	7799
802.78	7902
802.923	7936
803.065	7822
803.208	7864
803.35	7963
803.492	8050
803.635	8161
803.777	8111
803.919	8202
804.061	8446
804.204	8161
804.346	8008
804.488	7921
804.63	8100
804.773	7993
804.915	8084
805.057	8252
805.199	8119
805.341	8157
805.483	8294
805.626	8202
805.768	8119
805.91	8225
806.052	8259
806.194	8100
806.336	8282
806.478	8012
806.62	7997
806.762	8092
806.904	8301
807.046	8469
807.188	8385
807.33	8256
807.472	8290
807.614	8149
807.756	8115
807.898	7951
808.04	7860
808.182	7925
808.324	7906
808.465	7883
808.607	8073
808.749	8161
808.891	8092
809.033	8275
809.174	8240
809.316	8039
809.458	8096
809.6	8046
809.741	8008
809.883	7997
810.025	8046
810.166	8031
810.308	8012
810.45	8027
810.591	7890
810.733	7708
810.875	7582
811.016	7514
811.158	7525
811.299	7620
811.441	7662
811.582	7666
811.724	7597
811.865	7529
812.007	7544
812.148	7628
812.29	7613
812.431	7677
812.573	7792
812.714	7986
812.855	8115
812.997	8153
813.138	8328
813.279	8164
813.421	8111
813.562	8031
813.703	7814
813.845	7750
813.986	7518
814.127	7255
814.268	7187
814.41	7293
814.551	7141
814.692	7198
814.833	7072
814.974	7095
815.115	7099
815.256	6894
815.397	6901
815.539	6909
815.68	6840
815.821	6764
815.962	6875
816.103	6753
816.244	6772
816.385	6650
816.526	6601
816.666	6559
816.807	6292
816.948	6441
817.089	6502
817.23	6460
817.371	6414
817.512	6399
817.653	6376
817.793	6384
817.934	6395
818.075	6464
818.216	6418
818.356	6384
818.497	6194
818.638	6091
818.778	6117
818.919	6106
819.06	6152
819.2	6331
819.341	6353
819.481	6350
819.622	6486
819.762	6734
819.903	6654
820.043	6547
820.184	6601
820.324	6578
820.465	6692
820.605	6700
820.746	6623
820.886	6452
821.026	6635
821.167	6677
821.307	6787
821.447	6749
821.588	6623
821.728	6578
821.868	6475
822.008	6243
822.149	6346
822.289	6289
822.429	6159
822.569	6053
822.709	6098
822.849	5935
822.99	5920
823.13	5901
823.27	5904
823.41	5722
823.55	5775
823.69	5748
823.83	5779
823.97	5634
824.11	5505
824.25	5444
824.389	5532
824.529	5551
824.669	5543
824.809	5592
824.949	5672
825.089	5573
825.228	5539
825.368	5398
825.508	5330
825.648	5357
825.787	5421
825.927	5315
826.067	5223
826.206	5334
826.346	5353
826.485	5372
826.625	5387
826.765	5543
826.904	5493
827.044	5284
827.183	5204
827.323	5094
827.462	5269
827.601	5136
827.741	5208
827.88	5201
828.02	5113
828.159	5178
828.298	5265
828.437	5349
828.577	5231
828.716	5459
828.855	5303
828.994	5162
829.134	5124
829.273	5121
829.412	5098
829.551	5140
829.69	5147
829.829	5242
829.968	5360
830.107	5250
830.246	5273
830.385	5181
830.524	5143
830.663	5075
830.802	4942
830.941	4892
831.08	4885
831.219	4995
831.357	4980
831.496	5147
831.635	4911
831.774	4839
831.913	4809
832.051	4725
832.19	4755
832.329	4786
832.467	4611
832.606	4664
832.744	4717
832.883	4679
833.022	4759
833.16	4809
833.299	4790
833.437	4847
833.576	4843
833.714	4862
833.852	4816
833.991	4839
834.129	4900
834.267	4911
834.406	4881
834.544	4968
834.682	4930
834.821	4953
834.959	5181
835.097	4995
835.235	5109
835.373	5071
835.511	5113
835.65	4999
835.788	4995
835.926	4877
836.064	4873
836.202	4915
836.34	5132
836.478	5208
836.615	5136
836.753	5197
836.891	5284
837.029	5216
837.167	5174
837.305	5136
837.443	5166
837.58	5071
837.718	5201
837.856	5231
837.993	5105
838.131	5212
838.269	5242
838.406	5204
838.544	5178
838.681	4980
838.819	5022
838.956	4858
839.094	4885
839.231	4984
839.369	5067
839.506	5421
839.643	5235
839.781	5018
839.918	5041
840.055	5037
840.193	5086
840.33	5136
840.467	5090
840.604	5147
840.742	5414
840.879	5018
841.016	5060
841.153	5170
841.29	5341
841.427	5284
841.564	5292
841.701	5360
841.838	5299
841.975	5201
842.112	5208
842.249	5132
842.385	5067
842.522	5322
842.659	5170
842.796	5136
842.933	5208
843.069	5159
843.206	5109
843.343	5315
843.479	5201
843.616	5273
843.752	5025
843.889	4957
844.025	5227
844.162	5003
844.298	5162
844.435	5045
844.571	5064
844.708	5155
844.844	5250
844.98	5273
845.117	5269
845.253	5124
845.389	5037
845.525	5147
845.661	5128
845.798	5071
845.934	5060
846.07	5056
846.206	5136
846.342	5288
846.478	5140
846.614	4991
846.75	4934
846.886	4953
847.022	5094
847.158	5067
847.294	5064
847.429	5086
847.565	5041
847.701	5296
847.837	4793
847.972	4771
848.108	5003
848.244	4904
848.379	4771
848.515	4748
848.65	4702
848.786	4771
848.921	4759
849.057	4908
849.192	4828
849.328	4801
849.463	4843
849.598	4786
849.734	4759
849.869	4740
850.004	4592
850.14	4660
850.275	4588
850.41	4519
850.545	4478
850.68	4592
850.815	4580
850.95	4637
851.085	4843
851.22	4694
851.355	4603
851.49	4626
851.625	4622
851.76	4599
851.895	4596
852.03	4519
852.165	4653
852.299	4679
852.434	4805
852.569	4778
852.703	4824
852.838	4831
852.973	4908
853.107	4908
853.242	4675
853.376	4645
853.511	4481
853.645	4607
853.78	4782
853.914	4668
854.048	4668
854.183	4679
854.317	4683
854.451	4790
854.585	4630
854.72	4649
854.854	4706
854.988	4580
855.122	4565
855.256	4489
855.39	4683
855.524	4759
855.658	4744
855.792	4653
855.926	4714
856.06	4721
856.194	4786
856.327	4698
856.461	4573
856.595	4615
856.729	4653
856.862	4771
856.996	4706
857.13	4725
857.263	4782
857.397	4782
857.53	4637
857.664	4740
857.797	4740
857.931	4774
858.064	4683
858.197	4759
858.331	4637
858.464	4592
858.597	4519
858.731	4634
858.864	4618
858.997	4599
859.13	4668
859.263	4675
859.396	4721
859.529	4611
859.662	4603
859.795	4493
859.928	4596
860.061	4740
860.194	4805
860.327	4599
860.46	4542
860.592	4725
860.725	4725
860.858	4691
860.99	4550
861.123	4481
861.256	4554
861.388	4634
861.521	5204
861.653	4489
861.786	4455
861.918	4451
862.05	4504
862.183	4508
862.315	4588
862.447	4634
862.58	4542
862.712	4360
862.844	4291
862.976	4402
863.108	4485
863.24	4835
863.372	4329
863.504	4409
863.636	4394
863.768	4512
863.9	4390
864.032	4356
864.164	4413
864.296	4481
864.428	4573
864.559	4561
864.691	4523
864.823	4531
864.954	4535
865.086	4489
865.217	4440
865.349	4398
865.48	4424
865.612	4542
865.743	4596
865.875	4470
866.006	4451
866.137	4459
866.269	4440
866.4	4455
866.531	4398
866.662	4367
866.793	4405
866.924	4436
867.055	4481
867.186	4398
867.317	4421
867.448	4390
867.579	4360
867.71	4375
867.841	4390
867.972	4409
868.103	4421
868.233	4428
868.364	4428
868.495	4432
868.625	4656
868.756	4790
868.886	4561
869.017	4588
869.147	4786
869.278	4793
869.408	4679
869.539	4588
869.669	4702
869.799	4653
869.929	4755
870.06	4729
870.19	4957
870.32	4870
870.45	4949
870.58	5003
870.71	5037
870.84	5102
870.97	4908
871.1	4900
871.23	5143
871.36	5098
871.489	5010
871.619	5033
871.749	5113
871.879	5094
872.008	5117
872.138	5056
872.267	4995
872.397	4858
872.526	4771
872.656	4694
872.785	4816
872.915	4961
873.044	5048
873.173	4934
873.303	4991
873.432	4927
873.561	4980
873.69	4839
873.819	4812
873.948	4862
874.077	4801
874.206	4736
874.335	4763
874.464	4873
874.593	5006
874.722	4984
874.851	5045
874.979	5033
875.108	5041
875.237	4923
875.365	4820
875.494	4873
875.623	4972
875.751	4839
875.88	4866
876.008	4987
876.136	5037
876.265	5128
876.393	5322
876.521	5231
876.65	5208
876.778	5136
876.906	5075
877.034	5014
877.162	5018
877.29	4995
877.418	5045
877.546	5071
877.674	5029
877.802	4968
877.93	5010
878.058	4908
878.185	4870
878.313	4915
878.441	4908
878.568	4774
878.696	4816
878.824	4953
878.951	4999
879.079	5102
879.206	5269
879.333	5098
879.461	4980
879.588	4995
879.715	5132
879.842	5220
879.97	4995
880.097	4816
880.224	4774
880.351	4820
880.478	4805
880.605	4767
880.732	4790
880.859	5067
880.986	4911
881.112	4896
881.239	4778
881.366	4656
881.493	4615
881.619	4596
881.746	4615
881.872	4645
881.999	4649
882.125	4668
882.252	4759
882.378	4805
882.505	4930
882.631	4870
882.757	4656
882.883	4740
883.01	4729
883.136	4714
883.262	4569
883.388	4615
883.514	4801
883.64	4858
883.766	4809
883.892	4645
884.018	4729
884.143	4843
884.269	5014
884.395	4653
884.52	4603
884.646	4645
884.772	4542
884.897	4561
885.023	4668
885.148	4744
885.274	4835
885.399	4755
885.524	4725
885.65	4668
885.775	4706
885.9	4694
886.025	4854
886.15	4763
886.275	4717
886.4	4634
886.525	4702
886.65	4649
886.775	4721
886.9	4900
887.025	5029
887.149	4828
887.274	4702
887.399	4561
887.523	4592
887.648	4577
887.773	4607
887.897	4691
888.021	4725
888.146	4649
888.27	4790
888.395	4873
888.519	4824
888.643	4828
888.767	4839
888.891	4653
889.015	4569
889.139	4630
889.263	4580
889.387	4729
889.511	4900
889.635	4805
889.759	4630
889.883	4615
890.006	4721
890.13	4843
890.254	4615
890.377	4725
890.501	4527
890.624	4527
890.748	4611
890.871	4478
890.995	4405
891.118	4394
891.241	4523
891.364	4516
891.488	4656
891.611	4512
891.734	4554
891.857	4630
891.98	4546
892.103	4588
892.226	4546
892.349	4489
892.471	4394
892.594	4523
892.717	4588
892.839	4523
892.962	4599
893.085	4611
893.207	4584
893.33	4451
893.452	4481
893.575	4630
893.697	4569
893.819	4767
893.941	4831
894.064	4786
894.186	4584
894.308	4538
894.43	4748
894.552	4812
894.674	4736
894.796	4569
894.918	4565
895.04	4546
895.161	4675
895.283	4664
895.405	4580
895.526	4637
895.648	4706
895.769	4683
895.891	4687
896.012	4721
896.134	4698
896.255	4611
896.376	4656
896.498	4603
896.619	4736
896.74	4637
896.861	4649
896.982	4908
897.103	5033
897.224	4831
897.345	4778
897.466	4607
897.587	4714
897.708	4858
897.828	4790
897.949	4694
898.07	4565
898.19	4607
898.311	4790
898.431	4672
898.552	4717
898.672	4812
898.792	4744
898.913	4679
899.033	4622
899.153	4485
899.273	4432
899.393	4481
899.513	4512
899.633	4512
899.753	4489
899.873	4542
899.993	4550
900.113	4519
900.232	4588
900.352	4489
900.472	4497
900.591	4344
900.711	4451
900.83	4428
900.95	4607
901.069	4698
901.189	4550
901.308	4344
901.427	4314
901.546	4390
901.665	4504
901.784	4519
901.904	4352
902.023	4306
902.141	4207
902.26	4169
902.379	4280
902.498	4234
902.617	4154
902.735	4314
902.854	4398
902.973	4325
903.091	4204
903.21	4238
903.328	4265
903.446	4219
903.565	4253
903.683	4375
903.801	4291
903.919	4322
904.038	4451
904.156	4314
904.274	4428
904.392	4398
904.51	4462
904.627	4481
904.745	4569
904.863	4611
904.981	4474
905.098	4295
905.216	4284
905.334	4413
905.451	4432
905.569	4455
905.686	4558
905.803	4561
905.921	4402
906.038	4527
906.155	4451
906.272	4424
906.389	4421
906.506	4356
906.623	4333
906.74	4421
906.857	4284
906.974	4360
907.091	4569
907.208	4649
907.324	4565
907.441	4485
907.557	4348
907.674	4363
907.79	4306
907.907	4360
908.023	4474
908.139	4485
908.256	4386
908.372	4443
908.488	4405
908.604	4356
908.72	4303
908.836	4341
908.952	4398
909.068	4443
909.184	4558
909.3	4500
909.415	4599
909.531	4561
909.647	4341
909.762	4360
909.878	4322
909.993	4440
910.108	4405
910.224	4383
910.339	4451
910.454	4398
910.57	4344
910.685	4310
910.8	4626
910.915	4630
911.03	4451
911.145	4333
911.259	4314
911.374	4360
911.489	4291
911.604	4280
911.718	4166
911.833	4173
911.947	4071
912.062	4006
912.176	4234
912.291	4204
912.405	4257
912.519	4493
912.633	4489
912.748	4352
912.862	4299
912.976	4188
913.09	4105
913.204	4139
913.318	4219
913.431	4344
913.545	4383
913.659	4447
913.772	4333
913.886	4295
914	4230
914.113	4428
914.226	4405
914.34	4379
914.453	4265
914.566	4421
914.68	4318
914.793	4257
914.906	4147
915.019	4128
915.132	4036
915.245	4185
915.358	4192
915.47	4211
915.583	4249
915.696	4287
915.809	4390
915.921	4363
916.034	4257
916.146	4234
916.259	4223
916.371	4379
916.483	4314
916.595	4280
916.708	4341
916.82	4306
916.932	4341
917.044	4299
917.156	4310
917.268	4310
917.38	4261
917.491	4265
917.603	4318
917.715	4413
917.826	4432
917.938	4367
918.049	4215
918.161	4356
918.272	4504
918.384	4550
918.495	4447
918.606	4299
918.717	4249
918.828	4333
918.939	4375
919.05	4223
919.161	4314
919.272	4131
919.383	4207
919.494	4462
919.604	4634
919.715	4428
919.826	4375
919.936	4379
920.047	4527
920.157	4443
920.267	4710
920.378	4516
920.488	4504
920.598	4668
920.708	4877
920.818	4733
920.928	4721
921.038	4927
921.148	4866
921.258	4618
921.368	4577
921.477	4500
921.587	4428
921.697	4360
921.806	4592
921.916	4417
922.025	4253
922.134	4242
922.244	4188
922.353	4303
922.462	4158
922.571	4112
922.68	3983
922.789	3968
922.898	4002
923.007	3968
923.116	4078
923.224	4105
923.333	4048
923.442	3998
923.55	3960
923.659	4010
923.767	4135
923.876	3994
923.984	4105
924.092	3934
924.201	4090
924.309	4051
924.417	4139
924.525	4040
924.633	4139
924.741	5056
924.849	3922
924.956	4086
925.064	3903
925.172	3918
925.279	3930
925.387	4040
925.494	4006
925.602	4192
925.709	4166
925.816	4021
925.924	4093
926.031	4207
926.138	4097
926.245	4173
926.352	4109
926.459	4177
926.566	4318
926.673	4143
926.779	4067
926.886	4040
926.993	3972
927.099	3941
927.206	3975
927.312	3949
927.419	4044
927.525	4021
927.631	4120
927.737	3964
927.843	3896
927.95	3804
928.056	3949
928.162	3975
928.267	4063
928.373	4675
928.479	4105
928.585	3884
928.69	4013
928.796	4055
928.901	3983
929.007	3838
929.112	3979
929.218	3960
929.323	3926
929.428	3937
929.533	4063
929.638	3896
929.743	3960
929.848	4010
929.953	3956
930.058	3915
930.163	3785
930.267	3846
930.372	3945
930.477	3804
930.581	4051
930.685	3930
930.79	3797
930.894	3896
930.998	3865
931.103	4025
931.207	3701
931.311	3717
931.415	3671
931.519	3523
931.623	3530
