Data from test_V78500241_601.txt Node
Date: Fri Mar 25 16:53:10 CST 2022
User: usil
Spectrometer: V785-0024
Trigger mode: 0
Integration Time (sec): 4.000000E-1
Scans to average: 1
Nonlinearity correction enabled: false
Boxcar width: 0
Storing dark spectrum: false
XAxis mode: Wavelengths
Number of Pixels in Spectrum: 1024
>>>>>Begin Spectral Data<<<<<
801.071	8039
801.214	8005
801.356	7871
801.499	7833
801.641	7803
801.783	7830
801.926	7986
802.068	7955
802.211	7978
802.353	8005
802.496	7913
802.638	7936
802.78	7970
802.923	7959
803.065	7845
803.208	7917
803.35	7928
803.492	8119
803.635	8202
803.777	8008
803.919	8088
804.061	8309
804.204	8081
804.346	8012
804.488	7989
804.63	8119
804.773	7982
804.915	8081
805.057	8225
805.199	8187
805.341	8210
805.483	8240
805.626	8271
805.768	8092
805.91	8183
806.052	8218
806.194	8084
806.336	8237
806.478	8088
806.62	8077
806.762	8107
806.904	8180
807.046	8495
807.188	8309
807.33	8237
807.472	8347
807.614	8145
807.756	8054
807.898	7982
808.04	7864
808.182	7898
808.324	7940
808.465	7906
808.607	8058
808.749	8119
808.891	8237
809.033	8320
809.174	8164
809.316	8050
809.458	8058
809.6	7989
809.741	8069
809.883	8001
810.025	8012
810.166	8024
810.308	8081
810.45	7963
810.591	7837
810.733	7738
810.875	7674
811.016	7464
811.158	7529
811.299	7670
811.441	7685
811.582	7655
811.724	7616
811.865	7537
812.007	7613
812.148	7578
812.29	7609
812.431	7689
812.573	7845
812.714	7993
812.855	8088
812.997	8225
813.138	8374
813.279	8195
813.421	8123
813.562	8016
813.703	7822
813.845	7830
813.986	7487
814.127	7358
814.268	7289
814.41	7274
814.551	7160
814.692	7221
814.833	7038
814.974	7080
815.115	7126
815.256	6993
815.397	6935
815.539	6943
815.68	6863
815.821	6730
815.962	6863
816.103	6818
816.244	6734
816.385	6631
816.526	6612
816.666	6467
816.807	6311
816.948	6460
817.089	6483
817.23	6456
817.371	6407
817.512	6380
817.653	6342
817.793	6350
817.934	6441
818.075	6448
818.216	6437
818.356	6403
818.497	6213
818.638	6148
818.778	6129
818.919	6110
819.06	6171
819.2	6281
819.341	6315
819.481	6357
819.622	6551
819.762	6700
819.903	6665
820.043	6589
820.184	6627
820.324	6540
820.465	6662
820.605	6654
820.746	6566
820.886	6475
821.026	6589
821.167	6642
821.307	6779
821.447	6738
821.588	6544
821.728	6566
821.868	6479
822.008	6300
822.149	6350
822.289	6350
822.429	6110
822.569	6053
822.709	6068
822.849	5908
822.99	5844
823.13	5893
823.27	5855
823.41	5802
823.55	5805
823.69	5767
823.83	5855
823.97	5676
824.11	5543
824.25	5490
824.389	5505
824.529	5539
824.669	5448
824.809	5642
824.949	5672
825.089	5611
825.228	5554
825.368	5391
825.508	5368
825.648	5296
825.787	5341
825.927	5364
826.067	5273
826.206	5334
826.346	5353
826.485	5379
826.625	5417
826.765	5520
826.904	5417
827.044	5254
827.183	5189
827.323	5102
827.462	5155
827.601	5178
827.741	5151
827.88	5235
828.02	5056
828.159	5220
828.298	5220
828.437	5349
828.577	5258
828.716	5440
828.855	5303
828.994	5216
829.134	5162
829.273	5189
829.412	5117
829.551	5124
829.69	5086
829.829	5261
829.968	5334
830.107	5288
830.246	5288
830.385	5155
830.524	5056
830.663	5109
830.802	4995
830.941	4934
831.08	4900
831.219	4961
831.357	4976
831.496	5151
831.635	4927
831.774	4854
831.913	4870
832.051	4725
832.19	4763
832.329	4809
832.467	4736
832.606	4622
832.744	4710
832.883	4721
833.022	4740
833.16	4774
833.299	4824
833.437	4824
833.576	4793
833.714	4843
833.852	4862
833.991	4885
834.129	4949
834.267	4957
834.406	4930
834.544	4976
834.682	4987
834.821	4946
834.959	5155
835.097	4980
835.235	5159
835.373	5071
835.511	5143
835.65	5025
835.788	5010
835.926	4911
836.064	4870
836.202	4949
836.34	5174
836.478	5223
836.615	5086
836.753	5197
836.891	5299
837.029	5223
837.167	5261
837.305	5124
837.443	5166
837.58	5014
837.718	5269
837.856	5170
837.993	5159
838.131	5162
838.269	5204
838.406	5201
838.544	5208
838.681	5014
838.819	5048
838.956	4885
839.094	4885
839.231	4961
839.369	5045
839.506	5440
839.643	5265
839.781	5102
839.918	4934
840.055	5083
840.193	5102
840.33	5143
840.467	5124
840.604	5162
840.742	5406
840.879	5090
841.016	5079
841.153	5113
841.29	5311
841.427	5292
841.564	5345
841.701	5414
841.838	5284
841.975	5208
842.112	5227
842.249	5162
842.385	5113
842.522	5292
842.659	5143
842.796	5155
842.933	5193
843.069	5151
843.206	5136
843.343	5284
843.479	5239
843.616	5299
843.752	5025
843.889	4995
844.025	5197
844.162	4984
844.298	5181
844.435	5060
844.571	5045
844.708	5151
844.844	5330
844.98	5341
845.117	5273
845.253	5143
845.389	5041
845.525	5147
845.661	5094
845.798	5014
845.934	5136
846.07	5067
846.206	5166
846.342	5277
846.478	5170
846.614	5071
846.75	4949
846.886	4923
847.022	5162
847.158	4957
847.294	5060
847.429	5086
847.565	5045
847.701	5318
847.837	4824
847.972	4824
848.108	4923
848.244	4953
848.379	4755
848.515	4714
848.65	4694
848.786	4714
848.921	4771
849.057	4862
849.192	4892
849.328	4797
849.463	4843
849.598	4816
849.734	4714
849.869	4721
850.004	4618
850.14	4672
850.275	4641
850.41	4493
850.545	4538
850.68	4615
850.815	4664
850.95	4637
851.085	4778
851.22	4748
851.355	4710
851.49	4615
851.625	4660
851.76	4641
851.895	4577
852.03	4584
852.165	4649
852.299	4725
852.434	4812
852.569	4767
852.703	4767
852.838	4889
852.973	4911
853.107	4927
853.242	4721
853.376	4630
853.511	4538
853.645	4588
853.78	4774
853.914	4656
854.048	4653
854.183	4630
854.317	4702
854.451	4858
854.585	4668
854.72	4660
854.854	4725
854.988	4542
855.122	4637
855.256	4580
855.39	4649
855.524	4771
855.658	4755
855.792	4733
855.926	4759
856.06	4763
856.194	4790
856.327	4637
856.461	4580
856.595	4573
856.729	4588
856.862	4714
856.996	4679
857.13	4683
857.263	4778
857.397	4759
857.53	4706
857.664	4710
857.797	4755
857.931	4733
858.064	4710
858.197	4774
858.331	4656
858.464	4607
858.597	4535
858.731	4641
858.864	4660
858.997	4607
859.13	4653
859.263	4698
859.396	4691
859.529	4596
859.662	4569
859.795	4558
859.928	4641
860.061	4801
860.194	4702
860.327	4626
860.46	4516
860.592	4733
860.725	4664
860.858	4694
860.99	4577
861.123	4508
861.256	4523
861.388	4630
861.521	5440
861.653	4466
861.786	4466
861.918	4462
862.05	4504
862.183	4550
862.315	4580
862.447	4660
862.58	4531
862.712	4379
862.844	4329
862.976	4493
863.108	4432
863.24	4889
863.372	4352
863.504	4424
863.636	4375
863.768	4481
863.9	4417
864.032	4394
864.164	4360
864.296	4466
864.428	4573
864.559	4554
864.691	4455
864.823	4519
864.954	4459
865.086	4424
865.217	4447
865.349	4409
865.48	4489
865.612	4474
865.743	4637
865.875	4455
866.006	4409
866.137	4440
866.269	4440
866.4	4455
866.531	4371
866.662	4390
866.793	4386
866.924	4428
867.055	4478
867.186	4447
867.317	4398
867.448	4383
867.579	4424
867.71	4371
867.841	4341
867.972	4455
868.103	4474
868.233	4432
868.364	4436
868.495	4504
868.625	4687
868.756	4740
868.886	4569
869.017	4653
869.147	4759
869.278	4755
869.408	4660
869.539	4637
869.669	4714
869.799	4641
869.929	4771
870.06	4729
870.19	4946
870.32	4908
870.45	4900
870.58	4946
870.71	5086
870.84	5083
870.97	4946
871.1	4877
871.23	5132
871.36	5159
871.489	5003
871.619	5075
871.749	5056
871.879	5132
872.008	5136
872.138	5014
872.267	4976
872.397	4870
872.526	4831
872.656	4736
872.785	4854
872.915	4980
873.044	5025
873.173	4923
873.303	4942
873.432	4923
873.561	4942
873.69	4866
873.819	4923
873.948	4896
874.077	4778
874.206	4767
874.335	4812
874.464	4965
874.593	5045
874.722	4946
874.851	5079
874.979	5083
875.108	5010
875.237	4858
875.365	4889
875.494	4889
875.623	5006
875.751	4824
875.88	4900
876.008	4946
876.136	5003
876.265	5197
876.393	5299
876.521	5227
876.65	5220
876.778	5166
876.906	5025
877.034	5052
877.162	5067
877.29	4953
877.418	5045
877.546	4995
877.674	5052
877.802	5010
877.93	4976
878.058	4949
878.185	4885
878.313	4972
878.441	4949
878.568	4809
878.696	4885
878.824	4953
878.951	4980
879.079	5067
879.206	5277
879.333	5113
879.461	5079
879.588	4999
879.715	5109
879.842	5307
879.97	5006
880.097	4759
880.224	4771
880.351	4828
880.478	4824
880.605	4786
880.732	4793
880.859	5052
880.986	4889
881.112	4904
881.239	4755
881.366	4691
881.493	4603
881.619	4603
881.746	4622
881.872	4615
881.999	4630
882.125	4672
882.252	4759
882.378	4858
882.505	4946
882.631	4790
882.757	4649
882.883	4748
883.01	4710
883.136	4679
883.262	4592
883.388	4596
883.514	4820
883.64	4839
883.766	4786
883.892	4618
884.018	4683
884.143	4961
884.269	4980
884.395	4660
884.52	4603
884.646	4691
884.772	4603
884.897	4546
885.023	4615
885.148	4778
885.274	4850
885.399	4786
885.524	4752
885.65	4710
885.775	4694
885.9	4672
886.025	4877
886.15	4782
886.275	4721
886.4	4660
886.525	4691
886.65	4641
886.775	4683
886.9	4889
887.025	5029
887.149	4816
887.274	4641
887.399	4592
887.523	4569
887.648	4538
887.773	4558
887.897	4755
888.021	4782
888.146	4675
888.27	4839
888.395	4919
888.519	4767
888.643	4771
888.767	4835
888.891	4664
889.015	4611
889.139	4653
889.263	4569
889.387	4752
889.511	4839
889.635	4805
889.759	4675
889.883	4607
890.006	4714
890.13	4828
890.254	4668
890.377	4637
890.501	4523
890.624	4508
890.748	4603
890.871	4504
890.995	4432
891.118	4363
891.241	4558
891.364	4459
891.488	4664
891.611	4508
891.734	4550
891.857	4573
891.98	4523
892.103	4611
892.226	4561
892.349	4531
892.471	4405
892.594	4554
892.717	4592
892.839	4546
892.962	4580
893.085	4679
893.207	4561
893.33	4417
893.452	4516
893.575	4630
893.697	4554
893.819	4763
893.941	4809
894.064	4774
894.186	4546
894.308	4577
894.43	4733
894.552	4782
894.674	4683
894.796	4554
894.918	4607
895.04	4531
895.161	4653
895.283	4645
895.405	4588
895.526	4580
895.648	4717
895.769	4672
895.891	4706
896.012	4759
896.134	4744
896.255	4706
896.376	4634
896.498	4546
896.619	4660
896.74	4603
896.861	4653
896.982	4965
897.103	5079
897.224	4820
897.345	4710
897.466	4672
897.587	4759
897.708	4938
897.828	4828
897.949	4660
898.07	4542
898.19	4710
898.311	4858
898.431	4702
898.552	4778
898.672	4858
898.792	4847
898.913	4740
899.033	4656
899.153	4523
899.273	4436
899.393	4519
899.513	4542
899.633	4565
899.753	4546
899.873	4573
899.993	4618
900.113	4523
900.232	4687
900.352	4618
900.472	4504
900.591	4470
900.711	4516
900.83	4516
900.95	4656
901.069	4714
901.189	4596
901.308	4413
901.427	4322
901.546	4394
901.665	4485
901.784	4546
901.904	4459
902.023	4371
902.141	4246
902.26	4234
902.379	4322
902.498	4272
902.617	4299
902.735	4402
902.854	4432
902.973	4367
903.091	4238
903.21	4318
903.328	4306
903.446	4295
903.565	4295
903.683	4428
903.801	4344
903.919	4432
904.038	4470
904.156	4371
904.274	4512
904.392	4470
904.51	4466
904.627	4531
904.745	4649
904.863	4675
904.981	4432
905.098	4306
905.216	4383
905.334	4485
905.451	4485
905.569	4481
905.686	4618
905.803	4584
905.921	4462
906.038	4592
906.155	4493
906.272	4459
906.389	4523
906.506	4360
906.623	4421
906.74	4394
906.857	4337
906.974	4421
907.091	4592
907.208	4736
907.324	4588
907.441	4538
907.557	4371
907.674	4398
907.79	4325
907.907	4363
908.023	4497
908.139	4523
908.256	4462
908.372	4516
908.488	4459
908.604	4386
908.72	4318
908.836	4466
908.952	4405
909.068	4440
909.184	4607
909.3	4504
909.415	4603
909.531	4561
909.647	4356
909.762	4451
909.878	4375
909.993	4413
910.108	4440
910.224	4440
910.339	4504
910.454	4432
910.57	4367
910.685	4325
910.8	4733
910.915	4664
911.03	4531
911.145	4348
911.259	4333
911.374	4424
911.489	4318
911.604	4272
911.718	4246
911.833	4223
911.947	4135
912.062	4048
912.176	4257
912.291	4261
912.405	4329
912.519	4500
912.633	4550
912.748	4394
912.862	4325
912.976	4211
913.09	4177
913.204	4230
913.318	4276
913.431	4417
913.545	4421
913.659	4470
913.772	4371
913.886	4272
914	4268
914.113	4432
914.226	4462
914.34	4436
914.453	4310
914.566	4462
914.68	4337
914.793	4322
914.906	4211
915.019	4131
915.132	4101
915.245	4207
915.358	4234
915.47	4234
915.583	4287
915.696	4291
915.809	4424
915.921	4428
916.034	4299
916.146	4276
916.259	4249
916.371	4440
916.483	4348
916.595	4295
916.708	4390
916.82	4360
916.932	4383
917.044	4375
917.156	4322
917.268	4253
917.38	4310
917.491	4284
917.603	4394
917.715	4478
917.826	4451
917.938	4421
918.049	4284
918.161	4440
918.272	4550
918.384	4561
918.495	4489
918.606	4337
918.717	4303
918.828	4375
918.939	4405
919.05	4287
919.161	4348
919.272	4154
919.383	4287
919.494	4493
919.604	4637
919.715	4478
919.826	4402
919.936	4466
920.047	4565
920.157	4523
920.267	4702
920.378	4596
920.488	4516
920.598	4755
920.708	4904
920.818	4801
920.928	4736
921.038	5029
921.148	4908
921.258	4618
921.368	4565
921.477	4592
921.587	4474
921.697	4436
921.806	4596
921.916	4436
922.025	4265
922.134	4276
922.244	4219
922.353	4337
922.462	4188
922.571	4181
922.68	4021
922.789	4071
922.898	4105
923.007	4032
923.116	4150
923.224	4090
923.333	4139
923.442	3991
923.55	3998
923.659	4078
923.767	4105
923.876	4048
923.984	4120
924.092	4013
924.201	4112
924.309	4124
924.417	4150
924.525	4120
924.633	4109
924.741	5086
924.849	3911
924.956	4169
925.064	3994
925.172	3918
925.279	3964
925.387	4101
925.494	4124
925.602	4246
925.709	4196
925.816	4063
925.924	4188
926.031	4253
926.138	4219
926.245	4211
926.352	4166
926.459	4257
926.566	4310
926.673	4139
926.779	4120
926.886	4109
926.993	4017
927.099	3983
927.206	3972
927.312	3945
927.419	4101
927.525	4051
927.631	4131
927.737	4029
927.843	3937
927.95	3884
928.056	3945
928.162	3983
928.267	4086
928.373	4702
928.479	4128
928.585	3930
928.69	4082
928.796	4120
928.901	3998
929.007	3873
929.112	3998
929.218	3991
929.323	3975
929.428	3953
929.533	4143
929.638	3979
929.743	4013
929.848	4059
929.953	4036
930.058	3994
930.163	3793
930.267	3827
930.372	4029
930.477	3846
930.581	4116
930.685	3979
930.79	3892
930.894	3915
930.998	3892
931.103	4101
931.207	3747
931.311	3724
931.415	3717
931.519	3538
931.623	3572
