Data from test_V78500241_2712.txt Node
Date: Fri Mar 25 17:07:51 CST 2022
User: usil
Spectrometer: V785-0024
Trigger mode: 0
Integration Time (sec): 4.000000E-1
Scans to average: 1
Nonlinearity correction enabled: false
Boxcar width: 0
Storing dark spectrum: false
XAxis mode: Wavelengths
Number of Pixels in Spectrum: 1024
>>>>>Begin Spectral Data<<<<<
801.071	7986
801.214	7993
801.356	7868
801.499	7875
801.641	7871
801.783	7822
801.926	7940
802.068	7936
802.211	7989
802.353	8031
802.496	7913
802.638	7894
802.78	7951
802.923	7951
803.065	7860
803.208	7860
803.35	7913
803.492	8115
803.635	8126
803.777	8035
803.919	8168
804.061	8461
804.204	8161
804.346	8084
804.488	7974
804.63	8081
804.773	7986
804.915	8043
805.057	8324
805.199	8149
805.341	8202
805.483	8313
805.626	8240
805.768	8123
805.91	8195
806.052	8214
806.194	8119
806.336	8237
806.478	8100
806.62	8024
806.762	8168
806.904	8252
807.046	8434
807.188	8355
807.33	8320
807.472	8347
807.614	8149
807.756	8164
807.898	8005
808.04	7856
808.182	7845
808.324	7951
808.465	7982
808.607	8046
808.749	8180
808.891	8237
809.033	8366
809.174	8256
809.316	8119
809.458	8043
809.6	7982
809.741	8058
809.883	8069
810.025	8077
810.166	8119
810.308	8058
810.45	8024
810.591	7906
810.733	7757
810.875	7681
811.016	7567
811.158	7506
811.299	7594
811.441	7776
811.582	7734
811.724	7620
811.865	7556
812.007	7636
812.148	7563
812.29	7601
812.431	7761
812.573	7906
812.714	7963
812.855	8237
812.997	8191
813.138	8343
813.279	8168
813.421	8100
813.562	8001
813.703	7864
813.845	7780
813.986	7468
814.127	7266
814.268	7259
814.41	7175
814.551	7122
814.692	7297
814.833	7038
814.974	7103
815.115	7088
815.256	6932
815.397	6966
815.539	6958
815.68	6837
815.821	6798
815.962	6909
816.103	6859
816.244	6730
816.385	6631
816.526	6677
816.666	6593
816.807	6346
816.948	6441
817.089	6437
817.23	6441
817.371	6399
817.512	6403
817.653	6391
817.793	6353
817.934	6384
818.075	6399
818.216	6395
818.356	6422
818.497	6251
818.638	6106
818.778	6140
818.919	6091
819.06	6178
819.2	6285
819.341	6319
819.481	6334
819.622	6517
819.762	6734
819.903	6707
820.043	6654
820.184	6608
820.324	6620
820.465	6639
820.605	6631
820.746	6578
820.886	6544
821.026	6665
821.167	6707
821.307	6840
821.447	6837
821.588	6711
821.728	6555
821.868	6498
822.008	6338
822.149	6376
822.289	6323
822.429	6125
822.569	6072
822.709	6152
822.849	5885
822.99	5954
823.13	5931
823.27	5935
823.41	5767
823.55	5809
823.69	5794
823.83	5771
823.97	5688
824.11	5543
824.25	5535
824.389	5520
824.529	5623
824.669	5539
824.809	5630
824.949	5615
825.089	5634
825.228	5566
825.368	5440
825.508	5402
825.648	5387
825.787	5353
825.927	5433
826.067	5334
826.206	5299
826.346	5349
826.485	5414
826.625	5444
826.765	5562
826.904	5482
827.044	5273
827.183	5235
827.323	5128
827.462	5307
827.601	5162
827.741	5216
827.88	5250
828.02	5140
828.159	5303
828.298	5284
828.437	5406
828.577	5337
828.716	5524
828.855	5315
828.994	5155
829.134	5212
829.273	5269
829.412	5197
829.551	5086
829.69	5201
829.829	5269
829.968	5402
830.107	5303
830.246	5288
830.385	5193
830.524	5201
830.663	5094
830.802	4999
830.941	4949
831.08	4923
831.219	5067
831.357	5064
831.496	5159
831.635	4976
831.774	4896
831.913	4850
832.051	4755
832.19	4778
832.329	4904
832.467	4752
832.606	4634
832.744	4782
832.883	4744
833.022	4774
833.16	4862
833.299	4850
833.437	4843
833.576	4889
833.714	4892
833.852	4904
833.991	4968
834.129	5022
834.267	5033
834.406	4919
834.544	5045
834.682	5041
834.821	4999
834.959	5242
835.097	4984
835.235	5174
835.373	5143
835.511	5178
835.65	5025
835.788	5071
835.926	4991
836.064	4927
836.202	4984
836.34	5204
836.478	5239
836.615	5170
836.753	5288
836.891	5307
837.029	5258
837.167	5181
837.305	5204
837.443	5212
837.58	5174
837.718	5299
837.856	5254
837.993	5208
838.131	5277
838.269	5284
838.406	5231
838.544	5227
838.681	5075
838.819	5041
838.956	4946
839.094	4915
839.231	5025
839.369	5132
839.506	5474
839.643	5326
839.781	5136
839.918	5052
840.055	5147
840.193	5128
840.33	5132
840.467	5220
840.604	5242
840.742	5501
840.879	5083
841.016	5121
841.153	5178
841.29	5429
841.427	5383
841.564	5349
841.701	5440
841.838	5296
841.975	5201
842.112	5277
842.249	5159
842.385	5121
842.522	5383
842.659	5166
842.796	5204
842.933	5223
843.069	5178
843.206	5151
843.343	5357
843.479	5284
843.616	5292
843.752	5102
843.889	5060
844.025	5254
844.162	5033
844.298	5227
844.435	5128
844.571	5067
844.708	5201
844.844	5357
844.98	5299
845.117	5357
845.253	5208
845.389	5151
845.525	5208
845.661	5159
845.798	5060
845.934	5189
846.07	5079
846.206	5216
846.342	5315
846.478	5242
846.614	5045
846.75	5041
846.886	4972
847.022	5181
847.158	5098
847.294	5090
847.429	5124
847.565	5075
847.701	5292
847.837	4892
847.972	4831
848.108	5014
848.244	4995
848.379	4847
848.515	4740
848.65	4706
848.786	4774
848.921	4805
849.057	4908
849.192	4953
849.328	4885
849.463	4858
849.598	4862
849.734	4793
849.869	4752
850.004	4675
850.14	4710
850.275	4618
850.41	4523
850.545	4580
850.68	4634
850.815	4615
850.95	4645
851.085	4862
851.22	4816
851.355	4721
851.49	4679
851.625	4660
851.76	4645
851.895	4584
852.03	4615
852.165	4675
852.299	4702
852.434	4828
852.569	4812
852.703	4790
852.838	4847
852.973	5006
853.107	4965
853.242	4744
853.376	4721
853.511	4577
853.645	4672
853.78	4812
853.914	4664
854.048	4740
854.183	4683
854.317	4691
854.451	4881
854.585	4706
854.72	4729
854.854	4744
854.988	4622
855.122	4664
855.256	4577
855.39	4672
855.524	4763
855.658	4759
855.792	4733
855.926	4763
856.06	4801
856.194	4824
856.327	4675
856.461	4603
856.595	4626
856.729	4660
856.862	4778
856.996	4714
857.13	4736
857.263	4797
857.397	4809
857.53	4691
857.664	4759
857.797	4805
857.931	4740
858.064	4733
858.197	4752
858.331	4672
858.464	4664
858.597	4542
858.731	4694
858.864	4748
858.997	4611
859.13	4660
859.263	4706
859.396	4752
859.529	4626
859.662	4649
859.795	4584
859.928	4653
860.061	4786
860.194	4847
860.327	4641
860.46	4607
860.592	4748
860.725	4721
860.858	4759
860.99	4618
861.123	4603
861.256	4569
861.388	4630
861.521	5341
861.653	4535
861.786	4504
861.918	4527
862.05	4489
862.183	4577
862.315	4634
862.447	4729
862.58	4592
862.712	4390
862.844	4329
862.976	4512
863.108	4516
863.24	4790
863.372	4379
863.504	4451
863.636	4432
863.768	4443
863.9	4459
864.032	4394
864.164	4493
864.296	4478
864.428	4618
864.559	4599
864.691	4561
864.823	4554
864.954	4489
865.086	4516
865.217	4474
865.349	4459
865.48	4489
865.612	4523
865.743	4653
865.875	4481
866.006	4462
866.137	4527
866.269	4470
866.4	4474
866.531	4428
866.662	4379
866.793	4466
866.924	4459
867.055	4519
867.186	4493
867.317	4508
867.448	4398
867.579	4409
867.71	4375
867.841	4356
867.972	4512
868.103	4470
868.233	4474
868.364	4466
868.495	4470
868.625	4679
868.756	4782
868.886	4573
869.017	4656
869.147	4816
869.278	4782
869.408	4653
869.539	4660
869.669	4729
869.799	4675
869.929	4782
870.06	4748
870.19	4896
870.32	4930
870.45	5006
870.58	5045
870.71	5105
870.84	5147
870.97	4961
871.1	4957
871.23	5181
871.36	5201
871.489	5010
871.619	5079
871.749	5083
871.879	5147
872.008	5223
872.138	5041
872.267	5029
872.397	4911
872.526	4793
872.656	4774
872.785	4809
872.915	4965
873.044	4987
873.173	4930
873.303	5075
873.432	4942
873.561	4961
873.69	4896
873.819	4866
873.948	4968
874.077	4858
874.206	4839
874.335	4820
874.464	4968
874.593	5067
874.722	4995
874.851	5083
874.979	5075
875.108	5128
875.237	4976
875.365	4930
875.494	4934
875.623	5003
875.751	4866
875.88	4938
876.008	4972
876.136	5041
876.265	5204
876.393	5387
876.521	5277
876.65	5197
876.778	5143
876.906	5121
877.034	5083
877.162	5037
877.29	4999
877.418	5029
877.546	5052
877.674	5060
877.802	5025
877.93	5071
878.058	4972
878.185	4900
878.313	5018
878.441	5010
878.568	4850
878.696	4908
878.824	4968
878.951	5048
879.079	5147
879.206	5284
879.333	5140
879.461	5022
879.588	5025
879.715	5102
879.842	5223
879.97	5064
880.097	4820
880.224	4812
880.351	4824
880.478	4870
880.605	4790
880.732	4767
880.859	5083
880.986	4968
881.112	4930
881.239	4870
881.366	4771
881.493	4622
881.619	4622
881.746	4675
881.872	4702
881.999	4725
882.125	4694
882.252	4847
882.378	4809
882.505	4980
882.631	4793
882.757	4691
882.883	4725
883.01	4710
883.136	4668
883.262	4645
883.388	4618
883.514	4847
883.64	4858
883.766	4820
883.892	4649
884.018	4717
884.143	4904
884.269	5041
884.395	4683
884.52	4664
884.646	4675
884.772	4611
884.897	4538
885.023	4710
885.148	4816
885.274	4854
885.399	4854
885.524	4755
885.65	4698
885.775	4687
885.9	4752
886.025	4889
886.15	4809
886.275	4729
886.4	4668
886.525	4755
886.65	4668
886.775	4721
886.9	4953
887.025	5090
887.149	4824
887.274	4710
887.399	4672
887.523	4698
887.648	4577
887.773	4569
887.897	4809
888.021	4801
888.146	4710
888.27	4858
888.395	4919
888.519	4790
888.643	4839
888.767	4812
888.891	4679
889.015	4611
889.139	4698
889.263	4554
889.387	4721
889.511	4892
889.635	4786
889.759	4649
889.883	4698
890.006	4736
890.13	4847
890.254	4634
890.377	4660
890.501	4584
890.624	4519
890.748	4611
890.871	4569
890.995	4447
891.118	4443
891.241	4561
891.364	4599
891.488	4664
891.611	4497
891.734	4573
891.857	4588
891.98	4596
892.103	4683
892.226	4626
892.349	4569
892.471	4466
892.594	4565
892.717	4596
892.839	4637
892.962	4607
893.085	4694
893.207	4550
893.33	4474
893.452	4565
893.575	4664
893.697	4603
893.819	4850
893.941	4831
894.064	4778
894.186	4554
894.308	4622
894.43	4744
894.552	4778
894.674	4767
894.796	4592
894.918	4630
895.04	4577
895.161	4698
895.283	4698
895.405	4569
895.526	4634
895.648	4687
895.769	4717
895.891	4721
896.012	4706
896.134	4725
896.255	4759
896.376	4618
896.498	4691
896.619	4675
896.74	4630
896.861	4615
896.982	4949
897.103	5056
897.224	4854
897.345	4771
897.466	4683
897.587	4714
897.708	4881
897.828	4828
897.949	4675
898.07	4626
898.19	4615
898.311	4828
898.431	4683
898.552	4771
898.672	4828
898.792	4839
898.913	4786
899.033	4634
899.153	4500
899.273	4428
899.393	4512
899.513	4538
899.633	4542
899.753	4561
899.873	4531
899.993	4588
900.113	4592
900.232	4596
900.352	4592
900.472	4481
900.591	4398
900.711	4558
900.83	4474
900.95	4596
901.069	4710
901.189	4569
901.308	4390
901.427	4344
901.546	4352
901.665	4462
901.784	4504
901.904	4398
902.023	4329
902.141	4200
902.26	4177
902.379	4303
902.498	4253
902.617	4192
902.735	4352
902.854	4402
902.973	4356
903.091	4253
903.21	4272
903.328	4295
903.446	4325
903.565	4253
903.683	4348
903.801	4272
903.919	4421
904.038	4481
904.156	4291
904.274	4481
904.392	4474
904.51	4462
904.627	4493
904.745	4592
904.863	4622
904.981	4459
905.098	4348
905.216	4383
905.334	4462
905.451	4443
905.569	4421
905.686	4527
905.803	4573
905.921	4424
906.038	4565
906.155	4474
906.272	4432
906.389	4519
906.506	4356
906.623	4398
906.74	4402
906.857	4325
906.974	4405
907.091	4561
907.208	4660
907.324	4668
907.441	4493
907.557	4356
907.674	4371
907.79	4360
907.907	4405
908.023	4478
908.139	4500
908.256	4421
908.372	4504
908.488	4447
908.604	4356
908.72	4356
908.836	4367
908.952	4386
909.068	4436
909.184	4569
909.3	4497
909.415	4596
909.531	4592
909.647	4371
909.762	4394
909.878	4371
909.993	4447
910.108	4424
910.224	4424
910.339	4478
910.454	4436
910.57	4379
910.685	4310
910.8	4626
910.915	4561
911.03	4550
911.145	4325
911.259	4352
911.374	4363
911.489	4325
911.604	4344
911.718	4162
911.833	4169
911.947	4109
912.062	4086
912.176	4230
912.291	4246
912.405	4230
912.519	4493
912.633	4519
912.748	4375
912.862	4341
912.976	4192
913.09	4082
913.204	4192
913.318	4265
913.431	4390
913.545	4356
913.659	4470
913.772	4394
913.886	4287
914	4249
914.113	4390
914.226	4421
914.34	4424
914.453	4261
914.566	4443
914.68	4314
914.793	4333
914.906	4166
915.019	4139
915.132	4105
915.245	4211
915.358	4196
915.47	4242
915.583	4276
915.696	4341
915.809	4402
915.921	4459
916.034	4299
916.146	4314
916.259	4200
916.371	4383
916.483	4333
916.595	4280
916.708	4337
916.82	4284
916.932	4360
917.044	4352
917.156	4386
917.268	4268
917.38	4318
917.491	4360
917.603	4314
917.715	4413
917.826	4451
917.938	4363
918.049	4261
918.161	4402
918.272	4550
918.384	4588
918.495	4478
918.606	4329
918.717	4227
918.828	4379
918.939	4383
919.05	4295
919.161	4333
919.272	4162
919.383	4227
919.494	4474
919.604	4660
919.715	4428
919.826	4329
919.936	4394
920.047	4561
920.157	4485
920.267	4744
920.378	4565
920.488	4550
920.598	4683
920.708	4915
920.818	4771
920.928	4771
921.038	4976
921.148	4946
921.258	4691
921.368	4554
921.477	4504
921.587	4451
921.697	4402
921.806	4561
921.916	4459
922.025	4284
922.134	4211
922.244	4276
922.353	4356
922.462	4204
922.571	4105
922.68	4002
922.789	3945
922.898	4010
923.007	3994
923.116	4082
923.224	4048
923.333	4105
923.442	3987
923.55	3998
923.659	4055
923.767	4082
923.876	3983
923.984	4139
924.092	3987
924.201	4063
924.309	4093
924.417	4131
924.525	4032
924.633	4105
924.741	5079
924.849	3949
924.956	4135
925.064	3972
925.172	3857
925.279	3964
925.387	4025
925.494	4071
925.602	4200
925.709	4215
925.816	3998
925.924	4105
926.031	4185
926.138	4185
926.245	4238
926.352	4059
926.459	4257
926.566	4276
926.673	4135
926.779	4112
926.886	4105
926.993	3953
927.099	3968
927.206	3937
927.312	3945
927.419	4029
927.525	4036
927.631	4112
927.737	3949
927.843	3907
927.95	3869
928.056	3937
928.162	3975
928.267	4082
928.373	4596
928.479	4116
928.585	3915
928.69	4025
928.796	4078
928.901	3998
929.007	3876
929.112	3968
929.218	3991
929.323	3964
929.428	3987
929.533	4131
929.638	3911
929.743	3930
929.848	4040
929.953	3994
930.058	3949
930.163	3785
930.267	3793
930.372	3941
930.477	3785
930.581	4093
930.685	3949
930.79	3778
930.894	3850
930.998	3861
931.103	4048
931.207	3766
931.311	3709
931.415	3652
931.519	3549
931.623	3561
