Data from test_V78500241_1014.txt Node
Date: Fri Mar 25 16:56:03 CST 2022
User: usil
Spectrometer: V785-0024
Trigger mode: 0
Integration Time (sec): 4.000000E-1
Scans to average: 1
Nonlinearity correction enabled: false
Boxcar width: 0
Storing dark spectrum: false
XAxis mode: Wavelengths
Number of Pixels in Spectrum: 1024
>>>>>Begin Spectral Data<<<<<
801.071	8012
801.214	8043
801.356	7860
801.499	7792
801.641	7803
801.783	7753
801.926	7944
802.068	7894
802.211	7871
802.353	7932
802.496	7803
802.638	7822
802.78	7925
802.923	7940
803.065	7864
803.208	7841
803.35	8008
803.492	8130
803.635	8183
803.777	8031
803.919	8077
804.061	8431
804.204	8142
804.346	8081
804.488	7928
804.63	8054
804.773	7997
804.915	8073
805.057	8332
805.199	8176
805.341	8195
805.483	8286
805.626	8187
805.768	8107
805.91	8157
806.052	8202
806.194	8092
806.336	8256
806.478	8115
806.62	8039
806.762	8138
806.904	8244
807.046	8473
807.188	8298
807.33	8275
807.472	8290
807.614	8092
807.756	8100
807.898	8046
808.04	7947
808.182	7932
808.324	7860
808.465	7811
808.607	8073
808.749	8027
808.891	8157
809.033	8240
809.174	8149
809.316	8016
809.458	8054
809.6	8020
809.741	7978
809.883	8024
810.025	8065
810.166	8024
810.308	8012
810.45	8005
810.591	7849
810.733	7708
810.875	7613
811.016	7529
811.158	7422
811.299	7651
811.441	7734
811.582	7753
811.724	7601
811.865	7491
812.007	7582
812.148	7594
812.29	7613
812.431	7712
812.573	7875
812.714	7951
812.855	8054
812.997	8233
813.138	8347
813.279	8115
813.421	8088
813.562	7970
813.703	7898
813.845	7761
813.986	7415
814.127	7289
814.268	7175
814.41	7164
814.551	7137
814.692	7126
814.833	7050
814.974	7057
815.115	7076
815.256	6966
815.397	6916
815.539	6973
815.68	6783
815.821	6741
815.962	6863
816.103	6825
816.244	6658
816.385	6627
816.526	6601
816.666	6464
816.807	6315
816.948	6410
817.089	6494
817.23	6490
817.371	6422
817.512	6407
817.653	6353
817.793	6319
817.934	6384
818.075	6528
818.216	6445
818.356	6399
818.497	6213
818.638	6163
818.778	6102
818.919	6140
819.06	6148
819.2	6247
819.341	6311
819.481	6407
819.622	6532
819.762	6692
819.903	6601
820.043	6646
820.184	6528
820.324	6582
820.465	6650
820.605	6646
820.746	6574
820.886	6464
821.026	6642
821.167	6681
821.307	6753
821.447	6757
821.588	6635
821.728	6635
821.868	6479
822.008	6346
822.149	6338
822.289	6334
822.429	6178
822.569	6098
822.709	6144
822.849	5901
822.99	5946
823.13	5863
823.27	5904
823.41	5775
823.55	5809
823.69	5767
823.83	5748
823.97	5604
824.11	5486
824.25	5440
824.389	5573
824.529	5543
824.669	5535
824.809	5638
824.949	5649
825.089	5615
825.228	5543
825.368	5379
825.508	5368
825.648	5330
825.787	5395
825.927	5364
826.067	5277
826.206	5292
826.346	5436
826.485	5417
826.625	5387
826.765	5528
826.904	5474
827.044	5250
827.183	5197
827.323	5102
827.462	5227
827.601	5197
827.741	5132
827.88	5178
828.02	5121
828.159	5258
828.298	5284
828.437	5349
828.577	5254
828.716	5467
828.855	5288
828.994	5193
829.134	5147
829.273	5178
829.412	5124
829.551	5124
829.69	5121
829.829	5246
829.968	5414
830.107	5258
830.246	5246
830.385	5151
830.524	5098
830.663	5064
830.802	4949
830.941	4881
831.08	4847
831.219	4938
831.357	4957
831.496	5185
831.635	4968
831.774	4805
831.913	4835
832.051	4687
832.19	4774
832.329	4847
832.467	4702
832.606	4592
832.744	4714
832.883	4729
833.022	4714
833.16	4774
833.299	4790
833.437	4793
833.576	4831
833.714	4797
833.852	4885
833.991	4870
834.129	4919
834.267	4946
834.406	4908
834.544	4957
834.682	4953
834.821	4923
834.959	5121
835.097	5018
835.235	5143
835.373	5166
835.511	5071
835.65	5037
835.788	5010
835.926	4900
836.064	4889
836.202	4911
836.34	5140
836.478	5239
836.615	5071
836.753	5197
836.891	5318
837.029	5235
837.167	5189
837.305	5159
837.443	5140
837.58	5060
837.718	5239
837.856	5174
837.993	5117
838.131	5193
838.269	5166
838.406	5185
838.544	5174
838.681	5064
838.819	4984
838.956	4896
839.094	4850
839.231	4980
839.369	5067
839.506	5410
839.643	5280
839.781	5041
839.918	5045
840.055	5056
840.193	5086
840.33	5124
840.467	5140
840.604	5185
840.742	5440
840.879	5064
841.016	5029
841.153	5140
841.29	5376
841.427	5372
841.564	5311
841.701	5330
841.838	5235
841.975	5147
842.112	5220
842.249	5105
842.385	5117
842.522	5303
842.659	5185
842.796	5132
842.933	5181
843.069	5128
843.206	5079
843.343	5315
843.479	5201
843.616	5258
843.752	4965
843.889	4980
844.025	5223
844.162	4995
844.298	5174
844.435	5052
844.571	5056
844.708	5159
844.844	5273
844.98	5345
845.117	5227
845.253	5132
845.389	5056
845.525	5124
845.661	5113
845.798	5025
845.934	5140
846.07	5025
846.206	5197
846.342	5227
846.478	5132
846.614	5037
846.75	5010
846.886	4968
847.022	5121
847.158	5018
847.294	5071
847.429	5094
847.565	5003
847.701	5288
847.837	4831
847.972	4790
848.108	4908
848.244	4908
848.379	4782
848.515	4733
848.65	4691
848.786	4660
848.921	4702
849.057	4850
849.192	4854
849.328	4809
849.463	4854
849.598	4748
849.734	4721
849.869	4740
850.004	4611
850.14	4675
850.275	4596
850.41	4504
850.545	4527
850.68	4603
850.815	4630
850.95	4622
851.085	4850
851.22	4759
851.355	4649
851.49	4565
851.625	4626
851.76	4660
851.895	4516
852.03	4546
852.165	4641
852.299	4645
852.434	4759
852.569	4752
852.703	4706
852.838	4820
852.973	4949
853.107	4919
853.242	4736
853.376	4622
853.511	4527
853.645	4653
853.78	4782
853.914	4675
854.048	4618
854.183	4664
854.317	4714
854.451	4828
854.585	4702
854.72	4641
854.854	4736
854.988	4565
855.122	4637
855.256	4523
855.39	4679
855.524	4805
855.658	4683
855.792	4691
855.926	4733
856.06	4698
856.194	4797
856.327	4687
856.461	4588
856.595	4588
856.729	4622
856.862	4736
856.996	4645
857.13	4714
857.263	4752
857.397	4797
857.53	4660
857.664	4714
857.797	4721
857.931	4767
858.064	4691
858.197	4706
858.331	4641
858.464	4592
858.597	4500
858.731	4634
858.864	4630
858.997	4569
859.13	4645
859.263	4634
859.396	4729
859.529	4569
859.662	4584
859.795	4500
859.928	4641
860.061	4706
860.194	4755
860.327	4607
860.46	4565
860.592	4679
860.725	4748
860.858	4698
860.99	4565
861.123	4531
861.256	4455
861.388	4599
861.521	5284
861.653	4485
861.786	4436
861.918	4428
862.05	4523
862.183	4580
862.315	4607
862.447	4649
862.58	4550
862.712	4383
862.844	4284
862.976	4443
863.108	4428
863.24	4862
863.372	4318
863.504	4459
863.636	4367
863.768	4462
863.9	4459
864.032	4333
864.164	4383
864.296	4500
864.428	4519
864.559	4527
864.691	4546
864.823	4531
864.954	4462
865.086	4489
865.217	4470
865.349	4371
865.48	4455
865.612	4462
865.743	4615
865.875	4451
866.006	4432
866.137	4485
866.269	4417
866.4	4383
866.531	4421
866.662	4367
866.793	4405
866.924	4379
867.055	4459
867.186	4428
867.317	4390
867.448	4314
867.579	4413
867.71	4352
867.841	4375
867.972	4462
868.103	4421
868.233	4413
868.364	4443
868.495	4500
868.625	4611
868.756	4706
868.886	4580
869.017	4626
869.147	4698
869.278	4774
869.408	4618
869.539	4607
869.669	4687
869.799	4653
869.929	4740
870.06	4710
870.19	4965
870.32	4934
870.45	4923
870.58	5014
870.71	5159
870.84	5128
870.97	5010
871.1	4892
871.23	5132
871.36	5071
871.489	5060
871.619	5105
871.749	5102
871.879	5117
872.008	5193
872.138	4999
872.267	4980
872.397	4862
872.526	4828
872.656	4714
872.785	4824
872.915	4946
873.044	5014
873.173	4927
873.303	4919
873.432	4942
873.561	4919
873.69	4892
873.819	4824
873.948	4885
874.077	4790
874.206	4733
874.335	4805
874.464	4930
874.593	5010
874.722	4930
874.851	5083
874.979	5090
875.108	5014
875.237	4946
875.365	4805
875.494	4862
875.623	4953
875.751	4809
875.88	4896
876.008	4987
876.136	4961
876.265	5204
876.393	5341
876.521	5208
876.65	5284
876.778	5132
876.906	5037
877.034	5014
877.162	5086
877.29	4934
877.418	5037
877.546	5006
877.674	5018
877.802	5018
877.93	5025
878.058	4938
878.185	4850
878.313	5003
878.441	4934
878.568	4774
878.696	4843
878.824	4942
878.951	4938
879.079	5132
879.206	5296
879.333	5098
879.461	4927
879.588	4942
879.715	5052
879.842	5189
879.97	5052
880.097	4782
880.224	4706
880.351	4801
880.478	4858
880.605	4786
880.732	4767
880.859	5048
880.986	4923
881.112	4854
881.239	4755
881.366	4626
881.493	4588
881.619	4615
881.746	4596
881.872	4641
881.999	4687
882.125	4687
882.252	4782
882.378	4805
882.505	4976
882.631	4835
882.757	4702
882.883	4687
883.01	4736
883.136	4679
883.262	4550
883.388	4592
883.514	4797
883.64	4816
883.766	4759
883.892	4687
884.018	4725
884.143	4854
884.269	5010
884.395	4668
884.52	4622
884.646	4630
884.772	4588
884.897	4558
885.023	4645
885.148	4771
885.274	4858
885.399	4740
885.524	4717
885.65	4698
885.775	4691
885.9	4687
886.025	4847
886.15	4725
886.275	4691
886.4	4733
886.525	4721
886.65	4691
886.775	4698
886.9	4896
887.025	4999
887.149	4774
887.274	4596
887.399	4561
887.523	4599
887.648	4592
887.773	4596
887.897	4710
888.021	4786
888.146	4740
888.27	4797
888.395	4900
888.519	4809
888.643	4790
888.767	4782
888.891	4679
889.015	4573
889.139	4645
889.263	4569
889.387	4725
889.511	4862
889.635	4797
889.759	4630
889.883	4645
890.006	4755
890.13	4850
890.254	4607
890.377	4618
890.501	4527
890.624	4538
890.748	4603
890.871	4508
890.995	4417
891.118	4356
891.241	4504
891.364	4584
891.488	4580
891.611	4451
891.734	4531
891.857	4561
891.98	4527
892.103	4622
892.226	4599
892.349	4500
892.471	4421
892.594	4508
892.717	4630
892.839	4565
892.962	4565
893.085	4611
893.207	4531
893.33	4459
893.452	4527
893.575	4660
893.697	4584
893.819	4759
893.941	4820
894.064	4793
894.186	4561
894.308	4546
894.43	4706
894.552	4828
894.674	4759
894.796	4504
894.918	4550
895.04	4561
895.161	4733
895.283	4634
895.405	4569
895.526	4603
895.648	4698
895.769	4675
895.891	4675
896.012	4714
896.134	4668
896.255	4679
896.376	4630
896.498	4615
896.619	4664
896.74	4607
896.861	4622
896.982	4904
897.103	5045
897.224	4797
897.345	4786
897.466	4679
897.587	4710
897.708	4847
897.828	4767
897.949	4645
898.07	4538
898.19	4630
898.311	4767
898.431	4645
898.552	4736
898.672	4828
898.792	4786
898.913	4721
899.033	4630
899.153	4504
899.273	4379
899.393	4466
899.513	4519
899.633	4603
899.753	4500
899.873	4481
899.993	4588
900.113	4516
900.232	4569
900.352	4558
900.472	4523
900.591	4409
900.711	4474
900.83	4402
900.95	4649
901.069	4702
901.189	4580
901.308	4360
901.427	4284
901.546	4398
901.665	4497
901.784	4516
901.904	4386
902.023	4322
902.141	4215
902.26	4181
902.379	4325
902.498	4223
902.617	4169
902.735	4363
902.854	4363
902.973	4379
903.091	4200
903.21	4227
903.328	4246
903.446	4272
903.565	4280
903.683	4356
903.801	4234
903.919	4383
904.038	4451
904.156	4303
904.274	4443
904.392	4367
904.51	4436
904.627	4470
904.745	4611
904.863	4599
904.981	4348
905.098	4333
905.216	4344
905.334	4459
905.451	4398
905.569	4421
905.686	4527
905.803	4599
905.921	4383
906.038	4535
906.155	4485
906.272	4421
906.389	4462
906.506	4344
906.623	4371
906.74	4371
906.857	4265
906.974	4303
907.091	4577
907.208	4634
907.324	4599
907.441	4527
907.557	4360
907.674	4333
907.79	4261
907.907	4413
908.023	4462
908.139	4436
908.256	4417
908.372	4485
908.488	4447
908.604	4348
908.72	4268
908.836	4375
908.952	4344
909.068	4363
909.184	4561
909.3	4440
909.415	4611
909.531	4561
909.647	4356
909.762	4360
909.878	4329
909.993	4405
910.108	4386
910.224	4421
910.339	4497
910.454	4402
910.57	4367
910.685	4280
910.8	4683
910.915	4596
911.03	4512
911.145	4329
911.259	4299
911.374	4352
911.489	4246
911.604	4257
911.718	4131
911.833	4207
911.947	4067
912.062	3983
912.176	4246
912.291	4265
912.405	4268
912.519	4485
912.633	4497
912.748	4383
912.862	4303
912.976	4211
913.09	4105
913.204	4173
913.318	4227
913.431	4371
913.545	4379
913.659	4405
913.772	4337
913.886	4257
914	4253
914.113	4398
914.226	4447
914.34	4379
914.453	4253
914.566	4432
914.68	4280
914.793	4375
914.906	4135
915.019	4112
915.132	4048
915.245	4169
915.358	4215
915.47	4230
915.583	4261
915.696	4314
915.809	4398
915.921	4440
916.034	4291
916.146	4306
916.259	4219
916.371	4310
916.483	4348
916.595	4265
916.708	4306
916.82	4284
916.932	4303
917.044	4363
917.156	4356
917.268	4268
917.38	4276
917.491	4257
917.603	4352
917.715	4424
917.826	4443
917.938	4291
918.049	4204
918.161	4394
918.272	4538
918.384	4493
918.495	4466
918.606	4291
918.717	4207
918.828	4310
918.939	4367
919.05	4227
919.161	4337
919.272	4093
919.383	4196
919.494	4421
919.604	4611
919.715	4455
919.826	4356
919.936	4405
920.047	4485
920.157	4519
920.267	4691
920.378	4561
920.488	4478
920.598	4683
920.708	4911
920.818	4755
920.928	4729
921.038	4980
921.148	4881
921.258	4630
921.368	4546
921.477	4538
921.587	4462
921.697	4371
921.806	4519
921.916	4417
922.025	4272
922.134	4310
922.244	4169
922.353	4348
922.462	4169
922.571	4116
922.68	3994
922.789	3937
922.898	3998
923.007	3960
923.116	4059
923.224	4048
923.333	4101
923.442	3994
923.55	3991
923.659	4044
923.767	4082
923.876	4025
923.984	4120
924.092	4051
924.201	4090
924.309	4082
924.417	4135
924.525	4010
924.633	4105
924.741	5041
924.849	3926
924.956	4128
925.064	3975
925.172	3903
925.279	3956
925.387	4040
925.494	4055
925.602	4188
925.709	4158
925.816	4032
925.924	4147
926.031	4185
926.138	4143
926.245	4230
926.352	4090
926.459	4276
926.566	4261
926.673	4181
926.779	4078
926.886	4082
926.993	3991
927.099	3953
927.206	3930
927.312	3918
927.419	4055
927.525	4021
927.631	4017
927.737	3937
927.843	3922
927.95	3804
928.056	3953
928.162	3960
928.267	4063
928.373	4733
928.479	4135
928.585	3854
928.69	4017
928.796	4063
928.901	3983
929.007	3838
929.112	4017
929.218	4036
929.323	3949
929.428	3934
929.533	4090
929.638	3911
929.743	3953
929.848	4029
929.953	3979
930.058	3937
930.163	3778
930.267	3842
930.372	3953
930.477	3831
930.581	4120
930.685	3964
930.79	3838
930.894	3865
930.998	3785
931.103	4051
931.207	3713
931.311	3698
931.415	3675
931.519	3538
931.623	3515
