Data from test_V78500241_925.txt Node
Date: Fri Mar 25 16:55:26 CST 2022
User: usil
Spectrometer: V785-0024
Trigger mode: 0
Integration Time (sec): 4.000000E-1
Scans to average: 1
Nonlinearity correction enabled: false
Boxcar width: 0
Storing dark spectrum: false
XAxis mode: Wavelengths
Number of Pixels in Spectrum: 1024
>>>>>Begin Spectral Data<<<<<
801.071	7986
801.214	8046
801.356	7856
801.499	7925
801.641	7780
801.783	7818
801.926	7951
802.068	7852
802.211	7947
802.353	7947
802.496	7818
802.638	7883
802.78	7849
802.923	7906
803.065	7890
803.208	7925
803.35	8050
803.492	8073
803.635	8161
803.777	8005
803.919	8088
804.061	8427
804.204	8069
804.346	8046
804.488	7879
804.63	8103
804.773	7970
804.915	8164
805.057	8309
805.199	8164
805.341	8240
805.483	8252
805.626	8214
805.768	8096
805.91	8229
806.052	8218
806.194	8088
806.336	8377
806.478	8096
806.62	8035
806.762	8138
806.904	8259
807.046	8461
807.188	8256
807.33	8317
807.472	8317
807.614	8168
807.756	8088
807.898	8012
808.04	7868
808.182	7871
808.324	7833
808.465	7890
808.607	8050
808.749	8065
808.891	8218
809.033	8279
809.174	8183
809.316	8031
809.458	7993
809.6	7947
809.741	8039
809.883	8058
810.025	8134
810.166	8069
810.308	8027
810.45	8043
810.591	7875
810.733	7727
810.875	7613
811.016	7502
811.158	7476
811.299	7525
811.441	7715
811.582	7696
811.724	7567
811.865	7533
812.007	7552
812.148	7620
812.29	7616
812.431	7738
812.573	7750
812.714	7928
812.855	8103
812.997	8199
813.138	8221
813.279	8149
813.421	8115
813.562	7997
813.703	7959
813.845	7734
813.986	7487
814.127	7327
814.268	7217
814.41	7171
814.551	7149
814.692	7171
814.833	7076
814.974	7126
815.115	7145
815.256	7000
815.397	6878
815.539	6913
815.68	6818
815.821	6821
815.962	6802
816.103	6795
816.244	6707
816.385	6585
816.526	6627
816.666	6517
816.807	6247
816.948	6490
817.089	6521
817.23	6475
817.371	6388
817.512	6384
817.653	6357
817.793	6422
817.934	6388
818.075	6429
818.216	6445
818.356	6350
818.497	6251
818.638	6068
818.778	6159
818.919	6152
819.06	6129
819.2	6247
819.341	6273
819.481	6365
819.622	6517
819.762	6696
819.903	6658
820.043	6574
820.184	6540
820.324	6563
820.465	6692
820.605	6719
820.746	6612
820.886	6464
821.026	6616
821.167	6665
821.307	6791
821.447	6749
821.588	6612
821.728	6601
821.868	6471
822.008	6346
822.149	6395
822.289	6331
822.429	6125
822.569	6110
822.709	6057
822.849	5832
822.99	5920
823.13	5942
823.27	5878
823.41	5805
823.55	5824
823.69	5798
823.83	5775
823.97	5619
824.11	5535
824.25	5554
824.389	5535
824.529	5592
824.669	5505
824.809	5611
824.949	5699
825.089	5619
825.228	5532
825.368	5376
825.508	5353
825.648	5292
825.787	5334
825.927	5345
826.067	5288
826.206	5299
826.346	5398
826.485	5425
826.625	5345
826.765	5535
826.904	5486
827.044	5239
827.183	5204
827.323	5159
827.462	5193
827.601	5174
827.741	5193
827.88	5201
828.02	5048
828.159	5208
828.298	5246
828.437	5357
828.577	5223
828.716	5406
828.855	5288
828.994	5105
829.134	5105
829.273	5147
829.412	5140
829.551	5136
829.69	5140
829.829	5174
829.968	5368
830.107	5258
830.246	5303
830.385	5143
830.524	5060
830.663	5079
830.802	4972
830.941	4885
831.08	4862
831.219	4984
831.357	4923
831.496	5189
831.635	4892
831.774	4755
831.913	4835
832.051	4714
832.19	4759
832.329	4828
832.467	4694
832.606	4641
832.744	4714
832.883	4683
833.022	4725
833.16	4759
833.299	4816
833.437	4824
833.576	4892
833.714	4839
833.852	4870
833.991	4938
834.129	4957
834.267	4942
834.406	4847
834.544	4965
834.682	4904
834.821	4915
834.959	5162
835.097	4972
835.235	5117
835.373	5064
835.511	5140
835.65	4987
835.788	4999
835.926	4862
836.064	4892
836.202	4873
836.34	5121
836.478	5235
836.615	5128
836.753	5143
836.891	5220
837.029	5246
837.167	5185
837.305	5136
837.443	5147
837.58	5090
837.718	5277
837.856	5208
837.993	5132
838.131	5208
838.269	5193
838.406	5193
838.544	5147
838.681	5014
838.819	4987
838.956	4877
839.094	4892
839.231	4904
839.369	5048
839.506	5360
839.643	5216
839.781	5056
839.918	5010
840.055	5113
840.193	5079
840.33	5060
840.467	5075
840.604	5113
840.742	5455
840.879	5060
841.016	5079
841.153	5128
841.29	5360
841.427	5265
841.564	5277
841.701	5379
841.838	5299
841.975	5197
842.112	5288
842.249	5136
842.385	5029
842.522	5311
842.659	5178
842.796	5151
842.933	5216
843.069	5128
843.206	5117
843.343	5311
843.479	5220
843.616	5292
843.752	5033
843.889	4957
844.025	5136
844.162	4965
844.298	5201
844.435	5060
844.571	5045
844.708	5174
844.844	5265
844.98	5307
845.117	5261
845.253	5159
845.389	5060
845.525	5132
845.661	5128
845.798	5033
845.934	5151
846.07	5064
846.206	5174
846.342	5242
846.478	5181
846.614	5025
846.75	4957
846.886	4877
847.022	5083
847.158	5010
847.294	5029
847.429	5064
847.565	5094
847.701	5307
847.837	4850
847.972	4740
848.108	4938
848.244	4930
848.379	4752
848.515	4721
848.65	4698
848.786	4679
848.921	4714
849.057	4877
849.192	4850
849.328	4786
849.463	4797
849.598	4744
849.734	4763
849.869	4710
850.004	4630
850.14	4645
850.275	4592
850.41	4504
850.545	4519
850.68	4561
850.815	4622
850.95	4607
851.085	4870
851.22	4721
851.355	4687
851.49	4634
851.625	4588
851.76	4573
851.895	4565
852.03	4523
852.165	4615
852.299	4748
852.434	4782
852.569	4717
852.703	4729
852.838	4820
852.973	4919
853.107	4946
853.242	4710
853.376	4683
853.511	4516
853.645	4611
853.78	4774
853.914	4668
854.048	4702
854.183	4668
854.317	4729
854.451	4828
854.585	4675
854.72	4603
854.854	4725
854.988	4535
855.122	4588
855.256	4550
855.39	4630
855.524	4740
855.658	4706
855.792	4611
855.926	4710
856.06	4729
856.194	4759
856.327	4733
856.461	4592
856.595	4592
856.729	4596
856.862	4694
856.996	4653
857.13	4714
857.263	4752
857.397	4801
857.53	4607
857.664	4694
857.797	4782
857.931	4755
858.064	4649
858.197	4744
858.331	4664
858.464	4580
858.597	4535
858.731	4580
858.864	4599
858.997	4565
859.13	4622
859.263	4607
859.396	4717
859.529	4554
859.662	4531
859.795	4516
859.928	4641
860.061	4782
860.194	4774
860.327	4622
860.46	4588
860.592	4660
860.725	4691
860.858	4687
860.99	4569
861.123	4523
861.256	4542
861.388	4573
861.521	5185
861.653	4459
861.786	4424
861.918	4398
862.05	4531
862.183	4546
862.315	4535
862.447	4622
862.58	4527
862.712	4398
862.844	4276
862.976	4428
863.108	4455
863.24	4797
863.372	4310
863.504	4394
863.636	4421
863.768	4436
863.9	4390
864.032	4371
864.164	4402
864.296	4459
864.428	4481
864.559	4569
864.691	4500
864.823	4523
864.954	4440
865.086	4481
865.217	4489
865.349	4383
865.48	4447
865.612	4489
865.743	4569
865.875	4451
866.006	4428
866.137	4470
866.269	4474
866.4	4466
866.531	4405
866.662	4394
866.793	4436
866.924	4421
867.055	4462
867.186	4451
867.317	4443
867.448	4367
867.579	4394
867.71	4398
867.841	4386
867.972	4455
868.103	4409
868.233	4443
868.364	4424
868.495	4428
868.625	4649
868.756	4744
868.886	4573
869.017	4641
869.147	4744
869.278	4763
869.408	4618
869.539	4641
869.669	4679
869.799	4645
869.929	4717
870.06	4694
870.19	4930
870.32	4953
870.45	4961
870.58	5022
870.71	5090
870.84	5140
870.97	4946
871.1	4870
871.23	5086
871.36	5147
871.489	4999
871.619	5041
871.749	5052
871.879	5140
872.008	5143
872.138	5033
872.267	4961
872.397	4774
872.526	4733
872.656	4702
872.785	4744
872.915	4942
873.044	4987
873.173	4923
873.303	4938
873.432	4991
873.561	4919
873.69	4847
873.819	4881
873.948	4923
874.077	4801
874.206	4717
874.335	4805
874.464	4885
874.593	5037
874.722	4946
874.851	5067
874.979	5128
875.108	5041
875.237	4961
875.365	4866
875.494	4892
875.623	4980
875.751	4828
875.88	4858
876.008	4934
876.136	5003
876.265	5239
876.393	5326
876.521	5265
876.65	5181
876.778	5166
876.906	5029
877.034	4995
877.162	5025
877.29	4949
877.418	5056
877.546	5033
877.674	5041
877.802	5022
877.93	5010
878.058	4911
878.185	4858
878.313	4957
878.441	4968
878.568	4748
878.696	4854
878.824	4923
878.951	4984
879.079	5147
879.206	5185
879.333	5098
879.461	4953
879.588	4968
879.715	5090
879.842	5250
879.97	4987
880.097	4778
880.224	4744
880.351	4774
880.478	4786
880.605	4786
880.732	4774
880.859	5098
880.986	4881
881.112	4854
881.239	4740
881.366	4660
881.493	4573
881.619	4596
881.746	4634
881.872	4668
881.999	4698
882.125	4733
882.252	4778
882.378	4831
882.505	4915
882.631	4812
882.757	4641
882.883	4755
883.01	4725
883.136	4645
883.262	4626
883.388	4607
883.514	4771
883.64	4858
883.766	4767
883.892	4698
884.018	4740
884.143	4866
884.269	5041
884.395	4702
884.52	4561
884.646	4569
884.772	4573
884.897	4546
885.023	4672
885.148	4797
885.274	4839
885.399	4805
885.524	4729
885.65	4714
885.775	4752
885.9	4721
886.025	4873
886.15	4771
886.275	4725
886.4	4660
886.525	4744
886.65	4683
886.775	4637
886.9	4942
887.025	5014
887.149	4790
887.274	4645
887.399	4561
887.523	4573
887.648	4584
887.773	4584
887.897	4782
888.021	4721
888.146	4649
888.27	4767
888.395	4892
888.519	4767
888.643	4801
888.767	4820
888.891	4694
889.015	4622
889.139	4611
889.263	4588
889.387	4725
889.511	4847
889.635	4736
889.759	4622
889.883	4637
890.006	4672
890.13	4820
890.254	4577
890.377	4698
890.501	4542
890.624	4504
890.748	4645
890.871	4542
890.995	4451
891.118	4390
891.241	4485
891.364	4485
891.488	4649
891.611	4497
891.734	4546
891.857	4626
891.98	4531
892.103	4626
892.226	4569
892.349	4500
892.471	4386
892.594	4565
892.717	4558
892.839	4622
892.962	4607
893.085	4626
893.207	4580
893.33	4413
893.452	4519
893.575	4637
893.697	4561
893.819	4831
893.941	4786
894.064	4793
894.186	4577
894.308	4554
894.43	4691
894.552	4778
894.674	4740
894.796	4519
894.918	4584
895.04	4531
895.161	4694
895.283	4683
895.405	4538
895.526	4626
895.648	4679
895.769	4694
895.891	4740
896.012	4755
896.134	4725
896.255	4664
896.376	4599
896.498	4660
896.619	4660
896.74	4580
896.861	4653
896.982	4873
897.103	5041
897.224	4809
897.345	4717
897.466	4698
897.587	4744
897.708	4812
897.828	4782
897.949	4668
898.07	4580
898.19	4668
898.311	4801
898.431	4672
898.552	4752
898.672	4797
898.792	4767
898.913	4740
899.033	4599
899.153	4478
899.273	4478
899.393	4489
899.513	4531
899.633	4519
899.753	4542
899.873	4516
899.993	4588
900.113	4481
900.232	4565
900.352	4531
900.472	4493
900.591	4424
900.711	4489
900.83	4462
900.95	4618
901.069	4664
901.189	4516
901.308	4356
901.427	4318
901.546	4402
901.665	4474
901.784	4485
901.904	4325
902.023	4284
902.141	4177
902.26	4124
902.379	4325
902.498	4246
902.617	4188
902.735	4379
902.854	4398
902.973	4363
903.091	4204
903.21	4227
903.328	4329
903.446	4272
903.565	4261
903.683	4295
903.801	4223
903.919	4367
904.038	4466
904.156	4303
904.274	4405
904.392	4379
904.51	4402
904.627	4455
904.745	4542
904.863	4607
904.981	4402
905.098	4284
905.216	4375
905.334	4443
905.451	4421
905.569	4424
905.686	4481
905.803	4596
905.921	4405
906.038	4580
906.155	4516
906.272	4409
906.389	4474
906.506	4337
906.623	4363
906.74	4356
906.857	4303
906.974	4348
907.091	4542
907.208	4664
907.324	4596
907.441	4489
907.557	4318
907.674	4333
907.79	4329
907.907	4360
908.023	4413
908.139	4462
908.256	4459
908.372	4478
908.488	4421
908.604	4390
908.72	4325
908.836	4310
908.952	4303
909.068	4481
909.184	4558
909.3	4481
909.415	4573
909.531	4519
909.647	4344
909.762	4276
909.878	4344
909.993	4417
910.108	4417
910.224	4447
910.339	4485
910.454	4398
910.57	4386
910.685	4314
910.8	4660
910.915	4592
911.03	4470
911.145	4325
911.259	4337
911.374	4348
911.489	4261
911.604	4253
911.718	4173
911.833	4249
911.947	4078
912.062	3991
912.176	4219
912.291	4219
912.405	4242
912.519	4432
912.633	4478
912.748	4367
912.862	4310
912.976	4188
913.09	4112
913.204	4181
913.318	4265
913.431	4363
913.545	4344
913.659	4405
913.772	4363
913.886	4249
914	4219
914.113	4348
914.226	4383
914.34	4413
914.453	4253
914.566	4405
914.68	4280
914.793	4299
914.906	4120
915.019	4120
915.132	4101
915.245	4204
915.358	4188
915.47	4238
915.583	4249
915.696	4287
915.809	4367
915.921	4405
916.034	4246
916.146	4253
916.259	4207
916.371	4386
916.483	4341
916.595	4261
916.708	4261
916.82	4303
916.932	4322
917.044	4333
917.156	4253
917.268	4215
917.38	4257
917.491	4265
917.603	4341
917.715	4371
917.826	4432
917.938	4367
918.049	4227
918.161	4375
918.272	4550
918.384	4573
918.495	4443
918.606	4299
918.717	4196
918.828	4337
918.939	4306
919.05	4234
919.161	4329
919.272	4082
919.383	4215
919.494	4455
919.604	4626
919.715	4379
919.826	4318
919.936	4367
920.047	4485
920.157	4462
920.267	4710
920.378	4512
920.488	4504
920.598	4683
920.708	4885
920.818	4763
920.928	4752
921.038	4930
921.148	4908
921.258	4649
921.368	4474
921.477	4481
921.587	4451
921.697	4337
921.806	4500
921.916	4428
922.025	4310
922.134	4295
922.244	4249
922.353	4337
922.462	4158
922.571	4078
922.68	3991
922.789	3930
922.898	4040
923.007	4013
923.116	4105
923.224	4059
923.333	4074
923.442	3968
923.55	3991
923.659	4025
923.767	4109
923.876	4029
923.984	4116
924.092	3941
924.201	4055
924.309	4051
924.417	4177
924.525	4048
924.633	4063
924.741	4892
924.849	3934
924.956	4162
925.064	3930
925.172	3922
925.279	3949
925.387	4040
925.494	4055
925.602	4162
925.709	4173
925.816	4025
925.924	4093
926.031	4268
926.138	4173
926.245	4207
926.352	4048
926.459	4238
926.566	4291
926.673	4147
926.779	4063
926.886	4055
926.993	3968
927.099	3949
927.206	3956
927.312	3953
927.419	4059
927.525	4063
927.631	4124
927.737	3953
927.843	3949
927.95	3808
928.056	3915
928.162	3945
928.267	4044
928.373	4546
928.479	4093
928.585	3861
928.69	4002
928.796	4071
928.901	3937
929.007	3835
929.112	3991
929.218	3975
929.323	3922
929.428	3956
929.533	4139
929.638	3873
929.743	3960
929.848	4006
929.953	4002
930.058	3926
930.163	3797
930.267	3869
930.372	3937
930.477	3838
930.581	4112
930.685	3945
930.79	3823
930.894	3911
930.998	3835
931.103	4006
931.207	3705
931.311	3682
931.415	3679
931.519	3507
931.623	3545
