Data from test_V78500241_406.txt Node
Date: Fri Mar 25 16:51:49 CST 2022
User: usil
Spectrometer: V785-0024
Trigger mode: 0
Integration Time (sec): 4.000000E-1
Scans to average: 1
Nonlinearity correction enabled: false
Boxcar width: 0
Storing dark spectrum: false
XAxis mode: Wavelengths
Number of Pixels in Spectrum: 1024
>>>>>Begin Spectral Data<<<<<
801.071	8005
801.214	8065
801.356	7860
801.499	7909
801.641	7818
801.783	7887
801.926	8054
802.068	8054
802.211	8008
802.353	8020
802.496	7890
802.638	7928
802.78	7894
802.923	7906
803.065	7902
803.208	7871
803.35	7986
803.492	8065
803.635	8088
803.777	8050
803.919	8100
804.061	8450
804.204	8111
804.346	8096
804.488	7967
804.63	8115
804.773	7978
804.915	8096
805.057	8355
805.199	8218
805.341	8180
805.483	8282
805.626	8138
805.768	8054
805.91	8123
806.052	8183
806.194	8157
806.336	8358
806.478	8195
806.62	8138
806.762	8267
806.904	8248
807.046	8518
807.188	8351
807.33	8286
807.472	8336
807.614	8157
807.756	8157
807.898	8050
808.04	7944
808.182	7959
808.324	7997
808.465	7959
808.607	8081
808.749	8214
808.891	8180
809.033	8275
809.174	8153
809.316	8062
809.458	8107
809.6	8062
809.741	8012
809.883	8065
810.025	8115
810.166	8138
810.308	8111
810.45	8084
810.591	7879
810.733	7822
810.875	7674
811.016	7487
811.158	7609
811.299	7616
811.441	7826
811.582	7715
811.724	7677
811.865	7666
812.007	7647
812.148	7605
812.29	7700
812.431	7799
812.573	7940
812.714	8001
812.855	8187
812.997	8263
813.138	8370
813.279	8305
813.421	8176
813.562	8054
813.703	7932
813.845	7814
813.986	7499
814.127	7369
814.268	7354
814.41	7289
814.551	7251
814.692	7282
814.833	7118
814.974	7126
815.115	7126
815.256	7023
815.397	6966
815.539	6901
815.68	6806
815.821	6844
815.962	6962
816.103	6852
816.244	6795
816.385	6681
816.526	6662
816.666	6494
816.807	6338
816.948	6448
817.089	6464
817.23	6433
817.371	6388
817.512	6433
817.653	6410
817.793	6418
817.934	6464
818.075	6429
818.216	6475
818.356	6460
818.497	6270
818.638	6171
818.778	6163
818.919	6125
819.06	6144
819.2	6384
819.341	6388
819.481	6342
819.622	6540
819.762	6734
819.903	6757
820.043	6597
820.184	6604
820.324	6551
820.465	6677
820.605	6681
820.746	6741
820.886	6525
821.026	6711
821.167	6764
821.307	6840
821.447	6768
821.588	6700
821.728	6570
821.868	6486
822.008	6388
822.149	6422
822.289	6346
822.429	6163
822.569	6125
822.709	6155
822.849	5965
822.99	5950
823.13	5923
823.27	5935
823.41	5813
823.55	5821
823.69	5805
823.83	5840
823.97	5695
824.11	5585
824.25	5524
824.389	5589
824.529	5623
824.669	5493
824.809	5722
824.949	5688
825.089	5638
825.228	5562
825.368	5433
825.508	5360
825.648	5353
825.787	5391
825.927	5459
826.067	5360
826.206	5296
826.346	5387
826.485	5383
826.625	5425
826.765	5532
826.904	5497
827.044	5288
827.183	5189
827.323	5159
827.462	5296
827.601	5208
827.741	5170
827.88	5284
828.02	5086
828.159	5269
828.298	5296
828.437	5410
828.577	5273
828.716	5535
828.855	5326
828.994	5269
829.134	5178
829.273	5208
829.412	5174
829.551	5155
829.69	5178
829.829	5261
829.968	5330
830.107	5273
830.246	5334
830.385	5197
830.524	5147
830.663	5079
830.802	4968
830.941	4946
831.08	4919
831.219	4995
831.357	5041
831.496	5143
831.635	4953
831.774	4858
831.913	4927
832.051	4759
832.19	4748
832.329	4824
832.467	4702
832.606	4649
832.744	4755
832.883	4755
833.022	4740
833.16	4805
833.299	4797
833.437	4896
833.576	4847
833.714	4904
833.852	4881
833.991	4915
834.129	4957
834.267	4949
834.406	4870
834.544	4999
834.682	4991
834.821	4999
834.959	5178
835.097	4976
835.235	5174
835.373	5090
835.511	5094
835.65	5067
835.788	5056
835.926	4923
836.064	4919
836.202	4908
836.34	5121
836.478	5223
836.615	5094
836.753	5159
836.891	5334
837.029	5246
837.167	5201
837.305	5227
837.443	5204
837.58	5071
837.718	5326
837.856	5216
837.993	5136
838.131	5231
838.269	5162
838.406	5197
838.544	5242
838.681	5056
838.819	5056
838.956	4919
839.094	4942
839.231	4991
839.369	5052
839.506	5436
839.643	5269
839.781	5052
839.918	5041
840.055	5136
840.193	5113
840.33	5094
840.467	5132
840.604	5201
840.742	5463
840.879	5140
841.016	5102
841.153	5136
841.29	5391
841.427	5288
841.564	5341
841.701	5383
841.838	5296
841.975	5212
842.112	5277
842.249	5143
842.385	5124
842.522	5341
842.659	5181
842.796	5216
842.933	5204
843.069	5185
843.206	5174
843.343	5345
843.479	5220
843.616	5330
843.752	5033
843.889	5098
844.025	5212
844.162	4991
844.298	5250
844.435	5098
844.571	5056
844.708	5231
844.844	5326
844.98	5398
845.117	5318
845.253	5174
845.389	5132
845.525	5178
845.661	5166
845.798	5022
845.934	5143
846.07	5048
846.206	5181
846.342	5341
846.478	5227
846.614	5033
846.75	5003
846.886	4965
847.022	5124
847.158	5045
847.294	5086
847.429	5117
847.565	5090
847.701	5353
847.837	4870
847.972	4835
848.108	4946
848.244	4965
848.379	4782
848.515	4763
848.65	4721
848.786	4793
848.921	4797
849.057	4862
849.192	4946
849.328	4824
849.463	4927
849.598	4778
849.734	4767
849.869	4710
850.004	4641
850.14	4668
850.275	4672
850.41	4577
850.545	4588
850.68	4592
850.815	4649
850.95	4622
851.085	4850
851.22	4771
851.355	4691
851.49	4634
851.625	4656
851.76	4660
851.895	4550
852.03	4523
852.165	4607
852.299	4679
852.434	4805
852.569	4755
852.703	4733
852.838	4850
852.973	4934
853.107	4911
853.242	4748
853.376	4714
853.511	4592
853.645	4618
853.78	4816
853.914	4725
854.048	4706
854.183	4664
854.317	4702
854.451	4831
854.585	4736
854.72	4656
854.854	4714
854.988	4588
855.122	4637
855.256	4531
855.39	4683
855.524	4797
855.658	4706
855.792	4630
855.926	4736
856.06	4835
856.194	4805
856.327	4691
856.461	4653
856.595	4622
856.729	4656
856.862	4835
856.996	4729
857.13	4725
857.263	4748
857.397	4828
857.53	4691
857.664	4748
857.797	4793
857.931	4790
858.064	4725
858.197	4733
858.331	4702
858.464	4634
858.597	4565
858.731	4645
858.864	4626
858.997	4626
859.13	4706
859.263	4710
859.396	4717
859.529	4573
859.662	4550
859.795	4531
859.928	4660
860.061	4805
860.194	4740
860.327	4668
860.46	4531
860.592	4717
860.725	4744
860.858	4767
860.99	4584
861.123	4519
861.256	4527
861.388	4618
861.521	5433
861.653	4489
861.786	4455
861.918	4466
862.05	4573
862.183	4599
862.315	4558
862.447	4668
862.58	4527
862.712	4394
862.844	4322
862.976	4519
863.108	4451
863.24	4812
863.372	4318
863.504	4436
863.636	4424
863.768	4523
863.9	4443
864.032	4352
864.164	4413
864.296	4500
864.428	4538
864.559	4596
864.691	4519
864.823	4550
864.954	4508
865.086	4523
865.217	4459
865.349	4432
865.48	4466
865.612	4493
865.743	4615
865.875	4500
866.006	4459
866.137	4478
866.269	4485
866.4	4447
866.531	4432
866.662	4394
866.793	4409
866.924	4417
867.055	4508
867.186	4443
867.317	4413
867.448	4375
867.579	4428
867.71	4341
867.841	4398
867.972	4516
868.103	4489
868.233	4474
868.364	4485
868.495	4481
868.625	4656
868.756	4767
868.886	4558
869.017	4622
869.147	4793
869.278	4771
869.408	4637
869.539	4645
869.669	4698
869.799	4664
869.929	4733
870.06	4797
870.19	4968
870.32	4972
870.45	4968
870.58	5010
870.71	5102
870.84	5094
870.97	4919
871.1	4892
871.23	5090
871.36	5185
871.489	4995
871.619	5117
871.749	5079
871.879	5159
872.008	5185
872.138	5045
872.267	4976
872.397	4835
872.526	4786
872.656	4744
872.785	4828
872.915	4965
873.044	5064
873.173	4942
873.303	4972
873.432	4919
873.561	4968
873.69	4923
873.819	4862
873.948	4923
874.077	4862
874.206	4744
874.335	4782
874.464	4942
874.593	5071
874.722	4965
874.851	5140
874.979	5071
875.108	4999
875.237	4930
875.365	4885
875.494	4885
875.623	4949
875.751	4831
875.88	4866
876.008	5006
876.136	5052
876.265	5227
876.393	5334
876.521	5242
876.65	5204
876.778	5201
876.906	5098
877.034	5037
877.162	5037
877.29	5060
877.418	5041
877.546	5071
877.674	5041
877.802	5075
877.93	5037
878.058	4953
878.185	4877
878.313	4953
878.441	4957
878.568	4759
878.696	4862
878.824	5010
878.951	5014
879.079	5178
879.206	5311
879.333	5140
879.461	4949
879.588	4961
879.715	5136
879.842	5231
879.97	5022
880.097	4809
880.224	4786
880.351	4793
880.478	4858
880.605	4805
880.732	4805
880.859	5067
880.986	4915
881.112	4896
881.239	4767
881.366	4664
881.493	4573
881.619	4592
881.746	4622
881.872	4649
881.999	4653
882.125	4740
882.252	4748
882.378	4858
882.505	5003
882.631	4831
882.757	4740
882.883	4706
883.01	4725
883.136	4710
883.262	4615
883.388	4637
883.514	4816
883.64	4885
883.766	4824
883.892	4645
884.018	4717
884.143	4892
884.269	5071
884.395	4714
884.52	4584
884.646	4683
884.772	4599
884.897	4565
885.023	4603
885.148	4809
885.274	4881
885.399	4816
885.524	4706
885.65	4679
885.775	4763
885.9	4691
886.025	4850
886.15	4778
886.275	4755
886.4	4637
886.525	4744
886.65	4706
886.775	4740
886.9	4858
887.025	5033
887.149	4858
887.274	4694
887.399	4584
887.523	4611
887.648	4561
887.773	4588
887.897	4755
888.021	4816
888.146	4714
888.27	4843
888.395	4927
888.519	4752
888.643	4828
888.767	4850
888.891	4664
889.015	4603
889.139	4649
889.263	4596
889.387	4744
889.511	4885
889.635	4790
889.759	4637
889.883	4683
890.006	4771
890.13	4839
890.254	4611
890.377	4679
890.501	4592
890.624	4531
890.748	4618
890.871	4474
890.995	4417
891.118	4440
891.241	4481
891.364	4538
891.488	4634
891.611	4512
891.734	4569
891.857	4634
891.98	4580
892.103	4649
892.226	4603
892.349	4527
892.471	4390
892.594	4523
892.717	4596
892.839	4561
892.962	4519
893.085	4664
893.207	4645
893.33	4428
893.452	4554
893.575	4698
893.697	4580
893.819	4809
893.941	4843
894.064	4748
894.186	4580
894.308	4596
894.43	4679
894.552	4866
894.674	4797
894.796	4588
894.918	4561
895.04	4584
895.161	4717
895.283	4679
895.405	4615
895.526	4656
895.648	4656
895.769	4687
895.891	4714
896.012	4714
896.134	4706
896.255	4683
896.376	4641
896.498	4622
896.619	4622
896.74	4630
896.861	4687
896.982	4873
897.103	5083
897.224	4850
897.345	4740
897.466	4683
897.587	4733
897.708	4900
897.828	4801
897.949	4630
898.07	4546
898.19	4717
898.311	4831
898.431	4679
898.552	4740
898.672	4816
898.792	4824
898.913	4702
899.033	4630
899.153	4512
899.273	4436
899.393	4478
899.513	4554
899.633	4512
899.753	4497
899.873	4493
899.993	4592
900.113	4546
900.232	4538
900.352	4577
900.472	4512
900.591	4398
900.711	4485
900.83	4421
900.95	4615
901.069	4725
901.189	4554
901.308	4379
901.427	4272
901.546	4360
901.665	4500
901.784	4523
901.904	4421
902.023	4356
902.141	4219
902.26	4173
902.379	4318
902.498	4238
902.617	4234
902.735	4352
902.854	4470
902.973	4344
903.091	4287
903.21	4219
903.328	4318
903.446	4268
903.565	4196
903.683	4363
903.801	4276
903.919	4409
904.038	4470
904.156	4325
904.274	4462
904.392	4402
904.51	4455
904.627	4497
904.745	4622
904.863	4615
904.981	4386
905.098	4299
905.216	4363
905.334	4436
905.451	4386
905.569	4428
905.686	4561
905.803	4561
905.921	4443
906.038	4558
906.155	4504
906.272	4360
906.389	4485
906.506	4383
906.623	4398
906.74	4383
906.857	4303
906.974	4383
907.091	4573
907.208	4649
907.324	4615
907.441	4531
907.557	4341
907.674	4383
907.79	4337
907.907	4398
908.023	4504
908.139	4478
908.256	4424
908.372	4424
908.488	4459
908.604	4363
908.72	4348
908.836	4394
908.952	4363
909.068	4424
909.184	4554
909.3	4489
909.415	4641
909.531	4615
909.647	4371
909.762	4375
909.878	4299
909.993	4421
910.108	4413
910.224	4417
910.339	4504
910.454	4409
910.57	4348
910.685	4329
910.8	4702
910.915	4599
911.03	4516
911.145	4272
911.259	4360
911.374	4402
911.489	4314
911.604	4310
911.718	4158
911.833	4223
911.947	4071
912.062	4059
912.176	4211
912.291	4253
912.405	4207
912.519	4478
912.633	4546
912.748	4341
912.862	4322
912.976	4219
913.09	4097
913.204	4162
913.318	4280
913.431	4386
913.545	4405
913.659	4493
913.772	4402
913.886	4249
914	4272
914.113	4390
914.226	4523
914.34	4394
914.453	4276
914.566	4447
914.68	4234
914.793	4356
914.906	4154
915.019	4177
915.132	4074
915.245	4177
915.358	4196
915.47	4185
915.583	4268
915.696	4265
915.809	4421
915.921	4470
916.034	4280
916.146	4249
916.259	4215
916.371	4394
916.483	4341
916.595	4268
916.708	4314
916.82	4280
916.932	4337
917.044	4337
917.156	4356
917.268	4253
917.38	4314
917.491	4299
917.603	4371
917.715	4379
917.826	4481
917.938	4337
918.049	4284
918.161	4356
918.272	4561
918.384	4550
918.495	4497
918.606	4284
918.717	4230
918.828	4379
918.939	4390
919.05	4284
919.161	4337
919.272	4131
919.383	4219
919.494	4443
919.604	4637
919.715	4386
919.826	4409
919.936	4409
920.047	4516
920.157	4535
920.267	4694
920.378	4538
920.488	4531
920.598	4736
920.708	4904
920.818	4740
920.928	4740
921.038	4930
921.148	4889
921.258	4668
921.368	4584
921.477	4523
921.587	4474
921.697	4371
921.806	4584
921.916	4493
922.025	4272
922.134	4295
922.244	4211
922.353	4318
922.462	4238
922.571	4166
922.68	3983
922.789	3979
922.898	4036
923.007	3960
923.116	4105
923.224	4071
923.333	4101
923.442	3983
923.55	4006
923.659	4044
923.767	4139
923.876	3975
923.984	4147
924.092	4021
924.201	4105
924.309	4078
924.417	4128
924.525	4048
924.633	4109
924.741	5060
924.849	3937
924.956	4124
925.064	3998
925.172	3930
925.279	3960
925.387	4044
925.494	4044
925.602	4223
925.709	4166
925.816	4051
925.924	4147
926.031	4188
926.138	4188
926.245	4211
926.352	4067
926.459	4253
926.566	4287
926.673	4158
926.779	4109
926.886	4101
926.993	3972
927.099	3979
927.206	3918
927.312	3960
927.419	4063
927.525	4002
927.631	4101
927.737	3953
927.843	3922
927.95	3838
928.056	3915
928.162	3960
928.267	4013
928.373	4694
928.479	4166
928.585	3918
928.69	3998
928.796	4090
928.901	3964
929.007	3838
929.112	3987
929.218	3968
929.323	3945
929.428	3964
929.533	4071
929.638	3937
929.743	3930
929.848	4071
929.953	3987
930.058	3934
930.163	3793
930.267	3808
930.372	4013
930.477	3793
930.581	4135
930.685	3949
930.79	3846
930.894	3892
930.998	3892
931.103	4040
931.207	3675
931.311	3705
931.415	3698
931.519	3549
931.623	3538
