Data from test_V78500241_2701.txt Node
Date: Fri Mar 25 17:07:46 CST 2022
User: usil
Spectrometer: V785-0024
Trigger mode: 0
Integration Time (sec): 4.000000E-1
Scans to average: 1
Nonlinearity correction enabled: false
Boxcar width: 0
Storing dark spectrum: false
XAxis mode: Wavelengths
Number of Pixels in Spectrum: 1024
>>>>>Begin Spectral Data<<<<<
801.071	8088
801.214	8043
801.356	7860
801.499	7887
801.641	7883
801.783	7860
801.926	7963
802.068	7974
802.211	7944
802.353	8039
802.496	7811
802.638	7871
802.78	7909
802.923	7887
803.065	7936
803.208	7814
803.35	7989
803.492	8130
803.635	8187
803.777	8062
803.919	8130
804.061	8511
804.204	8164
804.346	8058
804.488	7997
804.63	8130
804.773	8001
804.915	8134
805.057	8263
805.199	8126
805.341	8275
805.483	8301
805.626	8218
805.768	8183
805.91	8168
806.052	8221
806.194	8164
806.336	8317
806.478	8142
806.62	8054
806.762	8164
806.904	8225
807.046	8484
807.188	8351
807.33	8259
807.472	8317
807.614	8240
807.756	8092
807.898	8001
808.04	7856
808.182	7906
808.324	7898
808.465	7959
808.607	8100
808.749	8126
808.891	8275
809.033	8309
809.174	8210
809.316	8111
809.458	8077
809.6	8008
809.741	7982
809.883	8123
810.025	8119
810.166	8096
810.308	8046
810.45	7970
810.591	7932
810.733	7769
810.875	7708
811.016	7552
811.158	7533
811.299	7689
811.441	7704
811.582	7742
811.724	7590
811.865	7556
812.007	7548
812.148	7556
812.29	7662
812.431	7750
812.573	7837
812.714	7989
812.855	8138
812.997	8210
813.138	8286
813.279	8145
813.421	8145
813.562	8016
813.703	7955
813.845	7776
813.986	7472
814.127	7297
814.268	7266
814.41	7263
814.551	7187
814.692	7183
814.833	7034
814.974	7099
815.115	7122
815.256	6920
815.397	6916
815.539	6977
815.68	6878
815.821	6818
815.962	6924
816.103	6844
816.244	6783
816.385	6612
816.526	6627
816.666	6555
816.807	6319
816.948	6433
817.089	6502
817.23	6464
817.371	6407
817.512	6403
817.653	6391
817.793	6361
817.934	6391
818.075	6490
818.216	6441
818.356	6384
818.497	6281
818.638	6136
818.778	6136
818.919	6209
819.06	6175
819.2	6334
819.341	6350
819.481	6395
819.622	6521
819.762	6779
819.903	6719
820.043	6582
820.184	6574
820.324	6635
820.465	6688
820.605	6684
820.746	6688
820.886	6517
821.026	6684
821.167	6749
821.307	6738
821.447	6764
821.588	6722
821.728	6540
821.868	6498
822.008	6403
822.149	6388
822.289	6376
822.429	6159
822.569	6114
822.709	6175
822.849	5950
822.99	5916
823.13	5977
823.27	5950
823.41	5794
823.55	5741
823.69	5733
823.83	5767
823.97	5699
824.11	5493
824.25	5505
824.389	5539
824.529	5604
824.669	5570
824.809	5604
824.949	5680
825.089	5604
825.228	5532
825.368	5440
825.508	5349
825.648	5360
825.787	5349
825.927	5376
826.067	5318
826.206	5277
826.346	5372
826.485	5376
826.625	5398
826.765	5577
826.904	5486
827.044	5326
827.183	5231
827.323	5128
827.462	5204
827.601	5155
827.741	5140
827.88	5216
828.02	5136
828.159	5227
828.298	5303
828.437	5341
828.577	5322
828.716	5478
828.855	5334
828.994	5162
829.134	5109
829.273	5201
829.412	5109
829.551	5128
829.69	5204
829.829	5261
829.968	5357
830.107	5212
830.246	5288
830.385	5185
830.524	5132
830.663	5083
830.802	4987
830.941	4881
831.08	4923
831.219	4976
831.357	4957
831.496	5166
831.635	4892
831.774	4839
831.913	4862
832.051	4717
832.19	4767
832.329	4866
832.467	4714
832.606	4630
832.744	4721
832.883	4721
833.022	4752
833.16	4782
833.299	4797
833.437	4870
833.576	4862
833.714	4843
833.852	4881
833.991	4877
834.129	4957
834.267	4934
834.406	4900
834.544	5014
834.682	4961
834.821	4923
834.959	5185
835.097	4995
835.235	5159
835.373	5014
835.511	5109
835.65	5064
835.788	5022
835.926	4892
836.064	4839
836.202	4923
836.34	5098
836.478	5227
836.615	5117
836.753	5216
836.891	5273
837.029	5193
837.167	5178
837.305	5185
837.443	5227
837.58	5109
837.718	5250
837.856	5193
837.993	5178
838.131	5231
838.269	5174
838.406	5181
838.544	5147
838.681	5022
838.819	5006
838.956	4930
839.094	4892
839.231	4965
839.369	5067
839.506	5444
839.643	5246
839.781	5060
839.918	5014
840.055	5109
840.193	5109
840.33	5155
840.467	5098
840.604	5178
840.742	5421
840.879	5079
841.016	5052
841.153	5113
841.29	5353
841.427	5303
841.564	5334
841.701	5337
841.838	5258
841.975	5197
842.112	5273
842.249	5113
842.385	5136
842.522	5288
842.659	5174
842.796	5174
842.933	5162
843.069	5128
843.206	5159
843.343	5341
843.479	5235
843.616	5261
843.752	5079
843.889	5010
844.025	5231
844.162	5037
844.298	5258
844.435	5083
844.571	5071
844.708	5181
844.844	5299
844.98	5311
845.117	5299
845.253	5143
845.389	5102
845.525	5193
845.661	5155
845.798	5105
845.934	5083
846.07	5064
846.206	5178
846.342	5292
846.478	5193
846.614	4999
846.75	4972
846.886	4934
847.022	5220
847.158	4987
847.294	5079
847.429	5079
847.565	5067
847.701	5334
847.837	4839
847.972	4850
848.108	4904
848.244	4911
848.379	4816
848.515	4736
848.65	4672
848.786	4740
848.921	4786
849.057	4870
849.192	4881
849.328	4835
849.463	4881
849.598	4755
849.734	4748
849.869	4736
850.004	4668
850.14	4637
850.275	4626
850.41	4538
850.545	4573
850.68	4607
850.815	4603
850.95	4607
851.085	4801
851.22	4733
851.355	4668
851.49	4596
851.625	4596
851.76	4675
851.895	4527
852.03	4546
852.165	4675
852.299	4736
852.434	4778
852.569	4759
852.703	4763
852.838	4866
852.973	4930
853.107	4866
853.242	4721
853.376	4634
853.511	4603
853.645	4630
853.78	4809
853.914	4694
854.048	4641
854.183	4653
854.317	4721
854.451	4831
854.585	4675
854.72	4641
854.854	4759
854.988	4603
855.122	4634
855.256	4512
855.39	4675
855.524	4771
855.658	4706
855.792	4733
855.926	4717
856.06	4755
856.194	4797
856.327	4653
856.461	4618
856.595	4592
856.729	4596
856.862	4748
856.996	4664
857.13	4736
857.263	4740
857.397	4778
857.53	4721
857.664	4668
857.797	4702
857.931	4797
858.064	4675
858.197	4755
858.331	4596
858.464	4569
858.597	4561
858.731	4611
858.864	4672
858.997	4596
859.13	4664
859.263	4656
859.396	4725
859.529	4565
859.662	4565
859.795	4573
859.928	4626
860.061	4801
860.194	4755
860.327	4645
860.46	4577
860.592	4683
860.725	4717
860.858	4691
860.99	4577
861.123	4508
861.256	4554
861.388	4656
861.521	5318
861.653	4519
861.786	4424
861.918	4474
862.05	4512
862.183	4500
862.315	4580
862.447	4679
862.58	4569
862.712	4443
862.844	4363
862.976	4466
863.108	4466
863.24	4740
863.372	4333
863.504	4421
863.636	4386
863.768	4424
863.9	4409
864.032	4344
864.164	4398
864.296	4485
864.428	4603
864.559	4546
864.691	4504
864.823	4580
864.954	4478
865.086	4531
865.217	4421
865.349	4409
865.48	4470
865.612	4561
865.743	4634
865.875	4512
866.006	4455
866.137	4470
866.269	4440
866.4	4493
866.531	4413
866.662	4383
866.793	4405
866.924	4421
867.055	4478
867.186	4466
867.317	4443
867.448	4398
867.579	4413
867.71	4375
867.841	4363
867.972	4489
868.103	4481
868.233	4470
868.364	4455
868.495	4443
868.625	4653
868.756	4790
868.886	4569
869.017	4622
869.147	4774
869.278	4748
869.408	4641
869.539	4641
869.669	4748
869.799	4698
869.929	4782
870.06	4675
870.19	4972
870.32	4911
870.45	4953
870.58	5071
870.71	5098
870.84	5094
870.97	4930
871.1	4927
871.23	5162
871.36	5128
871.489	5025
871.619	5075
871.749	5083
871.879	5132
872.008	5212
872.138	5067
872.267	4968
872.397	4873
872.526	4793
872.656	4702
872.785	4805
872.915	4949
873.044	4984
873.173	4930
873.303	4995
873.432	4965
873.561	4946
873.69	4930
873.819	4862
873.948	4919
874.077	4843
874.206	4721
874.335	4797
874.464	4889
874.593	5018
874.722	4987
874.851	5098
874.979	5037
875.108	4965
875.237	4900
875.365	4908
875.494	4904
875.623	4949
875.751	4877
875.88	4877
876.008	4972
876.136	5029
876.265	5212
876.393	5315
876.521	5265
876.65	5216
876.778	5143
876.906	5041
877.034	4968
877.162	5018
877.29	4965
877.418	5079
877.546	5052
877.674	5033
877.802	5033
877.93	5010
878.058	4961
878.185	4866
878.313	4968
878.441	4972
878.568	4831
878.696	4896
878.824	4968
878.951	5006
879.079	5159
879.206	5273
879.333	5181
879.461	4972
879.588	5022
879.715	5113
879.842	5223
879.97	5022
880.097	4828
880.224	4774
880.351	4839
880.478	4866
880.605	4771
880.732	4790
880.859	5121
880.986	4858
881.112	4908
881.239	4759
881.366	4668
881.493	4611
881.619	4618
881.746	4653
881.872	4592
881.999	4672
882.125	4729
882.252	4786
882.378	4774
882.505	5003
882.631	4793
882.757	4596
882.883	4729
883.01	4771
883.136	4637
883.262	4622
883.388	4645
883.514	4824
883.64	4866
883.766	4763
883.892	4615
884.018	4691
884.143	4904
884.269	5048
884.395	4694
884.52	4656
884.646	4668
884.772	4611
884.897	4569
885.023	4641
885.148	4767
885.274	4900
885.399	4774
885.524	4714
885.65	4691
885.775	4729
885.9	4725
886.025	4828
886.15	4771
886.275	4733
886.4	4660
886.525	4725
886.65	4675
886.775	4710
886.9	4911
887.025	5041
887.149	4820
887.274	4649
887.399	4588
887.523	4641
887.648	4603
887.773	4554
887.897	4812
888.021	4805
888.146	4721
888.27	4816
888.395	4942
888.519	4782
888.643	4786
888.767	4801
888.891	4649
889.015	4550
889.139	4641
889.263	4584
889.387	4801
889.511	4858
889.635	4763
889.759	4645
889.883	4675
890.006	4733
890.13	4786
890.254	4618
890.377	4664
890.501	4546
890.624	4554
890.748	4569
890.871	4527
890.995	4470
891.118	4398
891.241	4554
891.364	4508
891.488	4630
891.611	4519
891.734	4565
891.857	4584
891.98	4561
892.103	4668
892.226	4546
892.349	4538
892.471	4459
892.594	4512
892.717	4634
892.839	4535
892.962	4596
893.085	4630
893.207	4618
893.33	4470
893.452	4577
893.575	4675
893.697	4626
893.819	4778
893.941	4835
894.064	4740
894.186	4580
894.308	4569
894.43	4744
894.552	4831
894.674	4793
894.796	4523
894.918	4630
895.04	4573
895.161	4725
895.283	4649
895.405	4538
895.526	4656
895.648	4687
895.769	4637
895.891	4717
896.012	4729
896.134	4668
896.255	4653
896.376	4649
896.498	4630
896.619	4672
896.74	4546
896.861	4626
896.982	4892
897.103	5098
897.224	4870
897.345	4740
897.466	4645
897.587	4710
897.708	4858
897.828	4801
897.949	4664
898.07	4565
898.19	4694
898.311	4843
898.431	4664
898.552	4714
898.672	4820
898.792	4778
898.913	4714
899.033	4615
899.153	4519
899.273	4436
899.393	4493
899.513	4493
899.633	4546
899.753	4497
899.873	4497
899.993	4565
900.113	4535
900.232	4592
900.352	4554
900.472	4474
900.591	4375
900.711	4459
900.83	4451
900.95	4592
901.069	4683
901.189	4550
901.308	4383
901.427	4329
901.546	4394
901.665	4443
901.784	4531
901.904	4402
902.023	4295
902.141	4207
902.26	4188
902.379	4333
902.498	4246
902.617	4261
902.735	4375
902.854	4367
902.973	4367
903.091	4265
903.21	4219
903.328	4299
903.446	4287
903.565	4242
903.683	4348
903.801	4318
903.919	4383
904.038	4478
904.156	4310
904.274	4428
904.392	4413
904.51	4436
904.627	4497
904.745	4596
904.863	4656
904.981	4455
905.098	4322
905.216	4360
905.334	4436
905.451	4455
905.569	4424
905.686	4485
905.803	4561
905.921	4470
906.038	4546
906.155	4447
906.272	4379
906.389	4466
906.506	4287
906.623	4375
906.74	4371
906.857	4322
906.974	4352
907.091	4546
907.208	4675
907.324	4660
907.441	4527
907.557	4329
907.674	4371
907.79	4310
907.907	4379
908.023	4440
908.139	4500
908.256	4443
908.372	4440
908.488	4405
908.604	4367
908.72	4284
908.836	4375
908.952	4379
909.068	4424
909.184	4550
909.3	4470
909.415	4603
909.531	4519
909.647	4379
909.762	4360
909.878	4352
909.993	4440
910.108	4428
910.224	4432
910.339	4466
910.454	4421
910.57	4314
910.685	4341
910.8	4565
910.915	4603
911.03	4493
911.145	4337
911.259	4375
911.374	4325
911.489	4314
911.604	4295
911.718	4192
911.833	4185
911.947	4078
912.062	4032
912.176	4211
912.291	4234
912.405	4284
912.519	4466
912.633	4516
912.748	4398
912.862	4280
912.976	4147
913.09	4120
913.204	4173
913.318	4249
913.431	4371
913.545	4375
913.659	4432
913.772	4352
913.886	4268
914	4238
914.113	4424
914.226	4413
914.34	4390
914.453	4261
914.566	4470
914.68	4318
914.793	4333
914.906	4173
915.019	4128
915.132	4059
915.245	4196
915.358	4223
915.47	4211
915.583	4249
915.696	4310
915.809	4398
915.921	4402
916.034	4238
916.146	4268
916.259	4158
916.371	4356
916.483	4356
916.595	4249
916.708	4314
916.82	4314
916.932	4329
917.044	4299
917.156	4341
917.268	4215
917.38	4265
917.491	4234
917.603	4322
917.715	4424
917.826	4440
917.938	4333
918.049	4261
918.161	4371
918.272	4531
918.384	4569
918.495	4409
918.606	4322
918.717	4280
918.828	4299
918.939	4398
919.05	4276
919.161	4325
919.272	4147
919.383	4204
919.494	4447
919.604	4580
919.715	4451
919.826	4325
919.936	4394
920.047	4569
920.157	4474
920.267	4736
920.378	4569
920.488	4489
920.598	4733
920.708	4858
920.818	4782
920.928	4793
921.038	4934
921.148	4900
921.258	4584
921.368	4561
921.477	4493
921.587	4504
921.697	4329
921.806	4554
921.916	4462
922.025	4238
922.134	4242
922.244	4246
922.353	4344
922.462	4124
922.571	4082
922.68	4040
922.789	3972
922.898	4048
923.007	3907
923.116	4128
923.224	4078
923.333	4109
923.442	3979
923.55	3968
923.659	4025
923.767	4074
923.876	3998
923.984	4105
924.092	3983
924.201	4105
924.309	4063
924.417	4158
924.525	4074
924.633	4101
924.741	5075
924.849	3956
924.956	4109
925.064	3918
925.172	3911
925.279	4010
925.387	4040
925.494	4097
925.602	4246
925.709	4177
925.816	4036
925.924	4147
926.031	4246
926.138	4188
926.245	4219
926.352	4101
926.459	4234
926.566	4306
926.673	4166
926.779	4063
926.886	4017
926.993	4010
927.099	3949
927.206	3953
927.312	3937
927.419	4097
927.525	3991
927.631	4124
927.737	4013
927.843	3899
927.95	3857
928.056	3937
928.162	3991
928.267	4074
928.373	4558
928.479	4124
928.585	3907
928.69	4025
928.796	4082
928.901	3956
929.007	3876
929.112	4029
929.218	3975
929.323	3930
929.428	3987
929.533	4101
929.638	3865
929.743	3964
929.848	3983
929.953	3983
930.058	3949
930.163	3755
930.267	3808
930.372	3949
930.477	3816
930.581	4120
930.685	3941
930.79	3823
930.894	3903
930.998	3827
931.103	4021
931.207	3747
931.311	3724
931.415	3675
931.519	3538
931.623	3557
