Data from test_V78500241_1412.txt Node
Date: Fri Mar 25 16:58:49 CST 2022
User: usil
Spectrometer: V785-0024
Trigger mode: 0
Integration Time (sec): 4.000000E-1
Scans to average: 1
Nonlinearity correction enabled: false
Boxcar width: 0
Storing dark spectrum: false
XAxis mode: Wavelengths
Number of Pixels in Spectrum: 1024
>>>>>Begin Spectral Data<<<<<
801.071	7989
801.214	8016
801.356	7849
801.499	7856
801.641	7712
801.783	7818
801.926	7940
802.068	7894
802.211	7955
802.353	7951
802.496	7772
802.638	7811
802.78	7894
802.923	7864
803.065	7894
803.208	7871
803.35	7951
803.492	8058
803.635	8119
803.777	8092
803.919	8111
804.061	8480
804.204	8153
804.346	8054
804.488	7982
804.63	8065
804.773	8043
804.915	8126
805.057	8252
805.199	8157
805.341	8233
805.483	8298
805.626	8168
805.768	8058
805.91	8214
806.052	8134
806.194	8202
806.336	8218
806.478	8092
806.62	8069
806.762	8107
806.904	8275
807.046	8473
807.188	8332
807.33	8256
807.472	8389
807.614	8164
807.756	8149
807.898	8031
808.04	7871
808.182	7883
808.324	7894
808.465	7963
808.607	8092
808.749	8126
808.891	8164
809.033	8271
809.174	8180
809.316	8039
809.458	8103
809.6	8043
809.741	8020
809.883	8020
810.025	8065
810.166	8126
810.308	8073
810.45	8020
810.591	7845
810.733	7704
810.875	7651
811.016	7460
811.158	7487
811.299	7586
811.441	7658
811.582	7624
811.724	7556
811.865	7590
812.007	7590
812.148	7594
812.29	7597
812.431	7723
812.573	7871
812.714	7963
812.855	8092
812.997	8164
813.138	8358
813.279	8229
813.421	8130
813.562	7940
813.703	7856
813.845	7753
813.986	7396
814.127	7251
814.268	7213
814.41	7183
814.551	7160
814.692	7187
814.833	7114
814.974	7050
815.115	7088
815.256	7015
815.397	6958
815.539	6913
815.68	6818
815.821	6764
815.962	6806
816.103	6829
816.244	6730
816.385	6616
816.526	6582
816.666	6486
816.807	6247
816.948	6410
817.089	6475
817.23	6464
817.371	6350
817.512	6357
817.653	6342
817.793	6350
817.934	6361
818.075	6426
818.216	6418
818.356	6418
818.497	6213
818.638	6140
818.778	6159
818.919	6114
819.06	6175
819.2	6304
819.341	6289
819.481	6342
819.622	6547
819.762	6692
819.903	6684
820.043	6589
820.184	6601
820.324	6566
820.465	6715
820.605	6665
820.746	6669
820.886	6429
821.026	6639
821.167	6627
821.307	6779
821.447	6810
821.588	6662
821.728	6578
821.868	6479
822.008	6323
822.149	6350
822.289	6372
822.429	6216
822.569	6102
822.709	6087
822.849	5931
822.99	5863
823.13	5904
823.27	5897
823.41	5794
823.55	5783
823.69	5729
823.83	5726
823.97	5653
824.11	5558
824.25	5524
824.389	5543
824.529	5592
824.669	5562
824.809	5596
824.949	5642
825.089	5615
825.228	5551
825.368	5349
825.508	5315
825.648	5349
825.787	5368
825.927	5303
826.067	5288
826.206	5311
826.346	5395
826.485	5379
826.625	5387
826.765	5501
826.904	5467
827.044	5204
827.183	5227
827.323	5109
827.462	5235
827.601	5140
827.741	5201
827.88	5159
828.02	5113
828.159	5231
828.298	5284
828.437	5383
828.577	5239
828.716	5372
828.855	5322
828.994	5181
829.134	5193
829.273	5181
829.412	5105
829.551	5105
829.69	5159
829.829	5239
829.968	5376
830.107	5223
830.246	5288
830.385	5162
830.524	5102
830.663	5041
830.802	4976
830.941	4881
831.08	4885
831.219	4972
831.357	4946
831.496	5113
831.635	4831
831.774	4797
831.913	4797
832.051	4714
832.19	4675
832.329	4862
832.467	4687
832.606	4618
832.744	4736
832.883	4679
833.022	4717
833.16	4752
833.299	4805
833.437	4820
833.576	4786
833.714	4809
833.852	4847
833.991	4805
834.129	4984
834.267	4961
834.406	4873
834.544	4972
834.682	4968
834.821	4984
834.959	5166
835.097	5010
835.235	5067
835.373	5045
835.511	5098
835.65	5071
835.788	4999
835.926	4839
836.064	4843
836.202	4911
836.34	5155
836.478	5235
836.615	5128
836.753	5181
836.891	5269
837.029	5204
837.167	5185
837.305	5132
837.443	5143
837.58	5083
837.718	5239
837.856	5151
837.993	5155
838.131	5193
838.269	5189
838.406	5208
838.544	5174
838.681	4957
838.819	4991
838.956	4957
839.094	4870
839.231	4995
839.369	5037
839.506	5391
839.643	5235
839.781	5041
839.918	5018
840.055	5086
840.193	5071
840.33	5140
840.467	5181
840.604	5162
840.742	5402
840.879	5071
841.016	5056
841.153	5102
841.29	5383
841.427	5318
841.564	5296
841.701	5307
841.838	5246
841.975	5254
842.112	5284
842.249	5098
842.385	5113
842.522	5330
842.659	5121
842.796	5128
842.933	5204
843.069	5128
843.206	5121
843.343	5284
843.479	5220
843.616	5239
843.752	5037
843.889	4991
844.025	5185
844.162	4961
844.298	5193
844.435	5033
844.571	4999
844.708	5170
844.844	5296
844.98	5322
845.117	5277
845.253	5121
845.389	5056
845.525	5178
845.661	5155
845.798	5037
845.934	5121
846.07	5029
846.206	5159
846.342	5208
846.478	5189
846.614	5022
846.75	4980
846.886	4953
847.022	5178
847.158	5025
847.294	5094
847.429	5121
847.565	5029
847.701	5288
847.837	4835
847.972	4870
848.108	4968
848.244	4953
848.379	4763
848.515	4748
848.65	4679
848.786	4740
848.921	4790
849.057	4919
849.192	4881
849.328	4801
849.463	4820
849.598	4812
849.734	4771
849.869	4687
850.004	4641
850.14	4622
850.275	4683
850.41	4519
850.545	4531
850.68	4569
850.815	4603
850.95	4630
851.085	4854
851.22	4698
851.355	4660
851.49	4588
851.625	4626
851.76	4618
851.895	4538
852.03	4523
852.165	4615
852.299	4706
852.434	4767
852.569	4736
852.703	4733
852.838	4786
852.973	4877
853.107	4881
853.242	4702
853.376	4679
853.511	4538
853.645	4645
853.78	4759
853.914	4694
854.048	4702
854.183	4668
854.317	4668
854.451	4812
854.585	4630
854.72	4672
854.854	4714
854.988	4550
855.122	4599
855.256	4523
855.39	4630
855.524	4774
855.658	4733
855.792	4664
855.926	4755
856.06	4771
856.194	4820
856.327	4672
856.461	4542
856.595	4603
856.729	4599
856.862	4774
856.996	4706
857.13	4717
857.263	4717
857.397	4847
857.53	4660
857.664	4752
857.797	4786
857.931	4786
858.064	4702
858.197	4687
858.331	4611
858.464	4630
858.597	4527
858.731	4626
858.864	4622
858.997	4580
859.13	4645
859.263	4675
859.396	4649
859.529	4599
859.662	4607
859.795	4558
859.928	4618
860.061	4763
860.194	4805
860.327	4580
860.46	4538
860.592	4710
860.725	4706
860.858	4729
860.99	4618
861.123	4531
861.256	4489
861.388	4630
861.521	5452
861.653	4451
861.786	4432
861.918	4447
862.05	4470
862.183	4554
862.315	4542
862.447	4637
862.58	4504
862.712	4409
862.844	4360
862.976	4436
863.108	4402
863.24	4885
863.372	4352
863.504	4462
863.636	4383
863.768	4474
863.9	4428
864.032	4341
864.164	4451
864.296	4462
864.428	4523
864.559	4508
864.691	4542
864.823	4527
864.954	4440
865.086	4519
865.217	4455
865.349	4421
865.48	4470
865.612	4497
865.743	4599
865.875	4436
866.006	4398
866.137	4443
866.269	4451
866.4	4466
866.531	4451
866.662	4402
866.793	4398
866.924	4409
867.055	4512
867.186	4424
867.317	4421
867.448	4371
867.579	4405
867.71	4375
867.841	4329
867.972	4485
868.103	4417
868.233	4424
868.364	4443
868.495	4451
868.625	4615
868.756	4755
868.886	4542
869.017	4603
869.147	4790
869.278	4717
869.408	4649
869.539	4645
869.669	4687
869.799	4618
869.929	4771
870.06	4706
870.19	4938
870.32	4873
870.45	4915
870.58	4980
870.71	5105
870.84	5094
870.97	4923
871.1	4835
871.23	5094
871.36	5064
871.489	4999
871.619	5083
871.749	5052
871.879	5132
872.008	5155
872.138	5003
872.267	4980
872.397	4828
872.526	4831
872.656	4725
872.785	4824
872.915	4987
873.044	4957
873.173	4919
873.303	4942
873.432	4957
873.561	4938
873.69	4824
873.819	4854
873.948	4915
874.077	4782
874.206	4733
874.335	4839
874.464	4889
874.593	5098
874.722	4972
874.851	5056
874.979	5022
875.108	5003
875.237	4938
875.365	4847
875.494	4870
875.623	4991
875.751	4778
875.88	4839
876.008	4976
876.136	5006
876.265	5181
876.393	5326
876.521	5277
876.65	5269
876.778	5166
876.906	5079
877.034	4995
877.162	4991
877.29	5010
877.418	5060
877.546	5098
877.674	5022
877.802	5014
877.93	4972
878.058	4934
878.185	4862
878.313	4961
878.441	4892
878.568	4828
878.696	4839
878.824	4965
878.951	4957
879.079	5086
879.206	5258
879.333	5155
879.461	5018
879.588	4991
879.715	5113
879.842	5258
879.97	4987
880.097	4778
880.224	4729
880.351	4748
880.478	4786
880.605	4782
880.732	4748
880.859	5064
880.986	4877
881.112	4873
881.239	4801
881.366	4611
881.493	4611
881.619	4561
881.746	4592
881.872	4672
881.999	4653
882.125	4679
882.252	4812
882.378	4854
882.505	5003
882.631	4786
882.757	4637
882.883	4733
883.01	4736
883.136	4694
883.262	4584
883.388	4603
883.514	4767
883.64	4797
883.766	4805
883.892	4675
884.018	4675
884.143	4873
884.269	5018
884.395	4649
884.52	4618
884.646	4618
884.772	4535
884.897	4550
885.023	4656
885.148	4809
885.274	4847
885.399	4793
885.524	4702
885.65	4683
885.775	4755
885.9	4725
886.025	4793
886.15	4759
886.275	4736
886.4	4664
886.525	4672
886.65	4691
886.775	4702
886.9	4881
887.025	5045
887.149	4831
887.274	4656
887.399	4603
887.523	4618
887.648	4599
887.773	4569
887.897	4767
888.021	4778
888.146	4656
888.27	4790
888.395	4866
888.519	4801
888.643	4759
888.767	4862
888.891	4656
889.015	4626
889.139	4649
889.263	4554
889.387	4786
889.511	4854
889.635	4740
889.759	4641
889.883	4634
890.006	4668
890.13	4816
890.254	4645
890.377	4660
890.501	4558
890.624	4500
890.748	4611
890.871	4493
890.995	4428
891.118	4375
891.241	4527
891.364	4569
891.488	4611
891.611	4504
891.734	4481
891.857	4592
891.98	4561
892.103	4637
892.226	4573
892.349	4527
892.471	4405
892.594	4538
892.717	4531
892.839	4592
892.962	4573
893.085	4615
893.207	4588
893.33	4497
893.452	4527
893.575	4637
893.697	4554
893.819	4744
893.941	4843
894.064	4774
894.186	4554
894.308	4584
894.43	4729
894.552	4725
894.674	4793
894.796	4592
894.918	4607
895.04	4497
895.161	4714
895.283	4656
895.405	4573
895.526	4611
895.648	4645
895.769	4675
895.891	4733
896.012	4687
896.134	4714
896.255	4664
896.376	4660
896.498	4615
896.619	4725
896.74	4580
896.861	4679
896.982	4919
897.103	5052
897.224	4782
897.345	4744
897.466	4698
897.587	4717
897.708	4858
897.828	4752
897.949	4679
898.07	4538
898.19	4615
898.311	4881
898.431	4630
898.552	4774
898.672	4812
898.792	4767
898.913	4694
899.033	4622
899.153	4542
899.273	4417
899.393	4470
899.513	4550
899.633	4516
899.753	4546
899.873	4478
899.993	4565
900.113	4508
900.232	4596
900.352	4512
900.472	4481
900.591	4371
900.711	4485
900.83	4447
900.95	4611
901.069	4683
901.189	4531
901.308	4383
901.427	4291
901.546	4375
901.665	4489
901.784	4485
901.904	4379
902.023	4333
902.141	4257
902.26	4188
902.379	4295
902.498	4261
902.617	4261
902.735	4329
902.854	4356
902.973	4325
903.091	4188
903.21	4215
903.328	4295
903.446	4299
903.565	4261
903.683	4344
903.801	4261
903.919	4394
904.038	4379
904.156	4299
904.274	4413
904.392	4390
904.51	4432
904.627	4474
904.745	4561
904.863	4645
904.981	4402
905.098	4287
905.216	4333
905.334	4443
905.451	4402
905.569	4417
905.686	4550
905.803	4603
905.921	4432
906.038	4592
906.155	4497
906.272	4386
906.389	4398
906.506	4348
906.623	4402
906.74	4363
906.857	4280
906.974	4386
907.091	4584
907.208	4649
907.324	4599
907.441	4508
907.557	4341
907.674	4325
907.79	4333
907.907	4344
908.023	4447
908.139	4481
908.256	4417
908.372	4405
908.488	4459
908.604	4322
908.72	4291
908.836	4363
908.952	4409
909.068	4424
909.184	4569
909.3	4516
909.415	4634
909.531	4538
909.647	4348
909.762	4356
909.878	4310
909.993	4405
910.108	4390
910.224	4409
910.339	4478
910.454	4428
910.57	4402
910.685	4348
910.8	4634
910.915	4603
911.03	4508
911.145	4303
911.259	4325
911.374	4375
911.489	4299
911.604	4284
911.718	4154
911.833	4234
911.947	4044
912.062	4021
912.176	4207
912.291	4227
912.405	4287
912.519	4436
912.633	4474
912.748	4409
912.862	4322
912.976	4177
913.09	4101
913.204	4188
913.318	4223
913.431	4325
913.545	4363
913.659	4386
913.772	4360
913.886	4238
914	4204
914.113	4390
914.226	4466
914.34	4402
914.453	4230
914.566	4386
914.68	4291
914.793	4322
914.906	4185
915.019	4116
915.132	4051
915.245	4150
915.358	4185
915.47	4265
915.583	4287
915.696	4268
915.809	4390
915.921	4413
916.034	4234
916.146	4207
916.259	4253
916.371	4386
916.483	4367
916.595	4234
916.708	4310
916.82	4325
916.932	4337
917.044	4322
917.156	4310
917.268	4188
917.38	4253
917.491	4234
917.603	4337
917.715	4436
917.826	4421
917.938	4352
918.049	4204
918.161	4375
918.272	4577
918.384	4546
918.495	4440
918.606	4291
918.717	4238
918.828	4306
918.939	4375
919.05	4249
919.161	4306
919.272	4143
919.383	4219
919.494	4447
919.604	4668
919.715	4421
919.826	4356
919.936	4405
920.047	4531
920.157	4443
920.267	4725
920.378	4531
920.488	4497
920.598	4653
920.708	4828
920.818	4694
920.928	4778
921.038	4949
921.148	4889
921.258	4607
921.368	4588
921.477	4478
921.587	4432
921.697	4337
921.806	4523
921.916	4432
922.025	4272
922.134	4291
922.244	4227
922.353	4322
922.462	4188
922.571	4116
922.68	4025
922.789	3922
922.898	4029
923.007	3956
923.116	4051
923.224	4021
923.333	4082
923.442	3987
923.55	3930
923.659	3994
923.767	4105
923.876	3987
923.984	4109
924.092	3983
924.201	4036
924.309	4093
924.417	4086
924.525	4029
924.633	4090
924.741	5064
924.849	3888
924.956	4116
925.064	3945
925.172	3880
925.279	3979
925.387	4025
925.494	4006
925.602	4181
925.709	4158
925.816	3998
925.924	4105
926.031	4219
926.138	4158
926.245	4211
926.352	4071
926.459	4261
926.566	4341
926.673	4147
926.779	4071
926.886	4059
926.993	3979
927.099	3915
927.206	3972
927.312	3983
927.419	4063
927.525	4036
927.631	4112
927.737	3956
927.843	3956
927.95	3797
928.056	3945
928.162	3975
928.267	4074
928.373	4656
928.479	4139
928.585	3899
928.69	3991
928.796	4055
928.901	3975
929.007	3842
929.112	3994
929.218	3960
929.323	3937
929.428	3930
929.533	4128
929.638	3918
929.743	3926
929.848	4036
929.953	4013
930.058	3880
930.163	3766
930.267	3857
930.372	3975
930.477	3812
930.581	4105
930.685	3945
930.79	3819
930.894	3903
930.998	3876
931.103	4063
931.207	3713
931.311	3698
931.415	3717
931.519	3530
931.623	3545
