Data from test_V78500241_1385.txt Node
Date: Fri Mar 25 16:58:37 CST 2022
User: usil
Spectrometer: V785-0024
Trigger mode: 0
Integration Time (sec): 4.000000E-1
Scans to average: 1
Nonlinearity correction enabled: false
Boxcar width: 0
Storing dark spectrum: false
XAxis mode: Wavelengths
Number of Pixels in Spectrum: 1024
>>>>>Begin Spectral Data<<<<<
801.071	8039
801.214	7978
801.356	7864
801.499	7826
801.641	7765
801.783	7772
801.926	7993
802.068	7898
802.211	7928
802.353	7986
802.496	7826
802.638	7871
802.78	7868
802.923	7921
803.065	7894
803.208	7814
803.35	7951
803.492	8069
803.635	8119
803.777	7974
803.919	8107
804.061	8427
804.204	8195
804.346	8077
804.488	7989
804.63	8065
804.773	8081
804.915	8084
805.057	8240
805.199	8183
805.341	8218
805.483	8305
805.626	8161
805.768	8161
805.91	8214
806.052	8244
806.194	8077
806.336	8305
806.478	8100
806.62	8035
806.762	8096
806.904	8290
807.046	8457
807.188	8309
807.33	8301
807.472	8290
807.614	8103
807.756	8195
807.898	8016
808.04	7875
808.182	7936
808.324	7875
808.465	7986
808.607	8149
808.749	8130
808.891	8168
809.033	8328
809.174	8191
809.316	8005
809.458	8062
809.6	8054
809.741	8012
809.883	8024
810.025	8142
810.166	8024
810.308	7978
810.45	8062
810.591	7833
810.733	7742
810.875	7704
811.016	7521
811.158	7480
811.299	7632
811.441	7643
811.582	7586
811.724	7582
811.865	7575
812.007	7601
812.148	7597
812.29	7605
812.431	7651
812.573	7841
812.714	7955
812.855	8092
812.997	8195
813.138	8259
813.279	8290
813.421	8084
813.562	8031
813.703	7833
813.845	7788
813.986	7430
814.127	7247
814.268	7122
814.41	7209
814.551	7183
814.692	7183
814.833	7091
814.974	7053
815.115	7084
815.256	6928
815.397	6867
815.539	6970
815.68	6852
815.821	6859
815.962	6821
816.103	6814
816.244	6772
816.385	6654
816.526	6608
816.666	6437
816.807	6239
816.948	6467
817.089	6467
817.23	6414
817.371	6350
817.512	6323
817.653	6372
817.793	6319
817.934	6410
818.075	6418
818.216	6407
818.356	6384
818.497	6216
818.638	6091
818.778	6136
818.919	6117
819.06	6216
819.2	6331
819.341	6300
819.481	6361
819.622	6498
819.762	6730
819.903	6711
820.043	6582
820.184	6532
820.324	6604
820.465	6692
820.605	6616
820.746	6574
820.886	6517
821.026	6635
821.167	6692
821.307	6764
821.447	6760
821.588	6703
821.728	6528
821.868	6483
822.008	6323
822.149	6376
822.289	6315
822.429	6144
822.569	6079
822.709	6095
822.849	5889
822.99	5912
823.13	5958
823.27	5916
823.41	5722
823.55	5729
823.69	5703
823.83	5707
823.97	5646
824.11	5520
824.25	5486
824.389	5516
824.529	5566
824.669	5551
824.809	5558
824.949	5649
825.089	5577
825.228	5528
825.368	5425
825.508	5330
825.648	5258
825.787	5322
825.927	5391
826.067	5296
826.206	5292
826.346	5417
826.485	5433
826.625	5383
826.765	5509
826.904	5471
827.044	5197
827.183	5216
827.323	5109
827.462	5231
827.601	5155
827.741	5170
827.88	5185
828.02	5121
828.159	5220
828.298	5284
828.437	5334
828.577	5307
828.716	5414
828.855	5337
828.994	5113
829.134	5140
829.273	5159
829.412	5113
829.551	5136
829.69	5113
829.829	5223
829.968	5368
830.107	5280
830.246	5299
830.385	5159
830.524	5166
830.663	5025
830.802	4934
830.941	4877
831.08	4961
831.219	4961
831.357	4934
831.496	5147
831.635	4900
831.774	4812
831.913	4839
832.051	4691
832.19	4786
832.329	4854
832.467	4717
832.606	4672
832.744	4725
832.883	4691
833.022	4714
833.16	4831
833.299	4797
833.437	4824
833.576	4805
833.714	4850
833.852	4812
833.991	4889
834.129	4968
834.267	4927
834.406	4934
834.544	4938
834.682	4930
834.821	4942
834.959	5132
835.097	4900
835.235	5083
835.373	5048
835.511	5056
835.65	5033
835.788	5022
835.926	4873
836.064	4889
836.202	4900
836.34	5159
836.478	5185
836.615	5109
836.753	5178
836.891	5269
837.029	5250
837.167	5193
837.305	5143
837.443	5147
837.58	5056
837.718	5204
837.856	5117
837.993	5147
838.131	5212
838.269	5220
838.406	5204
838.544	5185
838.681	5003
838.819	4984
838.956	4889
839.094	4927
839.231	4957
839.369	5067
839.506	5414
839.643	5231
839.781	5064
839.918	4999
840.055	5071
840.193	5140
840.33	5075
840.467	5166
840.604	5197
840.742	5444
840.879	5052
841.016	5041
841.153	5124
841.29	5379
841.427	5360
841.564	5280
841.701	5318
841.838	5231
841.975	5265
842.112	5242
842.249	5170
842.385	5102
842.522	5303
842.659	5170
842.796	5174
842.933	5178
843.069	5113
843.206	5189
843.343	5303
843.479	5204
843.616	5242
843.752	4991
843.889	5006
844.025	5204
844.162	4965
844.298	5212
844.435	5056
844.571	5041
844.708	5197
844.844	5288
844.98	5307
845.117	5280
845.253	5162
845.389	5094
845.525	5128
845.661	5128
845.798	5052
845.934	5105
846.07	5083
846.206	5143
846.342	5303
846.478	5178
846.614	5037
846.75	4957
846.886	4980
847.022	5094
847.158	5029
847.294	5033
847.429	5075
847.565	5025
847.701	5322
847.837	4828
847.972	4786
848.108	4923
848.244	4938
848.379	4744
848.515	4729
848.65	4664
848.786	4736
848.921	4748
849.057	4828
849.192	4847
849.328	4774
849.463	4862
849.598	4759
849.734	4763
849.869	4679
850.004	4618
850.14	4717
850.275	4618
850.41	4527
850.545	4561
850.68	4592
850.815	4622
850.95	4592
851.085	4801
851.22	4733
851.355	4706
851.49	4618
851.625	4630
851.76	4668
851.895	4512
852.03	4500
852.165	4611
852.299	4698
852.434	4805
852.569	4725
852.703	4771
852.838	4824
852.973	4927
853.107	4904
853.242	4740
853.376	4664
853.511	4569
853.645	4584
853.78	4809
853.914	4698
854.048	4664
854.183	4618
854.317	4687
854.451	4797
854.585	4664
854.72	4607
854.854	4805
854.988	4645
855.122	4653
855.256	4535
855.39	4660
855.524	4767
855.658	4733
855.792	4683
855.926	4752
856.06	4710
856.194	4839
856.327	4683
856.461	4596
856.595	4558
856.729	4615
856.862	4691
856.996	4714
857.13	4733
857.263	4748
857.397	4790
857.53	4641
857.664	4759
857.797	4744
857.931	4790
858.064	4675
858.197	4729
858.331	4649
858.464	4592
858.597	4538
858.731	4603
858.864	4634
858.997	4565
859.13	4660
859.263	4717
859.396	4691
859.529	4554
859.662	4558
859.795	4523
859.928	4599
860.061	4786
860.194	4752
860.327	4565
860.46	4558
860.592	4748
860.725	4691
860.858	4710
860.99	4565
861.123	4508
861.256	4523
861.388	4592
861.521	5349
861.653	4489
861.786	4409
861.918	4440
862.05	4535
862.183	4538
862.315	4599
862.447	4694
862.58	4538
862.712	4394
862.844	4344
862.976	4443
863.108	4417
863.24	4828
863.372	4310
863.504	4402
863.636	4379
863.768	4462
863.9	4440
864.032	4341
864.164	4402
864.296	4478
864.428	4592
864.559	4497
864.691	4535
864.823	4508
864.954	4493
865.086	4493
865.217	4466
865.349	4379
865.48	4436
865.612	4466
865.743	4599
865.875	4459
866.006	4432
866.137	4432
866.269	4455
866.4	4428
866.531	4405
866.662	4375
866.793	4367
866.924	4394
867.055	4504
867.186	4432
867.317	4436
867.448	4375
867.579	4398
867.71	4352
867.841	4383
867.972	4371
868.103	4451
868.233	4462
868.364	4421
868.495	4558
868.625	4626
868.756	4687
868.886	4527
869.017	4584
869.147	4759
869.278	4771
869.408	4691
869.539	4611
869.669	4672
869.799	4645
869.929	4729
870.06	4687
870.19	4946
870.32	4949
870.45	4934
870.58	5010
870.71	5105
870.84	5056
870.97	4919
871.1	4877
871.23	5140
871.36	5075
871.489	5048
871.619	5079
871.749	5090
871.879	5155
872.008	5147
872.138	5086
872.267	4976
872.397	4866
872.526	4835
872.656	4736
872.785	4843
872.915	4942
873.044	5033
873.173	4896
873.303	4923
873.432	4946
873.561	4930
873.69	4870
873.819	4805
873.948	4881
874.077	4809
874.206	4725
874.335	4793
874.464	4972
874.593	5067
874.722	4995
874.851	5094
874.979	4987
875.108	5022
875.237	4911
875.365	4881
875.494	4881
875.623	4957
875.751	4824
875.88	4904
876.008	4961
876.136	5006
876.265	5185
876.393	5345
876.521	5227
876.65	5181
876.778	5147
876.906	5014
877.034	4976
877.162	5041
877.29	4965
877.418	5064
877.546	5045
877.674	5010
877.802	5075
877.93	4987
878.058	4915
878.185	4877
878.313	4942
878.441	4946
878.568	4801
878.696	4877
878.824	4972
878.951	4968
879.079	5064
879.206	5261
879.333	5071
879.461	4934
879.588	5003
879.715	5113
879.842	5227
879.97	5003
880.097	4733
880.224	4771
880.351	4809
880.478	4801
880.605	4820
880.732	4778
880.859	5060
880.986	4889
881.112	4885
881.239	4736
881.366	4675
881.493	4607
881.619	4607
881.746	4672
881.872	4634
881.999	4645
882.125	4679
882.252	4759
882.378	4793
882.505	4980
882.631	4786
882.757	4736
882.883	4706
883.01	4748
883.136	4675
883.262	4558
883.388	4611
883.514	4782
883.64	4877
883.766	4778
883.892	4664
884.018	4706
884.143	4858
884.269	5045
884.395	4702
884.52	4637
884.646	4615
884.772	4615
884.897	4504
885.023	4580
885.148	4820
885.274	4816
885.399	4812
885.524	4733
885.65	4702
885.775	4721
885.9	4698
886.025	4881
886.15	4816
886.275	4721
886.4	4634
886.525	4725
886.65	4641
886.775	4683
886.9	4900
887.025	5006
887.149	4812
887.274	4641
887.399	4584
887.523	4618
887.648	4577
887.773	4565
887.897	4782
888.021	4763
888.146	4668
888.27	4774
888.395	4892
888.519	4793
888.643	4801
888.767	4820
888.891	4694
889.015	4618
889.139	4664
889.263	4607
889.387	4771
889.511	4862
889.635	4740
889.759	4641
889.883	4615
890.006	4736
890.13	4805
890.254	4607
890.377	4679
890.501	4573
890.624	4527
890.748	4584
890.871	4523
890.995	4413
891.118	4383
891.241	4519
891.364	4573
891.488	4603
891.611	4455
891.734	4542
891.857	4618
891.98	4558
892.103	4630
892.226	4527
892.349	4466
892.471	4394
892.594	4577
892.717	4577
892.839	4603
892.962	4573
893.085	4691
893.207	4558
893.33	4447
893.452	4504
893.575	4618
893.697	4611
893.819	4748
893.941	4831
894.064	4736
894.186	4615
894.308	4569
894.43	4752
894.552	4805
894.674	4725
894.796	4573
894.918	4580
895.04	4554
895.161	4683
895.283	4653
895.405	4538
895.526	4637
895.648	4618
895.769	4675
895.891	4702
896.012	4687
896.134	4725
896.255	4615
896.376	4660
896.498	4611
896.619	4683
896.74	4580
896.861	4634
896.982	4942
897.103	5052
897.224	4824
897.345	4694
897.466	4668
897.587	4687
897.708	4858
897.828	4767
897.949	4641
898.07	4531
898.19	4645
898.311	4812
898.431	4664
898.552	4702
898.672	4824
898.792	4771
898.913	4771
899.033	4668
899.153	4451
899.273	4436
899.393	4508
899.513	4516
899.633	4542
899.753	4531
899.873	4504
899.993	4550
900.113	4531
900.232	4523
900.352	4508
900.472	4489
900.591	4333
900.711	4447
900.83	4371
900.95	4588
901.069	4641
901.189	4519
901.308	4344
901.427	4291
901.546	4383
901.665	4436
901.784	4466
901.904	4379
902.023	4337
902.141	4200
902.26	4181
902.379	4299
902.498	4196
902.617	4211
902.735	4394
902.854	4398
902.973	4348
903.091	4185
903.21	4242
903.328	4280
903.446	4276
903.565	4223
903.683	4341
903.801	4242
903.919	4383
904.038	4421
904.156	4299
904.274	4390
904.392	4440
904.51	4367
904.627	4462
904.745	4596
904.863	4611
904.981	4402
905.098	4295
905.216	4363
905.334	4413
905.451	4470
905.569	4367
905.686	4558
905.803	4546
905.921	4447
906.038	4519
906.155	4481
906.272	4402
906.389	4394
906.506	4341
906.623	4360
906.74	4443
906.857	4348
906.974	4352
907.091	4535
907.208	4683
907.324	4592
907.441	4481
907.557	4341
907.674	4341
907.79	4291
907.907	4405
908.023	4474
908.139	4478
908.256	4443
908.372	4436
908.488	4455
908.604	4333
908.72	4299
908.836	4363
908.952	4329
909.068	4440
909.184	4535
909.3	4459
909.415	4558
909.531	4516
909.647	4333
909.762	4341
909.878	4329
909.993	4432
910.108	4405
910.224	4417
910.339	4409
910.454	4371
910.57	4344
910.685	4325
910.8	4630
910.915	4554
911.03	4493
911.145	4344
911.259	4344
911.374	4394
911.489	4306
911.604	4306
911.718	4166
911.833	4207
911.947	4086
912.062	4063
912.176	4185
912.291	4173
912.405	4265
912.519	4459
912.633	4519
912.748	4424
912.862	4303
912.976	4162
913.09	4109
913.204	4177
913.318	4227
913.431	4329
913.545	4360
913.659	4455
913.772	4421
913.886	4242
914	4192
914.113	4352
914.226	4436
914.34	4356
914.453	4192
914.566	4455
914.68	4284
914.793	4322
914.906	4173
915.019	4093
915.132	4120
915.245	4158
915.358	4223
915.47	4246
915.583	4272
915.696	4284
915.809	4413
915.921	4421
916.034	4257
916.146	4238
916.259	4249
916.371	4379
916.483	4367
916.595	4234
916.708	4325
916.82	4295
916.932	4295
917.044	4272
917.156	4284
917.268	4246
917.38	4287
917.491	4265
917.603	4318
917.715	4424
917.826	4405
917.938	4341
918.049	4204
918.161	4360
918.272	4523
918.384	4569
918.495	4440
918.606	4242
918.717	4207
918.828	4329
918.939	4386
919.05	4257
919.161	4318
919.272	4162
919.383	4249
919.494	4379
919.604	4630
919.715	4413
919.826	4367
919.936	4402
920.047	4538
920.157	4451
920.267	4691
920.378	4531
920.488	4481
920.598	4698
920.708	4904
920.818	4771
920.928	4771
921.038	4915
921.148	4881
921.258	4573
921.368	4607
921.477	4478
921.587	4409
921.697	4356
921.806	4558
921.916	4424
922.025	4272
922.134	4246
922.244	4200
922.353	4360
922.462	4181
922.571	4112
922.68	4002
922.789	3991
922.898	4002
923.007	3979
923.116	4109
923.224	4063
923.333	4059
923.442	3968
923.55	3937
923.659	4036
923.767	4051
923.876	3972
923.984	4109
924.092	3953
924.201	4078
924.309	4090
924.417	4116
924.525	4063
924.633	4124
924.741	5067
924.849	3918
924.956	4112
925.064	3930
925.172	3873
925.279	3994
925.387	4040
925.494	4128
925.602	4227
925.709	4158
925.816	4048
925.924	4086
926.031	4299
926.138	4143
926.245	4215
926.352	4082
926.459	4227
926.566	4291
926.673	4124
926.779	4071
926.886	4063
926.993	3972
927.099	3945
927.206	3953
927.312	3945
927.419	4055
927.525	3972
927.631	4078
927.737	3994
927.843	3941
927.95	3831
928.056	3972
928.162	3960
928.267	4040
928.373	4649
928.479	4086
928.585	3865
928.69	4002
928.796	4078
928.901	3979
929.007	3869
929.112	3949
929.218	3911
929.323	3922
929.428	3926
929.533	4086
929.638	3956
929.743	3960
929.848	4002
929.953	3998
930.058	3949
930.163	3797
930.267	3850
930.372	3987
930.477	3865
930.581	4135
930.685	4017
930.79	3838
930.894	3941
930.998	3873
931.103	4067
931.207	3751
931.311	3747
931.415	3686
931.519	3519
931.623	3580
