Data from test_V78500241_778.txt Node
Date: Fri Mar 25 16:54:24 CST 2022
User: usil
Spectrometer: V785-0024
Trigger mode: 0
Integration Time (sec): 4.000000E-1
Scans to average: 1
Nonlinearity correction enabled: false
Boxcar width: 0
Storing dark spectrum: false
XAxis mode: Wavelengths
Number of Pixels in Spectrum: 1024
>>>>>Begin Spectral Data<<<<<
801.071	8069
801.214	8050
801.356	7860
801.499	7902
801.641	7837
801.783	7909
801.926	8016
802.068	7967
802.211	8005
802.353	8039
802.496	7902
802.638	7909
802.78	7970
802.923	7917
803.065	7909
803.208	7921
803.35	7986
803.492	8058
803.635	8142
803.777	8043
803.919	8058
804.061	8419
804.204	8096
804.346	8043
804.488	8073
804.63	8157
804.773	8031
804.915	8119
805.057	8263
805.199	8153
805.341	8248
805.483	8298
805.626	8233
805.768	8092
805.91	8202
806.052	8187
806.194	8077
806.336	8301
806.478	8088
806.62	7993
806.762	8130
806.904	8267
807.046	8507
807.188	8362
807.33	8305
807.472	8343
807.614	8172
807.756	8130
807.898	7989
808.04	7970
808.182	7856
808.324	7887
808.465	7887
808.607	8043
808.749	8081
808.891	8225
809.033	8343
809.174	8271
809.316	8092
809.458	8092
809.6	7989
809.741	8039
809.883	8031
810.025	8115
810.166	8123
810.308	8043
810.45	8058
810.591	7780
810.733	7769
810.875	7761
811.016	7518
811.158	7537
811.299	7521
811.441	7753
811.582	7685
811.724	7601
811.865	7407
812.007	7548
812.148	7582
812.29	7567
812.431	7704
812.573	7864
812.714	7913
812.855	8180
812.997	8138
813.138	8263
813.279	8183
813.421	8096
813.562	7974
813.703	7803
813.845	7803
813.986	7449
814.127	7225
814.268	7247
814.41	7221
814.551	7080
814.692	7244
814.833	6996
814.974	7072
815.115	7091
815.256	6920
815.397	6958
815.539	7046
815.68	6882
815.821	6722
815.962	6837
816.103	6818
816.244	6707
816.385	6711
816.526	6639
816.666	6494
816.807	6277
816.948	6429
817.089	6475
817.23	6445
817.371	6426
817.512	6365
817.653	6422
817.793	6410
817.934	6452
818.075	6494
818.216	6422
818.356	6376
818.497	6289
818.638	6152
818.778	6155
818.919	6159
819.06	6117
819.2	6327
819.341	6300
819.481	6372
819.622	6521
819.762	6760
819.903	6730
820.043	6616
820.184	6623
820.324	6635
820.465	6684
820.605	6669
820.746	6646
820.886	6483
821.026	6650
821.167	6688
821.307	6764
821.447	6753
821.588	6665
821.728	6570
821.868	6464
822.008	6380
822.149	6384
822.289	6376
822.429	6178
822.569	6106
822.709	6098
822.849	5977
822.99	5912
823.13	5904
823.27	5946
823.41	5767
823.55	5794
823.69	5775
823.83	5840
823.97	5680
824.11	5520
824.25	5551
824.389	5600
824.529	5592
824.669	5516
824.809	5619
824.949	5649
825.089	5627
825.228	5596
825.368	5372
825.508	5337
825.648	5353
825.787	5387
825.927	5387
826.067	5334
826.206	5284
826.346	5414
826.485	5360
826.625	5421
826.765	5558
826.904	5497
827.044	5246
827.183	5223
827.323	5113
827.462	5292
827.601	5143
827.741	5132
827.88	5174
828.02	5098
828.159	5239
828.298	5296
828.437	5334
828.577	5235
828.716	5459
828.855	5364
828.994	5151
829.134	5147
829.273	5201
829.412	5124
829.551	5105
829.69	5185
829.829	5261
829.968	5334
830.107	5284
830.246	5277
830.385	5151
830.524	5204
830.663	5064
830.802	4976
830.941	4908
831.08	4957
831.219	4976
831.357	5010
831.496	5140
831.635	4999
831.774	4828
831.913	4850
832.051	4748
832.19	4793
832.329	4862
832.467	4702
832.606	4641
832.744	4763
832.883	4767
833.022	4774
833.16	4786
833.299	4839
833.437	4889
833.576	4854
833.714	4854
833.852	4923
833.991	4927
834.129	4980
834.267	4919
834.406	4854
834.544	5010
834.682	5022
834.821	4999
834.959	5162
835.097	4987
835.235	5140
835.373	5033
835.511	5048
835.65	5025
835.788	5029
835.926	4873
836.064	4843
836.202	4930
836.34	5189
836.478	5250
836.615	5052
836.753	5212
836.891	5254
837.029	5269
837.167	5181
837.305	5170
837.443	5128
837.58	5067
837.718	5246
837.856	5181
837.993	5166
838.131	5220
838.269	5258
838.406	5265
838.544	5193
838.681	5014
838.819	5003
838.956	4911
839.094	4889
839.231	5003
839.369	5045
839.506	5414
839.643	5242
839.781	5052
839.918	5029
840.055	5113
840.193	5086
840.33	5170
840.467	5151
840.604	5181
840.742	5436
840.879	5105
841.016	5045
841.153	5162
841.29	5410
841.427	5345
841.564	5353
841.701	5368
841.838	5273
841.975	5261
842.112	5269
842.249	5128
842.385	5071
842.522	5353
842.659	5143
842.796	5121
842.933	5201
843.069	5124
843.206	5140
843.343	5254
843.479	5242
843.616	5299
843.752	5094
843.889	4999
844.025	5201
844.162	5037
844.298	5208
844.435	5083
844.571	5098
844.708	5197
844.844	5337
844.98	5364
845.117	5296
845.253	5136
845.389	5086
845.525	5132
845.661	5136
845.798	5033
845.934	5113
846.07	5048
846.206	5204
846.342	5292
846.478	5155
846.614	5045
846.75	4972
846.886	4915
847.022	5189
847.158	4995
847.294	5075
847.429	5109
847.565	5121
847.701	5349
847.837	4908
847.972	4805
848.108	4965
848.244	4946
848.379	4771
848.515	4679
848.65	4698
848.786	4744
848.921	4793
849.057	4919
849.192	4942
849.328	4801
849.463	4850
849.598	4809
849.734	4797
849.869	4691
850.004	4653
850.14	4675
850.275	4653
850.41	4558
850.545	4565
850.68	4546
850.815	4592
850.95	4668
851.085	4847
851.22	4763
851.355	4702
851.49	4626
851.625	4668
851.76	4634
851.895	4561
852.03	4500
852.165	4618
852.299	4755
852.434	4805
852.569	4774
852.703	4736
852.838	4843
852.973	4957
853.107	4919
853.242	4714
853.376	4656
853.511	4493
853.645	4660
853.78	4812
853.914	4721
854.048	4714
854.183	4683
854.317	4706
854.451	4885
854.585	4687
854.72	4649
854.854	4759
854.988	4558
855.122	4656
855.256	4508
855.39	4653
855.524	4733
855.658	4687
855.792	4687
855.926	4675
856.06	4755
856.194	4824
856.327	4698
856.461	4596
856.595	4653
856.729	4611
856.862	4744
856.996	4702
857.13	4687
857.263	4748
857.397	4801
857.53	4622
857.664	4691
857.797	4782
857.931	4793
858.064	4675
858.197	4721
858.331	4664
858.464	4573
858.597	4512
858.731	4679
858.864	4634
858.997	4599
859.13	4630
859.263	4672
859.396	4687
859.529	4542
859.662	4615
859.795	4561
859.928	4653
860.061	4778
860.194	4752
860.327	4592
860.46	4611
860.592	4736
860.725	4687
860.858	4702
860.99	4588
861.123	4500
861.256	4542
861.388	4607
861.521	5227
861.653	4497
861.786	4443
861.918	4440
862.05	4489
862.183	4554
862.315	4615
862.447	4618
862.58	4542
862.712	4428
862.844	4318
862.976	4504
863.108	4432
863.24	4915
863.372	4348
863.504	4447
863.636	4402
863.768	4474
863.9	4383
864.032	4383
864.164	4398
864.296	4493
864.428	4504
864.559	4569
864.691	4512
864.823	4527
864.954	4497
865.086	4519
865.217	4451
865.349	4402
865.48	4451
865.612	4451
865.743	4641
865.875	4424
866.006	4405
866.137	4470
866.269	4470
866.4	4478
866.531	4398
866.662	4348
866.793	4394
866.924	4421
867.055	4527
867.186	4432
867.317	4443
867.448	4344
867.579	4356
867.71	4379
867.841	4310
867.972	4459
868.103	4440
868.233	4440
868.364	4478
868.495	4451
868.625	4649
868.756	4771
868.886	4542
869.017	4561
869.147	4736
869.278	4790
869.408	4615
869.539	4611
869.669	4672
869.799	4679
869.929	4771
870.06	4740
870.19	4911
870.32	4889
870.45	4923
870.58	5052
870.71	5071
870.84	5136
870.97	4942
871.1	4896
871.23	5113
871.36	5113
871.489	4953
871.619	5098
871.749	5045
871.879	5124
872.008	5151
872.138	5048
872.267	5010
872.397	4843
872.526	4771
872.656	4660
872.785	4809
872.915	4953
873.044	5048
873.173	4923
873.303	4965
873.432	4961
873.561	4976
873.69	4877
873.819	4881
873.948	4885
874.077	4835
874.206	4729
874.335	4755
874.464	4900
874.593	5025
874.722	4877
874.851	5064
874.979	5083
875.108	5045
875.237	4866
875.365	4904
875.494	4858
875.623	5025
875.751	4858
875.88	4873
876.008	4938
876.136	5006
876.265	5265
876.393	5334
876.521	5250
876.65	5178
876.778	5159
876.906	5075
877.034	5086
877.162	5037
877.29	4991
877.418	5010
877.546	5014
877.674	5014
877.802	4984
877.93	5025
878.058	4919
878.185	4900
878.313	4942
878.441	4972
878.568	4782
878.696	4866
878.824	5003
878.951	4976
879.079	5075
879.206	5288
879.333	5113
879.461	4949
879.588	4949
879.715	5147
879.842	5197
879.97	5003
880.097	4778
880.224	4675
880.351	4771
880.478	4847
880.605	4828
880.732	4820
880.859	5109
880.986	4915
881.112	4896
881.239	4744
881.366	4630
881.493	4607
881.619	4573
881.746	4672
881.872	4653
881.999	4675
882.125	4729
882.252	4820
882.378	4793
882.505	4984
882.631	4835
882.757	4641
882.883	4702
883.01	4748
883.136	4656
883.262	4599
883.388	4603
883.514	4839
883.64	4873
883.766	4797
883.892	4656
884.018	4736
884.143	4873
884.269	4984
884.395	4687
884.52	4569
884.646	4577
884.772	4569
884.897	4538
885.023	4660
885.148	4820
885.274	4831
885.399	4820
885.524	4748
885.65	4675
885.775	4771
885.9	4778
886.025	4900
886.15	4755
886.275	4740
886.4	4645
886.525	4782
886.65	4694
886.775	4679
886.9	4896
887.025	5025
887.149	4801
887.274	4668
887.399	4596
887.523	4603
887.648	4561
887.773	4538
887.897	4706
888.021	4801
888.146	4637
888.27	4809
888.395	4877
888.519	4828
888.643	4805
888.767	4786
888.891	4660
889.015	4626
889.139	4679
889.263	4588
889.387	4744
889.511	4866
889.635	4759
889.759	4641
889.883	4599
890.006	4710
890.13	4805
890.254	4615
890.377	4683
890.501	4531
890.624	4516
890.748	4615
890.871	4504
890.995	4466
891.118	4402
891.241	4527
891.364	4565
891.488	4634
891.611	4466
891.734	4550
891.857	4599
891.98	4569
892.103	4630
892.226	4603
892.349	4504
892.471	4409
892.594	4542
892.717	4573
892.839	4561
892.962	4596
893.085	4653
893.207	4577
893.33	4478
893.452	4542
893.575	4653
893.697	4550
893.819	4816
893.941	4835
894.064	4774
894.186	4573
894.308	4558
894.43	4717
894.552	4782
894.674	4717
894.796	4550
894.918	4626
895.04	4577
895.161	4679
895.283	4714
895.405	4588
895.526	4630
895.648	4645
895.769	4710
895.891	4668
896.012	4733
896.134	4748
896.255	4653
896.376	4679
896.498	4618
896.619	4683
896.74	4599
896.861	4630
896.982	4949
897.103	5083
897.224	4858
897.345	4736
897.466	4668
897.587	4714
897.708	4862
897.828	4752
897.949	4672
898.07	4527
898.19	4656
898.311	4790
898.431	4630
898.552	4733
898.672	4797
898.792	4812
898.913	4759
899.033	4603
899.153	4462
899.273	4440
899.393	4516
899.513	4535
899.633	4558
899.753	4516
899.873	4527
899.993	4592
900.113	4512
900.232	4592
900.352	4512
900.472	4485
900.591	4421
900.711	4512
900.83	4447
900.95	4554
901.069	4687
901.189	4508
901.308	4394
901.427	4291
901.546	4371
901.665	4519
901.784	4508
901.904	4356
902.023	4333
902.141	4188
902.26	4173
902.379	4246
902.498	4268
902.617	4242
902.735	4322
902.854	4405
902.973	4337
903.091	4158
903.21	4196
903.328	4287
903.446	4280
903.565	4257
903.683	4295
903.801	4253
903.919	4379
904.038	4402
904.156	4287
904.274	4440
904.392	4417
904.51	4390
904.627	4447
904.745	4588
904.863	4641
904.981	4390
905.098	4306
905.216	4352
905.334	4474
905.451	4466
905.569	4443
905.686	4554
905.803	4558
905.921	4379
906.038	4584
906.155	4504
906.272	4367
906.389	4436
906.506	4341
906.623	4394
906.74	4379
906.857	4314
906.974	4379
907.091	4565
907.208	4721
907.324	4592
907.441	4504
907.557	4344
907.674	4360
907.79	4337
907.907	4360
908.023	4481
908.139	4497
908.256	4489
908.372	4443
908.488	4436
908.604	4398
908.72	4249
908.836	4409
908.952	4386
909.068	4413
909.184	4546
909.3	4421
909.415	4573
909.531	4561
909.647	4348
909.762	4386
909.878	4337
909.993	4405
910.108	4394
910.224	4386
910.339	4451
910.454	4329
910.57	4348
910.685	4291
910.8	4588
910.915	4580
911.03	4531
911.145	4363
911.259	4318
911.374	4348
911.489	4280
911.604	4287
911.718	4135
911.833	4196
911.947	4036
912.062	3994
912.176	4207
912.291	4204
912.405	4253
912.519	4481
912.633	4497
912.748	4363
912.862	4322
912.976	4158
913.09	4120
913.204	4196
913.318	4253
913.431	4383
913.545	4417
913.659	4360
913.772	4329
913.886	4207
914	4227
914.113	4325
914.226	4417
914.34	4356
914.453	4223
914.566	4428
914.68	4314
914.793	4306
914.906	4128
915.019	4128
915.132	4112
915.245	4223
915.358	4181
915.47	4253
915.583	4265
915.696	4246
915.809	4394
915.921	4394
916.034	4234
916.146	4295
916.259	4230
916.371	4375
916.483	4402
916.595	4257
916.708	4356
916.82	4306
916.932	4310
917.044	4318
917.156	4314
917.268	4249
917.38	4272
917.491	4181
917.603	4352
917.715	4417
917.826	4474
917.938	4341
918.049	4253
918.161	4398
918.272	4516
918.384	4561
918.495	4417
918.606	4333
918.717	4230
918.828	4341
918.939	4371
919.05	4268
919.161	4314
919.272	4162
919.383	4238
919.494	4421
919.604	4596
919.715	4409
919.826	4367
919.936	4379
920.047	4485
920.157	4436
920.267	4714
920.378	4550
920.488	4497
920.598	4702
920.708	4904
920.818	4755
920.928	4767
921.038	4953
921.148	4949
921.258	4577
921.368	4546
921.477	4538
921.587	4459
921.697	4386
921.806	4569
921.916	4447
922.025	4230
922.134	4306
922.244	4230
922.353	4337
922.462	4158
922.571	4177
922.68	3994
922.789	3987
922.898	4025
923.007	3991
923.116	4074
923.224	4044
923.333	4051
923.442	3960
923.55	3956
923.659	4021
923.767	4112
923.876	3956
923.984	4147
924.092	3972
924.201	4032
924.309	4021
924.417	4131
924.525	4044
924.633	4124
924.741	4900
924.849	3888
924.956	4078
925.064	3983
925.172	3869
925.279	3987
925.387	4071
925.494	4063
925.602	4207
925.709	4185
925.816	4067
925.924	4116
926.031	4204
926.138	4204
926.245	4181
926.352	4105
926.459	4261
926.566	4265
926.673	4124
926.779	4109
926.886	4059
926.993	3994
927.099	3926
927.206	3918
927.312	3911
927.419	4067
927.525	3994
927.631	4059
927.737	3937
927.843	3949
927.95	3842
928.056	3941
928.162	4013
928.267	4063
928.373	4725
928.479	4116
928.585	3888
928.69	4010
928.796	4071
928.901	4006
929.007	3808
929.112	4002
929.218	4006
929.323	3918
929.428	3956
929.533	4128
929.638	3945
929.743	3945
929.848	4006
929.953	3991
930.058	3911
930.163	3816
930.267	3812
930.372	3972
930.477	3804
930.581	4086
930.685	3953
930.79	3861
930.894	3873
930.998	3876
931.103	4036
931.207	3701
931.311	3679
931.415	3682
931.519	3542
931.623	3561
