Data from test_V78500241_2801.txt Node
Date: Fri Mar 25 17:08:28 CST 2022
User: usil
Spectrometer: V785-0024
Trigger mode: 0
Integration Time (sec): 4.000000E-1
Scans to average: 1
Nonlinearity correction enabled: false
Boxcar width: 0
Storing dark spectrum: false
XAxis mode: Wavelengths
Number of Pixels in Spectrum: 1024
>>>>>Begin Spectral Data<<<<<
801.071	8046
801.214	8035
801.356	7871
801.499	7875
801.641	7830
801.783	7833
801.926	7970
802.068	7928
802.211	7982
802.353	7940
802.496	7894
802.638	7822
802.78	7879
802.923	7932
803.065	7826
803.208	7852
803.35	7974
803.492	8069
803.635	8248
803.777	8027
803.919	8187
804.061	8461
804.204	8134
804.346	8058
804.488	7993
804.63	8176
804.773	8012
804.915	8081
805.057	8244
805.199	8103
805.341	8218
805.483	8301
805.626	8240
805.768	8199
805.91	8256
806.052	8202
806.194	8088
806.336	8336
806.478	8130
806.62	8119
806.762	8157
806.904	8317
807.046	8492
807.188	8412
807.33	8324
807.472	8366
807.614	8225
807.756	8199
807.898	8096
808.04	7898
808.182	7963
808.324	7982
808.465	7959
808.607	8115
808.749	8183
808.891	8290
809.033	8309
809.174	8180
809.316	8088
809.458	8062
809.6	7993
809.741	8100
809.883	8130
810.025	8172
810.166	8157
810.308	8024
810.45	8016
810.591	7909
810.733	7753
810.875	7708
811.016	7605
811.158	7533
811.299	7636
811.441	7696
811.582	7715
811.724	7575
811.865	7575
812.007	7651
812.148	7643
812.29	7681
812.431	7833
812.573	7909
812.714	8069
812.855	8126
812.997	8221
813.138	8366
813.279	8202
813.421	8138
813.562	8054
813.703	7944
813.845	7814
813.986	7521
814.127	7343
814.268	7285
814.41	7259
814.551	7190
814.692	7293
814.833	7084
814.974	7129
815.115	7099
815.256	6977
815.397	7042
815.539	6966
815.68	6852
815.821	6768
815.962	6848
816.103	6932
816.244	6757
816.385	6719
816.526	6703
816.666	6528
816.807	6327
816.948	6513
817.089	6570
817.23	6464
817.371	6464
817.512	6376
817.653	6475
817.793	6429
817.934	6437
818.075	6490
818.216	6426
818.356	6483
818.497	6197
818.638	6159
818.778	6148
818.919	6182
819.06	6186
819.2	6399
819.341	6342
819.481	6395
819.622	6528
819.762	6749
819.903	6738
820.043	6582
820.184	6673
820.324	6627
820.465	6711
820.605	6741
820.746	6715
820.886	6570
821.026	6707
821.167	6802
821.307	6837
821.447	6772
821.588	6715
821.728	6639
821.868	6506
822.008	6319
822.149	6376
822.289	6399
822.429	6175
822.569	6117
822.709	6190
822.849	5927
822.99	5942
823.13	5980
823.27	5939
823.41	5840
823.55	5817
823.69	5790
823.83	5767
823.97	5703
824.11	5554
824.25	5596
824.389	5581
824.529	5600
824.669	5497
824.809	5684
824.949	5691
825.089	5661
825.228	5611
825.368	5414
825.508	5368
825.648	5353
825.787	5376
825.927	5398
826.067	5330
826.206	5345
826.346	5436
826.485	5372
826.625	5429
826.765	5570
826.904	5543
827.044	5299
827.183	5204
827.323	5159
827.462	5265
827.601	5242
827.741	5204
827.88	5193
828.02	5151
828.159	5284
828.298	5326
828.437	5368
828.577	5322
828.716	5509
828.855	5311
828.994	5185
829.134	5166
829.273	5220
829.412	5155
829.551	5181
829.69	5197
829.829	5303
829.968	5410
830.107	5368
830.246	5307
830.385	5166
830.524	5204
830.663	5132
830.802	5003
830.941	4938
831.08	4873
831.219	5006
831.357	5006
831.496	5185
831.635	4991
831.774	4870
831.913	4828
832.051	4748
832.19	4816
832.329	4801
832.467	4721
832.606	4694
832.744	4816
832.883	4744
833.022	4706
833.16	4771
833.299	4870
833.437	4889
833.576	4877
833.714	4858
833.852	4908
833.991	4911
834.129	5025
834.267	4976
834.406	4908
834.544	5018
834.682	5033
834.821	4976
834.959	5189
835.097	4999
835.235	5128
835.373	5121
835.511	5105
835.65	5033
835.788	5033
835.926	4934
836.064	4953
836.202	4927
836.34	5185
836.478	5261
836.615	5166
836.753	5242
836.891	5303
837.029	5242
837.167	5197
837.305	5178
837.443	5178
837.58	5102
837.718	5326
837.856	5208
837.993	5162
838.131	5265
838.269	5246
838.406	5239
838.544	5201
838.681	5018
838.819	5060
838.956	4965
839.094	4927
839.231	5014
839.369	5083
839.506	5486
839.643	5307
839.781	5067
839.918	5060
840.055	5128
840.193	5090
840.33	5143
840.467	5162
840.604	5193
840.742	5516
840.879	5143
841.016	5117
841.153	5109
841.29	5429
841.427	5417
841.564	5357
841.701	5391
841.838	5341
841.975	5284
842.112	5258
842.249	5216
842.385	5121
842.522	5303
842.659	5136
842.796	5193
842.933	5216
843.069	5147
843.206	5181
843.343	5345
843.479	5250
843.616	5292
843.752	5014
843.889	5041
844.025	5220
844.162	5105
844.298	5231
844.435	5151
844.571	5086
844.708	5189
844.844	5273
844.98	5417
845.117	5311
845.253	5155
845.389	5098
845.525	5166
845.661	5140
845.798	5067
845.934	5170
846.07	5056
846.206	5223
846.342	5307
846.478	5208
846.614	5041
846.75	4999
846.886	4927
847.022	5155
847.158	5067
847.294	5117
847.429	5132
847.565	5090
847.701	5341
847.837	4885
847.972	4850
848.108	4999
848.244	4972
848.379	4797
848.515	4767
848.65	4725
848.786	4763
848.921	4843
849.057	4873
849.192	4904
849.328	4797
849.463	4873
849.598	4820
849.734	4809
849.869	4714
850.004	4656
850.14	4675
850.275	4615
850.41	4561
850.545	4546
850.68	4599
850.815	4664
850.95	4645
851.085	4885
851.22	4805
851.355	4752
851.49	4599
851.625	4660
851.76	4687
851.895	4573
852.03	4580
852.165	4683
852.299	4767
852.434	4805
852.569	4793
852.703	4778
852.838	4866
852.973	4896
853.107	4949
853.242	4835
853.376	4706
853.511	4596
853.645	4645
853.78	4839
853.914	4698
854.048	4694
854.183	4660
854.317	4721
854.451	4889
854.585	4668
854.72	4664
854.854	4759
854.988	4622
855.122	4668
855.256	4561
855.39	4717
855.524	4797
855.658	4752
855.792	4721
855.926	4740
856.06	4771
856.194	4774
856.327	4733
856.461	4554
856.595	4634
856.729	4603
856.862	4767
856.996	4740
857.13	4759
857.263	4748
857.397	4816
857.53	4634
857.664	4763
857.797	4797
857.931	4786
858.064	4706
858.197	4767
858.331	4630
858.464	4596
858.597	4569
858.731	4672
858.864	4668
858.997	4599
859.13	4706
859.263	4702
859.396	4679
859.529	4561
859.662	4577
859.795	4596
859.928	4656
860.061	4797
860.194	4771
860.327	4664
860.46	4599
860.592	4740
860.725	4729
860.858	4752
860.99	4603
861.123	4542
861.256	4558
861.388	4634
861.521	5341
861.653	4504
861.786	4455
861.918	4481
862.05	4565
862.183	4599
862.315	4626
862.447	4683
862.58	4592
862.712	4436
862.844	4348
862.976	4512
863.108	4500
863.24	4782
863.372	4379
863.504	4462
863.636	4390
863.768	4478
863.9	4424
864.032	4375
864.164	4428
864.296	4500
864.428	4546
864.559	4577
864.691	4519
864.823	4485
864.954	4474
865.086	4538
865.217	4474
865.349	4428
865.48	4455
865.612	4504
865.743	4660
865.875	4500
866.006	4443
866.137	4538
866.269	4443
866.4	4428
866.531	4436
866.662	4417
866.793	4409
866.924	4428
867.055	4481
867.186	4504
867.317	4459
867.448	4390
867.579	4367
867.71	4417
867.841	4371
867.972	4478
868.103	4500
868.233	4413
868.364	4474
868.495	4489
868.625	4637
868.756	4820
868.886	4592
869.017	4599
869.147	4763
869.278	4744
869.408	4702
869.539	4660
869.669	4725
869.799	4660
869.929	4755
870.06	4767
870.19	4961
870.32	4889
870.45	4965
870.58	5025
870.71	5121
870.84	5128
870.97	5003
871.1	4900
871.23	5132
871.36	5113
871.489	5060
871.619	5098
871.749	5109
871.879	5178
872.008	5162
872.138	5041
872.267	4968
872.397	4850
872.526	4793
872.656	4763
872.785	4812
872.915	4911
873.044	5083
873.173	4949
873.303	4949
873.432	5006
873.561	4984
873.69	4873
873.819	4889
873.948	4991
874.077	4835
874.206	4721
874.335	4786
874.464	4999
874.593	5052
874.722	4961
874.851	5105
874.979	5098
875.108	5014
875.237	4889
875.365	4896
875.494	4889
875.623	4965
875.751	4812
875.88	4896
876.008	5014
876.136	5041
876.265	5208
876.393	5311
876.521	5341
876.65	5185
876.778	5178
876.906	5155
877.034	5025
877.162	4991
877.29	5041
877.418	5056
877.546	5060
877.674	4999
877.802	5045
877.93	5041
878.058	4930
878.185	4850
878.313	4980
878.441	4930
878.568	4786
878.696	4892
878.824	4942
878.951	5018
879.079	5086
879.206	5288
879.333	5094
879.461	4961
879.588	4999
879.715	5151
879.842	5170
879.97	5014
880.097	4774
880.224	4763
880.351	4812
880.478	4854
880.605	4812
880.732	4866
880.859	5109
880.986	4862
881.112	4908
881.239	4778
881.366	4706
881.493	4668
881.619	4565
881.746	4649
881.872	4687
881.999	4641
882.125	4698
882.252	4801
882.378	4786
882.505	4995
882.631	4839
882.757	4691
882.883	4744
883.01	4717
883.136	4698
883.262	4637
883.388	4630
883.514	4862
883.64	4843
883.766	4801
883.892	4668
884.018	4793
884.143	4949
884.269	5075
884.395	4740
884.52	4649
884.646	4660
884.772	4698
884.897	4611
885.023	4672
885.148	4797
885.274	4923
885.399	4847
885.524	4797
885.65	4740
885.775	4774
885.9	4767
886.025	4889
886.15	4816
886.275	4774
886.4	4679
886.525	4706
886.65	4725
886.775	4748
886.9	4942
887.025	5102
887.149	4854
887.274	4687
887.399	4653
887.523	4641
887.648	4618
887.773	4637
887.897	4824
888.021	4828
888.146	4763
888.27	4835
888.395	4949
888.519	4843
888.643	4873
888.767	4904
888.891	4729
889.015	4615
889.139	4752
889.263	4691
889.387	4778
889.511	4923
889.635	4854
889.759	4698
889.883	4710
890.006	4755
890.13	4862
890.254	4672
890.377	4733
890.501	4580
890.624	4565
890.748	4679
890.871	4584
890.995	4478
891.118	4428
891.241	4527
891.364	4618
891.488	4717
891.611	4546
891.734	4584
891.857	4664
891.98	4596
892.103	4721
892.226	4634
892.349	4554
892.471	4459
892.594	4630
892.717	4634
892.839	4649
892.962	4637
893.085	4725
893.207	4630
893.33	4527
893.452	4569
893.575	4717
893.697	4618
893.819	4866
893.941	4870
894.064	4870
894.186	4634
894.308	4573
894.43	4824
894.552	4919
894.674	4801
894.796	4607
894.918	4683
895.04	4607
895.161	4774
895.283	4675
895.405	4603
895.526	4702
895.648	4736
895.769	4721
895.891	4740
896.012	4831
896.134	4752
896.255	4729
896.376	4717
896.498	4660
896.619	4759
896.74	4717
896.861	4759
896.982	4995
897.103	5147
897.224	4873
897.345	4786
897.466	4698
897.587	4774
897.708	4900
897.828	4786
897.949	4694
898.07	4580
898.19	4694
898.311	4870
898.431	4672
898.552	4752
898.672	4896
898.792	4793
898.913	4778
899.033	4675
899.153	4611
899.273	4485
899.393	4535
899.513	4558
899.633	4592
899.753	4580
899.873	4565
899.993	4618
900.113	4626
900.232	4668
900.352	4588
900.472	4561
900.591	4417
900.711	4523
900.83	4516
900.95	4660
901.069	4748
901.189	4569
901.308	4428
901.427	4337
901.546	4436
901.665	4474
901.784	4580
901.904	4413
902.023	4371
902.141	4227
902.26	4177
902.379	4318
902.498	4268
902.617	4253
902.735	4367
902.854	4459
902.973	4402
903.091	4261
903.21	4287
903.328	4344
903.446	4295
903.565	4303
903.683	4405
903.801	4348
903.919	4409
904.038	4497
904.156	4375
904.274	4489
904.392	4413
904.51	4451
904.627	4527
904.745	4596
904.863	4660
904.981	4409
905.098	4348
905.216	4398
905.334	4474
905.451	4493
905.569	4497
905.686	4592
905.803	4599
905.921	4432
906.038	4599
906.155	4519
906.272	4443
906.389	4519
906.506	4383
906.623	4390
906.74	4428
906.857	4344
906.974	4421
907.091	4618
907.208	4733
907.324	4641
907.441	4538
907.557	4390
907.674	4413
907.79	4356
907.907	4440
908.023	4489
908.139	4538
908.256	4474
908.372	4508
908.488	4470
908.604	4428
908.72	4352
908.836	4421
908.952	4402
909.068	4459
909.184	4580
909.3	4504
909.415	4615
909.531	4554
909.647	4363
909.762	4424
909.878	4360
909.993	4478
910.108	4500
910.224	4455
910.339	4470
910.454	4436
910.57	4390
910.685	4333
910.8	4698
910.915	4664
911.03	4497
911.145	4348
911.259	4337
911.374	4409
911.489	4322
911.604	4333
911.718	4230
911.833	4272
911.947	4109
912.062	4044
912.176	4215
912.291	4230
912.405	4322
912.519	4481
912.633	4573
912.748	4375
912.862	4363
912.976	4230
913.09	4135
913.204	4200
913.318	4299
913.431	4386
913.545	4413
913.659	4466
913.772	4363
913.886	4268
914	4322
914.113	4413
914.226	4466
914.34	4402
914.453	4272
914.566	4413
914.68	4386
914.793	4383
914.906	4185
915.019	4158
915.132	4097
915.245	4219
915.358	4207
915.47	4325
915.583	4268
915.696	4322
915.809	4440
915.921	4485
916.034	4306
916.146	4268
916.259	4242
916.371	4398
916.483	4440
916.595	4314
916.708	4386
916.82	4394
916.932	4348
917.044	4398
917.156	4383
917.268	4257
917.38	4306
917.491	4329
917.603	4394
917.715	4512
917.826	4455
917.938	4352
918.049	4276
918.161	4383
918.272	4550
918.384	4626
918.495	4466
918.606	4356
918.717	4348
918.828	4424
918.939	4405
919.05	4314
919.161	4363
919.272	4185
919.383	4257
919.494	4512
919.604	4679
919.715	4466
919.826	4367
919.936	4394
920.047	4554
920.157	4478
920.267	4736
920.378	4558
920.488	4538
920.598	4755
920.708	4900
920.818	4793
920.928	4793
921.038	5014
921.148	4923
921.258	4694
921.368	4626
921.477	4558
921.587	4481
921.697	4424
921.806	4569
921.916	4497
922.025	4314
922.134	4341
922.244	4295
922.353	4371
922.462	4204
922.571	4173
922.68	4017
922.789	3991
922.898	4067
923.007	4029
923.116	4154
923.224	4147
923.333	4063
923.442	4059
923.55	4036
923.659	4071
923.767	4147
923.876	4040
923.984	4154
924.092	4010
924.201	4135
924.309	4124
924.417	4192
924.525	4063
924.633	4112
924.741	4965
924.849	3937
924.956	4162
925.064	3983
925.172	3979
925.279	3983
925.387	4090
925.494	4109
925.602	4272
925.709	4230
925.816	4017
925.924	4116
926.031	4253
926.138	4173
926.245	4257
926.352	4128
926.459	4287
926.566	4318
926.673	4177
926.779	4112
926.886	4086
926.993	4006
927.099	3956
927.206	4017
927.312	3987
927.419	4063
927.525	4032
927.631	4120
927.737	4017
927.843	3949
927.95	3941
928.056	3991
928.162	4006
928.267	4078
928.373	4736
928.479	4147
928.585	3945
928.69	4067
928.796	4131
928.901	4032
929.007	3846
929.112	4055
929.218	3979
929.323	3949
929.428	3983
929.533	4173
929.638	3945
929.743	4006
929.848	4090
929.953	4021
930.058	3960
930.163	3816
930.267	3869
930.372	4044
930.477	3823
930.581	4112
930.685	3945
930.79	3865
930.894	3907
930.998	3869
931.103	4059
931.207	3732
931.311	3751
931.415	3690
931.519	3553
931.623	3595
