Data from test_V78500241_1468.txt Node
Date: Fri Mar 25 16:59:12 CST 2022
User: usil
Spectrometer: V785-0024
Trigger mode: 0
Integration Time (sec): 4.000000E-1
Scans to average: 1
Nonlinearity correction enabled: false
Boxcar width: 0
Storing dark spectrum: false
XAxis mode: Wavelengths
Number of Pixels in Spectrum: 1024
>>>>>Begin Spectral Data<<<<<
801.071	7959
801.214	8016
801.356	7963
801.499	7837
801.641	7776
801.783	7761
801.926	7978
802.068	7906
802.211	8012
802.353	8027
802.496	7841
802.638	7856
802.78	7864
802.923	7963
803.065	7890
803.208	7868
803.35	8020
803.492	8058
803.635	8153
803.777	8054
803.919	8142
804.061	8396
804.204	8191
804.346	8088
804.488	7940
804.63	8065
804.773	8043
804.915	8119
805.057	8275
805.199	8183
805.341	8180
805.483	8275
805.626	8267
805.768	8176
805.91	8206
806.052	8183
806.194	8035
806.336	8298
806.478	8073
806.62	8103
806.762	8123
806.904	8294
807.046	8457
807.188	8332
807.33	8279
807.472	8282
807.614	8172
807.756	8119
807.898	7913
808.04	7921
808.182	7879
808.324	7909
808.465	7978
808.607	8115
808.749	8046
808.891	8210
809.033	8279
809.174	8180
809.316	8008
809.458	8123
809.6	8001
809.741	8005
809.883	8062
810.025	8115
810.166	8096
810.308	8035
810.45	7986
810.591	7837
810.733	7723
810.875	7700
811.016	7559
811.158	7430
811.299	7556
811.441	7696
811.582	7723
811.724	7601
811.865	7521
812.007	7552
812.148	7636
812.29	7597
812.431	7734
812.573	7841
812.714	7959
812.855	8103
812.997	8183
813.138	8309
813.279	8168
813.421	8088
813.562	7932
813.703	7856
813.845	7715
813.986	7468
814.127	7274
814.268	7217
814.41	7107
814.551	7156
814.692	7236
814.833	7095
814.974	7107
815.115	7110
815.256	6928
815.397	6913
815.539	6920
815.68	6810
815.821	6730
815.962	6848
816.103	6802
816.244	6646
816.385	6673
816.526	6608
816.666	6464
816.807	6342
816.948	6445
817.089	6456
817.23	6414
817.371	6342
817.512	6357
817.653	6452
817.793	6327
817.934	6384
818.075	6433
818.216	6350
818.356	6380
818.497	6277
818.638	6079
818.778	6194
818.919	6159
819.06	6175
819.2	6334
819.341	6323
819.481	6369
819.622	6483
819.762	6711
819.903	6635
820.043	6623
820.184	6551
820.324	6608
820.465	6631
820.605	6669
820.746	6616
820.886	6513
821.026	6662
821.167	6726
821.307	6776
821.447	6795
821.588	6734
821.728	6551
821.868	6479
822.008	6319
822.149	6334
822.289	6334
822.429	6171
822.569	6095
822.709	6091
822.849	5939
822.99	5927
823.13	5904
823.27	5866
823.41	5790
823.55	5786
823.69	5817
823.83	5802
823.97	5714
824.11	5585
824.25	5573
824.389	5581
824.529	5592
824.669	5558
824.809	5653
824.949	5653
825.089	5646
825.228	5585
825.368	5417
825.508	5357
825.648	5402
825.787	5414
825.927	5417
826.067	5334
826.206	5360
826.346	5493
826.485	5440
826.625	5478
826.765	5600
826.904	5547
827.044	5315
827.183	5246
827.323	5113
827.462	5318
827.601	5197
827.741	5204
827.88	5254
828.02	5162
828.159	5277
828.298	5330
828.437	5402
828.577	5322
828.716	5463
828.855	5326
828.994	5201
829.134	5151
829.273	5261
829.412	5193
829.551	5166
829.69	5166
829.829	5269
829.968	5448
830.107	5322
830.246	5296
830.385	5208
830.524	5159
830.663	5105
830.802	4999
830.941	4881
831.08	4873
831.219	5048
831.357	4984
831.496	5170
831.635	4999
831.774	4870
831.913	4862
832.051	4767
832.19	4771
832.329	4805
832.467	4733
832.606	4717
832.744	4729
832.883	4774
833.022	4759
833.16	4835
833.299	4870
833.437	4870
833.576	4850
833.714	4854
833.852	4892
833.991	4957
834.129	5022
834.267	4980
834.406	4938
834.544	5010
834.682	5033
834.821	4991
834.959	5162
835.097	5010
835.235	5178
835.373	5132
835.511	5170
835.65	5083
835.788	5060
835.926	4957
836.064	4923
836.202	4938
836.34	5147
836.478	5242
836.615	5174
836.753	5250
836.891	5315
837.029	5235
837.167	5261
837.305	5178
837.443	5189
837.58	5124
837.718	5292
837.856	5212
837.993	5193
838.131	5231
838.269	5265
838.406	5250
838.544	5223
838.681	5105
838.819	5033
838.956	4930
839.094	4896
839.231	4980
839.369	5086
839.506	5433
839.643	5322
839.781	5075
839.918	5033
840.055	5124
840.193	5140
840.33	5132
840.467	5170
840.604	5170
840.742	5486
840.879	5155
841.016	5083
841.153	5178
841.29	5436
841.427	5357
841.564	5353
841.701	5349
841.838	5326
841.975	5269
842.112	5284
842.249	5113
842.385	5143
842.522	5360
842.659	5174
842.796	5223
842.933	5162
843.069	5189
843.206	5231
843.343	5318
843.479	5292
843.616	5322
843.752	5033
843.889	5052
844.025	5201
844.162	5056
844.298	5197
844.435	5060
844.571	5025
844.708	5223
844.844	5357
844.98	5395
845.117	5330
845.253	5162
845.389	5083
845.525	5189
845.661	5181
845.798	5064
845.934	5155
846.07	5105
846.206	5223
846.342	5280
846.478	5193
846.614	5048
846.75	4968
846.886	4972
847.022	5113
847.158	5045
847.294	5071
847.429	5155
847.565	5079
847.701	5299
847.837	4923
847.972	4816
848.108	4946
848.244	4991
848.379	4839
848.515	4790
848.65	4755
848.786	4801
848.921	4805
849.057	4854
849.192	4961
849.328	4850
849.463	4831
849.598	4858
849.734	4755
849.869	4752
850.004	4599
850.14	4702
850.275	4649
850.41	4569
850.545	4493
850.68	4626
850.815	4637
850.95	4664
851.085	4870
851.22	4793
851.355	4710
851.49	4630
851.625	4660
851.76	4683
851.895	4607
852.03	4565
852.165	4710
852.299	4782
852.434	4790
852.569	4717
852.703	4793
852.838	4828
852.973	4923
853.107	4923
853.242	4683
853.376	4725
853.511	4603
853.645	4630
853.78	4816
853.914	4717
854.048	4675
854.183	4698
854.317	4694
854.451	4908
854.585	4748
854.72	4664
854.854	4812
854.988	4603
855.122	4637
855.256	4550
855.39	4710
855.524	4805
855.658	4729
855.792	4717
855.926	4771
856.06	4850
856.194	4759
856.327	4752
856.461	4645
856.595	4554
856.729	4675
856.862	4759
856.996	4710
857.13	4710
857.263	4733
857.397	4850
857.53	4656
857.664	4774
857.797	4809
857.931	4778
858.064	4668
858.197	4733
858.331	4645
858.464	4622
858.597	4542
858.731	4649
858.864	4649
858.997	4580
859.13	4637
859.263	4634
859.396	4683
859.529	4615
859.662	4561
859.795	4588
859.928	4607
860.061	4790
860.194	4778
860.327	4641
860.46	4592
860.592	4740
860.725	4763
860.858	4691
860.99	4580
861.123	4500
861.256	4493
861.388	4626
861.521	5448
861.653	4466
861.786	4470
861.918	4474
862.05	4573
862.183	4561
862.315	4637
862.447	4645
862.58	4599
862.712	4428
862.844	4341
862.976	4478
863.108	4516
863.24	4797
863.372	4360
863.504	4481
863.636	4405
863.768	4538
863.9	4466
864.032	4363
864.164	4371
864.296	4519
864.428	4611
864.559	4596
864.691	4538
864.823	4603
864.954	4489
865.086	4531
865.217	4459
865.349	4466
865.48	4428
865.612	4516
865.743	4634
865.875	4474
866.006	4447
866.137	4512
866.269	4443
866.4	4481
866.531	4417
866.662	4386
866.793	4443
866.924	4455
867.055	4504
867.186	4413
867.317	4398
867.448	4428
867.579	4470
867.71	4413
867.841	4363
867.972	4500
868.103	4455
868.233	4455
868.364	4443
868.495	4527
868.625	4645
868.756	4767
868.886	4558
869.017	4637
869.147	4797
869.278	4717
869.408	4679
869.539	4645
869.669	4717
869.799	4694
869.929	4748
870.06	4717
870.19	4957
870.32	4911
870.45	4923
870.58	5029
870.71	5132
870.84	5109
870.97	4919
871.1	4892
871.23	5185
871.36	5166
871.489	5033
871.619	5105
871.749	5113
871.879	5143
872.008	5170
872.138	5014
872.267	4949
872.397	4896
872.526	4793
872.656	4736
872.785	4831
872.915	4976
873.044	5067
873.173	4976
873.303	4965
873.432	4965
873.561	4972
873.69	4900
873.819	4831
873.948	4991
874.077	4801
874.206	4793
874.335	4786
874.464	4934
874.593	5075
874.722	4976
874.851	5132
874.979	5052
875.108	5048
875.237	4987
875.365	4862
875.494	4900
875.623	5003
875.751	4824
875.88	4919
876.008	4984
876.136	5109
876.265	5227
876.393	5345
876.521	5280
876.65	5223
876.778	5174
876.906	5075
877.034	4972
877.162	4999
877.29	4995
877.418	5060
877.546	5060
877.674	5045
877.802	5018
877.93	4999
878.058	4946
878.185	4915
878.313	4972
878.441	4919
878.568	4771
878.696	4847
878.824	4949
878.951	4980
879.079	5140
879.206	5292
879.333	5105
879.461	4953
879.588	5018
879.715	5136
879.842	5216
879.97	4972
880.097	4809
880.224	4736
880.351	4805
880.478	4820
880.605	4771
880.732	4816
880.859	5086
880.986	4911
881.112	4900
881.239	4778
881.366	4649
881.493	4618
881.619	4664
881.746	4596
881.872	4649
881.999	4645
882.125	4729
882.252	4824
882.378	4820
882.505	5022
882.631	4801
882.757	4729
882.883	4759
883.01	4721
883.136	4683
883.262	4634
883.388	4687
883.514	4782
883.64	4930
883.766	4801
883.892	4683
884.018	4714
884.143	4923
884.269	5041
884.395	4702
884.52	4618
884.646	4675
884.772	4561
884.897	4535
885.023	4679
885.148	4816
885.274	4847
885.399	4824
885.524	4744
885.65	4733
885.775	4717
885.9	4698
886.025	4870
886.15	4767
886.275	4733
886.4	4649
886.525	4786
886.65	4702
886.775	4672
886.9	4889
887.025	5018
887.149	4774
887.274	4702
887.399	4626
887.523	4580
887.648	4603
887.773	4535
887.897	4812
888.021	4767
888.146	4672
888.27	4885
888.395	4911
888.519	4793
888.643	4870
888.767	4847
888.891	4698
889.015	4580
889.139	4634
889.263	4622
889.387	4740
889.511	4828
889.635	4824
889.759	4645
889.883	4698
890.006	4755
890.13	4828
890.254	4603
890.377	4668
890.501	4550
890.624	4550
890.748	4618
890.871	4508
890.995	4443
891.118	4375
891.241	4538
891.364	4500
891.488	4656
891.611	4542
891.734	4565
891.857	4691
891.98	4527
892.103	4656
892.226	4569
892.349	4554
892.471	4470
892.594	4500
892.717	4554
892.839	4546
892.962	4565
893.085	4710
893.207	4611
893.33	4478
893.452	4569
893.575	4706
893.697	4573
893.819	4801
893.941	4816
894.064	4736
894.186	4649
894.308	4588
894.43	4721
894.552	4843
894.674	4744
894.796	4538
894.918	4599
895.04	4588
895.161	4714
895.283	4637
895.405	4615
895.526	4622
895.648	4694
895.769	4683
895.891	4721
896.012	4767
896.134	4714
896.255	4637
896.376	4607
896.498	4603
896.619	4679
896.74	4588
896.861	4641
896.982	4919
897.103	5075
897.224	4854
897.345	4755
897.466	4675
897.587	4714
897.708	4858
897.828	4782
897.949	4683
898.07	4573
898.19	4645
898.311	4850
898.431	4710
898.552	4733
898.672	4812
898.792	4755
898.913	4733
899.033	4618
899.153	4485
899.273	4432
899.393	4497
899.513	4538
899.633	4516
899.753	4516
899.873	4542
899.993	4599
900.113	4523
900.232	4634
900.352	4588
900.472	4519
900.591	4421
900.711	4485
900.83	4462
900.95	4599
901.069	4641
901.189	4523
901.308	4348
901.427	4314
901.546	4375
901.665	4466
901.784	4504
901.904	4398
902.023	4261
902.141	4238
902.26	4207
902.379	4314
902.498	4268
902.617	4227
902.735	4386
902.854	4363
902.973	4318
903.091	4196
903.21	4249
903.328	4268
903.446	4318
903.565	4207
903.683	4348
903.801	4272
903.919	4363
904.038	4440
904.156	4314
904.274	4455
904.392	4398
904.51	4474
904.627	4470
904.745	4535
904.863	4702
904.981	4363
905.098	4329
905.216	4371
905.334	4504
905.451	4421
905.569	4440
905.686	4550
905.803	4561
905.921	4390
906.038	4527
906.155	4447
906.272	4417
906.389	4432
906.506	4322
906.623	4402
906.74	4356
906.857	4318
906.974	4333
907.091	4580
907.208	4679
907.324	4611
907.441	4466
907.557	4360
907.674	4360
907.79	4306
907.907	4383
908.023	4474
908.139	4474
908.256	4386
908.372	4428
908.488	4462
908.604	4348
908.72	4379
908.836	4344
908.952	4394
909.068	4451
909.184	4580
909.3	4481
909.415	4535
909.531	4558
909.647	4306
909.762	4341
909.878	4299
909.993	4424
910.108	4436
910.224	4428
910.339	4462
910.454	4421
910.57	4344
910.685	4318
910.8	4634
910.915	4599
911.03	4455
911.145	4348
911.259	4329
911.374	4379
911.489	4303
911.604	4268
911.718	4192
911.833	4181
911.947	4071
912.062	4044
912.176	4215
912.291	4280
912.405	4246
912.519	4481
912.633	4508
912.748	4356
912.862	4314
912.976	4215
913.09	4093
913.204	4219
913.318	4265
913.431	4379
913.545	4405
913.659	4443
913.772	4337
913.886	4204
914	4196
914.113	4333
914.226	4424
914.34	4421
914.453	4234
914.566	4409
914.68	4318
914.793	4295
914.906	4207
915.019	4116
915.132	4078
915.245	4181
915.358	4173
915.47	4234
915.583	4219
915.696	4337
915.809	4402
915.921	4402
916.034	4219
916.146	4257
916.259	4211
916.371	4352
916.483	4325
916.595	4257
916.708	4333
916.82	4329
916.932	4337
917.044	4325
917.156	4314
917.268	4204
917.38	4310
917.491	4246
917.603	4341
917.715	4409
917.826	4443
917.938	4325
918.049	4238
918.161	4383
918.272	4558
918.384	4546
918.495	4424
918.606	4242
918.717	4211
918.828	4310
918.939	4352
919.05	4253
919.161	4287
919.272	4150
919.383	4227
919.494	4443
919.604	4637
919.715	4409
919.826	4367
919.936	4386
920.047	4554
920.157	4466
920.267	4736
920.378	4531
920.488	4504
920.598	4706
920.708	4866
920.818	4782
920.928	4744
921.038	4942
921.148	4953
921.258	4607
921.368	4542
921.477	4500
921.587	4455
921.697	4398
921.806	4512
921.916	4417
922.025	4246
922.134	4276
922.244	4234
922.353	4287
922.462	4158
922.571	4124
922.68	4032
922.789	3979
922.898	4055
923.007	3979
923.116	4131
923.224	4071
923.333	4071
923.442	3964
923.55	3975
923.659	4048
923.767	4143
923.876	3987
923.984	4124
924.092	4006
924.201	4078
924.309	4063
924.417	4116
924.525	4071
924.633	4120
924.741	5022
924.849	3930
924.956	4158
925.064	3975
925.172	3915
925.279	3949
925.387	4044
925.494	4036
925.602	4207
925.709	4162
925.816	4055
925.924	4128
926.031	4242
926.138	4169
926.245	4230
926.352	4101
926.459	4227
926.566	4291
926.673	4109
926.779	4048
926.886	4109
926.993	3941
927.099	3926
927.206	3956
927.312	3972
927.419	4044
927.525	4013
927.631	4078
927.737	3949
927.843	3991
927.95	3823
928.056	3968
928.162	3987
928.267	4051
928.373	4584
928.479	4135
928.585	3869
928.69	4048
928.796	4097
928.901	3972
929.007	3846
929.112	3998
929.218	4010
929.323	3918
929.428	3960
929.533	4074
929.638	3953
929.743	3983
929.848	4044
929.953	3987
930.058	3926
930.163	3747
930.267	3823
930.372	3941
930.477	3781
930.581	4097
930.685	3968
930.79	3800
930.894	3857
930.998	3850
931.103	4032
931.207	3720
931.311	3717
931.415	3686
931.519	3526
931.623	3538
