Data from test_V78500241_2665.txt Node
Date: Fri Mar 25 17:07:31 CST 2022
User: usil
Spectrometer: V785-0024
Trigger mode: 0
Integration Time (sec): 4.000000E-1
Scans to average: 1
Nonlinearity correction enabled: false
Boxcar width: 0
Storing dark spectrum: false
XAxis mode: Wavelengths
Number of Pixels in Spectrum: 1024
>>>>>Begin Spectral Data<<<<<
801.071	8012
801.214	7982
801.356	7883
801.499	7875
801.641	7769
801.783	7845
801.926	7959
802.068	7898
802.211	7955
802.353	7963
802.496	7837
802.638	7928
802.78	7906
802.923	7860
803.065	7928
803.208	7818
803.35	7986
803.492	8100
803.635	8225
803.777	8103
803.919	8153
804.061	8450
804.204	8134
804.346	8115
804.488	7982
804.63	8058
804.773	8058
804.915	8149
805.057	8324
805.199	8092
805.341	8221
805.483	8271
805.626	8229
805.768	8069
805.91	8176
806.052	8202
806.194	8145
806.336	8339
806.478	8012
806.62	8050
806.762	8107
806.904	8176
807.046	8465
807.188	8370
807.33	8385
807.472	8313
807.614	8100
807.756	8115
807.898	7963
808.04	7890
808.182	7845
808.324	7898
808.465	7871
808.607	8024
808.749	8077
808.891	8248
809.033	8324
809.174	8279
809.316	8084
809.458	8100
809.6	7944
809.741	8050
809.883	8054
810.025	8145
810.166	8153
810.308	8050
810.45	7967
810.591	7830
810.733	7792
810.875	7651
811.016	7559
811.158	7483
811.299	7567
811.441	7750
811.582	7685
811.724	7639
811.865	7537
812.007	7620
812.148	7616
812.29	7597
812.431	7795
812.573	7883
812.714	7993
812.855	8176
812.997	8237
813.138	8271
813.279	8081
813.421	8145
813.562	7997
813.703	7830
813.845	7788
813.986	7460
814.127	7285
814.268	7168
814.41	7209
814.551	7171
814.692	7217
814.833	7107
814.974	7091
815.115	7034
815.256	6954
815.397	6856
815.539	6958
815.68	6833
815.821	6760
815.962	6890
816.103	6878
816.244	6738
816.385	6646
816.526	6620
816.666	6467
816.807	6285
816.948	6407
817.089	6536
817.23	6441
817.371	6384
817.512	6357
817.653	6376
817.793	6361
817.934	6464
818.075	6429
818.216	6483
818.356	6376
818.497	6258
818.638	6114
818.778	6175
818.919	6110
819.06	6140
819.2	6239
819.341	6357
819.481	6399
819.622	6521
819.762	6715
819.903	6688
820.043	6642
820.184	6616
820.324	6540
820.465	6696
820.605	6673
820.746	6593
820.886	6498
821.026	6665
821.167	6753
821.307	6814
821.447	6764
821.588	6601
821.728	6563
821.868	6506
822.008	6304
822.149	6357
822.289	6399
822.429	6114
822.569	6110
822.709	6133
822.849	5935
822.99	5912
823.13	5961
823.27	5942
823.41	5828
823.55	5790
823.69	5756
823.83	5783
823.97	5680
824.11	5535
824.25	5516
824.389	5562
824.529	5642
824.669	5512
824.809	5710
824.949	5657
825.089	5596
825.228	5474
825.368	5440
825.508	5334
825.648	5357
825.787	5379
825.927	5345
826.067	5296
826.206	5318
826.346	5417
826.485	5417
826.625	5357
826.765	5532
826.904	5482
827.044	5261
827.183	5193
827.323	5117
827.462	5299
827.601	5212
827.741	5201
827.88	5197
828.02	5132
828.159	5204
828.298	5357
828.437	5364
828.577	5299
828.716	5436
828.855	5322
828.994	5136
829.134	5105
829.273	5128
829.412	5147
829.551	5140
829.69	5208
829.829	5208
829.968	5417
830.107	5288
830.246	5277
830.385	5132
830.524	5143
830.663	5025
830.802	5006
830.941	4892
831.08	4847
831.219	4991
831.357	4957
831.496	5113
831.635	4881
831.774	4862
831.913	4805
832.051	4740
832.19	4694
832.329	4809
832.467	4694
832.606	4626
832.744	4733
832.883	4774
833.022	4702
833.16	4767
833.299	4790
833.437	4831
833.576	4828
833.714	4892
833.852	4873
833.991	4900
834.129	4961
834.267	4953
834.406	4915
834.544	4961
834.682	4965
834.821	4980
834.959	5159
835.097	4968
835.235	5109
835.373	5010
835.511	5105
835.65	5067
835.788	5003
835.926	4927
836.064	4843
836.202	4923
836.34	5170
836.478	5242
836.615	5117
836.753	5155
836.891	5273
837.029	5288
837.167	5189
837.305	5178
837.443	5117
837.58	5067
837.718	5299
837.856	5189
837.993	5147
838.131	5223
838.269	5254
838.406	5220
838.544	5212
838.681	5064
838.819	5056
838.956	4934
839.094	4923
839.231	5014
839.369	5060
839.506	5383
839.643	5220
839.781	5067
839.918	5037
840.055	5124
840.193	5124
840.33	5086
840.467	5136
840.604	5166
840.742	5455
840.879	5105
841.016	5094
841.153	5128
841.29	5383
841.427	5326
841.564	5334
841.701	5379
841.838	5254
841.975	5235
842.112	5239
842.249	5136
842.385	5094
842.522	5322
842.659	5235
842.796	5166
842.933	5174
843.069	5174
843.206	5185
843.343	5296
843.479	5269
843.616	5246
843.752	4984
843.889	5018
844.025	5197
844.162	5025
844.298	5197
844.435	5105
844.571	5014
844.708	5261
844.844	5303
844.98	5364
845.117	5273
845.253	5147
845.389	5109
845.525	5178
845.661	5117
845.798	5064
845.934	5128
846.07	5060
846.206	5239
846.342	5227
846.478	5136
846.614	5022
846.75	4965
846.886	4949
847.022	5121
847.158	5014
847.294	5117
847.429	5102
847.565	5048
847.701	5280
847.837	4881
847.972	4793
848.108	4923
848.244	4946
848.379	4748
848.515	4774
848.65	4721
848.786	4774
848.921	4748
849.057	4831
849.192	4919
849.328	4820
849.463	4877
849.598	4816
849.734	4767
849.869	4683
850.004	4649
850.14	4710
850.275	4615
850.41	4558
850.545	4615
850.68	4618
850.815	4588
850.95	4641
851.085	4820
851.22	4767
851.355	4630
851.49	4637
851.625	4599
851.76	4607
851.895	4550
852.03	4512
852.165	4660
852.299	4717
852.434	4809
852.569	4755
852.703	4774
852.838	4831
852.973	4923
853.107	4885
853.242	4805
853.376	4653
853.511	4550
853.645	4626
853.78	4774
853.914	4626
854.048	4656
854.183	4592
854.317	4679
854.451	4805
854.585	4672
854.72	4588
854.854	4786
854.988	4538
855.122	4588
855.256	4497
855.39	4672
855.524	4778
855.658	4725
855.792	4679
855.926	4729
856.06	4740
856.194	4797
856.327	4702
856.461	4603
856.595	4584
856.729	4675
856.862	4771
856.996	4653
857.13	4729
857.263	4805
857.397	4801
857.53	4634
857.664	4702
857.797	4733
857.931	4812
858.064	4698
858.197	4748
858.331	4626
858.464	4641
858.597	4546
858.731	4596
858.864	4656
858.997	4550
859.13	4694
859.263	4733
859.396	4683
859.529	4599
859.662	4542
859.795	4489
859.928	4611
860.061	4733
860.194	4771
860.327	4596
860.46	4565
860.592	4721
860.725	4717
860.858	4698
860.99	4489
861.123	4577
861.256	4542
861.388	4569
861.521	5436
861.653	4481
861.786	4402
861.918	4436
862.05	4535
862.183	4561
862.315	4588
862.447	4702
862.58	4531
862.712	4417
862.844	4356
862.976	4462
863.108	4443
863.24	4736
863.372	4341
863.504	4417
863.636	4379
863.768	4504
863.9	4371
864.032	4344
864.164	4398
864.296	4504
864.428	4523
864.559	4538
864.691	4535
864.823	4527
864.954	4489
865.086	4493
865.217	4440
865.349	4413
865.48	4443
865.612	4493
865.743	4641
865.875	4493
866.006	4470
866.137	4497
866.269	4443
866.4	4398
866.531	4424
866.662	4386
866.793	4405
866.924	4424
867.055	4504
867.186	4459
867.317	4386
867.448	4360
867.579	4379
867.71	4375
867.841	4318
867.972	4462
868.103	4447
868.233	4386
868.364	4443
868.495	4531
868.625	4664
868.756	4752
868.886	4531
869.017	4634
869.147	4835
869.278	4805
869.408	4660
869.539	4626
869.669	4710
869.799	4668
869.929	4698
870.06	4729
870.19	4938
870.32	4900
870.45	4923
870.58	5022
870.71	5102
870.84	5064
870.97	4953
871.1	4885
871.23	5132
871.36	5094
871.489	5022
871.619	5048
871.749	5117
871.879	5124
872.008	5193
872.138	5041
872.267	4961
872.397	4820
872.526	4812
872.656	4744
872.785	4843
872.915	4896
873.044	5029
873.173	4961
873.303	4972
873.432	4984
873.561	4972
873.69	4915
873.819	4843
873.948	4938
874.077	4881
874.206	4759
874.335	4774
874.464	4946
874.593	5041
874.722	4942
874.851	5086
874.979	5105
875.108	5037
875.237	4972
875.365	4892
875.494	4839
875.623	5003
875.751	4797
875.88	4862
876.008	4980
876.136	5048
876.265	5227
876.393	5315
876.521	5288
876.65	5242
876.778	5166
876.906	5052
877.034	4968
877.162	5018
877.29	4953
877.418	5071
877.546	5045
877.674	5041
877.802	5029
877.93	4999
878.058	4927
878.185	4870
878.313	4965
878.441	4980
878.568	4816
878.696	4919
878.824	4976
878.951	5029
879.079	5098
879.206	5277
879.333	5136
879.461	4961
879.588	4957
879.715	5117
879.842	5231
879.97	5003
880.097	4790
880.224	4744
880.351	4767
880.478	4828
880.605	4805
880.732	4812
880.859	5045
880.986	4892
881.112	4927
881.239	4812
881.366	4649
881.493	4653
881.619	4558
881.746	4622
881.872	4615
881.999	4596
882.125	4683
882.252	4740
882.378	4778
882.505	4942
882.631	4759
882.757	4656
882.883	4675
883.01	4755
883.136	4607
883.262	4653
883.388	4656
883.514	4790
883.64	4881
883.766	4771
883.892	4668
884.018	4710
884.143	4915
884.269	5010
884.395	4668
884.52	4634
884.646	4645
884.772	4573
884.897	4531
885.023	4630
885.148	4790
885.274	4828
885.399	4805
885.524	4752
885.65	4710
885.775	4733
885.9	4740
886.025	4854
886.15	4820
886.275	4672
886.4	4630
886.525	4683
886.65	4660
886.775	4683
886.9	4976
887.025	5025
887.149	4828
887.274	4626
887.399	4592
887.523	4599
887.648	4615
887.773	4622
887.897	4748
888.021	4793
888.146	4645
888.27	4801
888.395	4934
888.519	4828
888.643	4835
888.767	4870
888.891	4649
889.015	4634
889.139	4645
889.263	4599
889.387	4801
889.511	4866
889.635	4740
889.759	4672
889.883	4637
890.006	4698
890.13	4831
890.254	4618
890.377	4649
890.501	4565
890.624	4443
890.748	4630
890.871	4508
890.995	4459
891.118	4352
891.241	4462
891.364	4527
891.488	4630
891.611	4481
891.734	4535
891.857	4588
891.98	4550
892.103	4637
892.226	4577
892.349	4516
892.471	4440
892.594	4596
892.717	4580
892.839	4588
892.962	4558
893.085	4691
893.207	4599
893.33	4428
893.452	4516
893.575	4717
893.697	4584
893.819	4816
893.941	4885
894.064	4748
894.186	4615
894.308	4565
894.43	4672
894.552	4778
894.674	4755
894.796	4531
894.918	4622
895.04	4622
895.161	4694
895.283	4733
895.405	4577
895.526	4653
895.648	4664
895.769	4710
895.891	4698
896.012	4755
896.134	4725
896.255	4698
896.376	4653
896.498	4649
896.619	4664
896.74	4599
896.861	4687
896.982	4915
897.103	5014
897.224	4812
897.345	4774
897.466	4660
897.587	4702
897.708	4854
897.828	4778
897.949	4706
898.07	4527
898.19	4607
898.311	4835
898.431	4672
898.552	4763
898.672	4786
898.792	4797
898.913	4698
899.033	4580
899.153	4504
899.273	4424
899.393	4489
899.513	4516
899.633	4470
899.753	4542
899.873	4497
899.993	4565
900.113	4478
900.232	4599
900.352	4588
900.472	4447
900.591	4417
900.711	4470
900.83	4386
900.95	4546
901.069	4679
901.189	4561
901.308	4344
901.427	4295
901.546	4402
901.665	4432
901.784	4489
901.904	4356
902.023	4344
902.141	4192
902.26	4192
902.379	4287
902.498	4268
902.617	4188
902.735	4386
902.854	4379
902.973	4341
903.091	4234
903.21	4265
903.328	4348
903.446	4261
903.565	4280
903.683	4329
903.801	4295
903.919	4367
904.038	4424
904.156	4375
904.274	4447
904.392	4413
904.51	4386
904.627	4478
904.745	4622
904.863	4603
904.981	4440
905.098	4356
905.216	4379
905.334	4451
905.451	4519
905.569	4508
905.686	4584
905.803	4558
905.921	4421
906.038	4569
906.155	4519
906.272	4451
906.389	4497
906.506	4367
906.623	4451
906.74	4390
906.857	4360
906.974	4424
907.091	4611
907.208	4740
907.324	4660
907.441	4569
907.557	4394
907.674	4421
907.79	4360
907.907	4428
908.023	4554
908.139	4512
908.256	4481
908.372	4504
908.488	4493
908.604	4402
908.72	4402
908.836	4436
908.952	4409
909.068	4497
909.184	4626
909.3	4569
909.415	4626
909.531	4596
909.647	4409
909.762	4451
909.878	4352
909.993	4531
910.108	4447
910.224	4481
910.339	4538
910.454	4478
910.57	4394
910.685	4375
910.8	4702
910.915	4653
911.03	4531
911.145	4371
911.259	4356
911.374	4405
911.489	4337
911.604	4363
911.718	4242
911.833	4177
911.947	4128
912.062	4124
912.176	4234
912.291	4276
912.405	4306
912.519	4512
912.633	4596
912.748	4432
912.862	4405
912.976	4227
913.09	4154
913.204	4188
913.318	4329
913.431	4409
913.545	4371
913.659	4519
913.772	4421
913.886	4299
914	4280
914.113	4402
914.226	4474
914.34	4459
914.453	4344
914.566	4508
914.68	4318
914.793	4333
914.906	4234
915.019	4158
915.132	4162
915.245	4242
915.358	4276
915.47	4272
915.583	4310
915.696	4341
915.809	4443
915.921	4447
916.034	4322
916.146	4314
916.259	4272
916.371	4455
916.483	4417
916.595	4310
916.708	4363
916.82	4348
916.932	4383
917.044	4402
917.156	4379
917.268	4280
917.38	4375
917.491	4306
917.603	4371
917.715	4470
917.826	4489
917.938	4363
918.049	4310
918.161	4417
918.272	4565
918.384	4569
918.495	4493
918.606	4379
918.717	4268
918.828	4375
918.939	4402
919.05	4287
919.161	4390
919.272	4162
919.383	4276
919.494	4531
919.604	4691
919.715	4512
919.826	4363
919.936	4455
920.047	4596
920.157	4500
920.267	4752
920.378	4607
920.488	4546
920.598	4725
920.708	4919
920.818	4870
920.928	4809
921.038	4949
921.148	4930
921.258	4664
921.368	4611
921.477	4516
921.587	4481
921.697	4405
921.806	4607
921.916	4500
922.025	4337
922.134	4329
922.244	4249
922.353	4383
922.462	4230
922.571	4169
922.68	4029
922.789	3998
922.898	4078
923.007	4025
923.116	4154
923.224	4116
923.333	4139
923.442	4055
923.55	4029
923.659	4078
923.767	4154
923.876	4040
923.984	4139
924.092	4032
924.201	4109
924.309	4124
924.417	4196
924.525	4112
924.633	4185
924.741	5102
924.849	3930
924.956	4185
925.064	3998
925.172	3945
925.279	4025
925.387	4090
925.494	4101
925.602	4249
925.709	4253
925.816	4097
925.924	4177
926.031	4287
926.138	4230
926.245	4253
926.352	4131
926.459	4303
926.566	4337
926.673	4207
926.779	4124
926.886	4097
926.993	4048
927.099	4010
927.206	3991
927.312	3994
927.419	4093
927.525	4090
927.631	4173
927.737	4044
927.843	3994
927.95	3907
928.056	4029
928.162	4017
928.267	4128
928.373	4653
928.479	4173
928.585	3953
928.69	4071
928.796	4116
928.901	4051
929.007	3903
929.112	4078
929.218	3979
929.323	4013
929.428	3964
929.533	4166
929.638	3956
929.743	4002
929.848	4082
929.953	4071
930.058	3953
930.163	3823
930.267	3888
930.372	4032
930.477	3842
930.581	4173
930.685	3983
930.79	3896
930.894	3888
930.998	3896
931.103	4048
931.207	3747
931.311	3743
931.415	3720
931.519	3542
931.623	3606
