Data from test_V78500241_2297.txt Node
Date: Fri Mar 25 17:04:58 CST 2022
User: usil
Spectrometer: V785-0024
Trigger mode: 0
Integration Time (sec): 4.000000E-1
Scans to average: 1
Nonlinearity correction enabled: false
Boxcar width: 0
Storing dark spectrum: false
XAxis mode: Wavelengths
Number of Pixels in Spectrum: 1024
>>>>>Begin Spectral Data<<<<<
801.071	7967
801.214	7989
801.356	7951
801.499	7868
801.641	7799
801.783	7852
801.926	7909
802.068	7913
802.211	8039
802.353	7993
802.496	7890
802.638	7818
802.78	7917
802.923	7928
803.065	7868
803.208	7856
803.35	7963
803.492	8115
803.635	8130
803.777	8035
803.919	8157
804.061	8503
804.204	8149
804.346	8069
804.488	7959
804.63	8065
804.773	8001
804.915	8111
805.057	8221
805.199	8084
805.341	8252
805.483	8229
805.626	8244
805.768	8088
805.91	8191
806.052	8191
806.194	8092
806.336	8279
806.478	8126
806.62	8088
806.762	8157
806.904	8218
807.046	8434
807.188	8332
807.33	8301
807.472	8355
807.614	8138
807.756	8180
807.898	7963
808.04	7909
808.182	7894
808.324	7864
808.465	7947
808.607	8050
808.749	8126
808.891	8202
809.033	8252
809.174	8149
809.316	8077
809.458	8031
809.6	7989
809.741	8062
809.883	8054
810.025	8062
810.166	8054
810.308	8039
810.45	8001
810.591	7890
810.733	7727
810.875	7647
811.016	7518
811.158	7491
811.299	7544
811.441	7685
811.582	7677
811.724	7518
811.865	7590
812.007	7590
812.148	7529
812.29	7601
812.431	7731
812.573	7894
812.714	8027
812.855	8073
812.997	8263
813.138	8324
813.279	8161
813.421	8062
813.562	7967
813.703	7845
813.845	7693
813.986	7453
814.127	7240
814.268	7263
814.41	7221
814.551	7133
814.692	7190
814.833	7110
814.974	7103
815.115	7179
815.256	6962
815.397	6916
815.539	6932
815.68	6871
815.821	6764
815.962	6886
816.103	6833
816.244	6700
816.385	6612
816.526	6612
816.666	6532
816.807	6338
816.948	6433
817.089	6486
817.23	6448
817.371	6426
817.512	6361
817.653	6467
817.793	6353
817.934	6483
818.075	6460
818.216	6471
818.356	6391
818.497	6296
818.638	6121
818.778	6095
818.919	6106
819.06	6121
819.2	6296
819.341	6331
819.481	6399
819.622	6532
819.762	6741
819.903	6787
820.043	6585
820.184	6574
820.324	6639
820.465	6760
820.605	6650
820.746	6642
820.886	6582
821.026	6658
821.167	6726
821.307	6772
821.447	6791
821.588	6665
821.728	6547
821.868	6498
822.008	6327
822.149	6376
822.289	6350
822.429	6171
822.569	6003
822.709	6186
822.849	5901
822.99	5870
823.13	5920
823.27	5893
823.41	5767
823.55	5798
823.69	5764
823.83	5760
823.97	5695
824.11	5501
824.25	5509
824.389	5581
824.529	5535
824.669	5516
824.809	5695
824.949	5695
825.089	5600
825.228	5535
825.368	5368
825.508	5337
825.648	5318
825.787	5387
825.927	5406
826.067	5277
826.206	5299
826.346	5402
826.485	5383
826.625	5326
826.765	5604
826.904	5490
827.044	5246
827.183	5201
827.323	5113
827.462	5178
827.601	5147
827.741	5189
827.88	5216
828.02	5151
828.159	5204
828.298	5292
828.437	5330
828.577	5231
828.716	5448
828.855	5307
828.994	5155
829.134	5105
829.273	5254
829.412	5178
829.551	5098
829.69	5201
829.829	5216
829.968	5349
830.107	5239
830.246	5299
830.385	5151
830.524	5143
830.663	5075
830.802	4957
830.941	4904
831.08	4889
831.219	5018
831.357	4965
831.496	5124
831.635	4946
831.774	4805
831.913	4812
832.051	4736
832.19	4767
832.329	4839
832.467	4691
832.606	4634
832.744	4752
832.883	4752
833.022	4691
833.16	4809
833.299	4816
833.437	4805
833.576	4820
833.714	4892
833.852	4908
833.991	4881
834.129	4995
834.267	4919
834.406	4873
834.544	4953
834.682	4934
834.821	4965
834.959	5162
835.097	5006
835.235	5166
835.373	5052
835.511	5098
835.65	5025
835.788	4976
835.926	4850
836.064	4797
836.202	4885
836.34	5136
836.478	5220
836.615	5102
836.753	5220
836.891	5292
837.029	5220
837.167	5231
837.305	5151
837.443	5151
837.58	5010
837.718	5258
837.856	5155
837.993	5178
838.131	5261
838.269	5166
838.406	5201
838.544	5140
838.681	5041
838.819	4999
838.956	4965
839.094	4877
839.231	4980
839.369	5121
839.506	5452
839.643	5235
839.781	5067
839.918	5029
840.055	5105
840.193	5094
840.33	5067
840.467	5124
840.604	5189
840.742	5455
840.879	5048
841.016	5071
841.153	5140
841.29	5349
841.427	5353
841.564	5296
841.701	5368
841.838	5261
841.975	5250
842.112	5204
842.249	5159
842.385	5029
842.522	5337
842.659	5174
842.796	5117
842.933	5189
843.069	5121
843.206	5117
843.343	5273
843.479	5201
843.616	5288
843.752	5018
843.889	5018
844.025	5170
844.162	5014
844.298	5201
844.435	5022
844.571	5025
844.708	5185
844.844	5311
844.98	5311
845.117	5208
845.253	5102
845.389	5105
845.525	5193
845.661	5117
845.798	5003
845.934	5136
846.07	5033
846.206	5258
846.342	5280
846.478	5159
846.614	5010
846.75	5006
846.886	4934
847.022	5075
847.158	5014
847.294	5052
847.429	5090
847.565	5014
847.701	5307
847.837	4870
847.972	4801
848.108	4930
848.244	4953
848.379	4812
848.515	4733
848.65	4710
848.786	4805
848.921	4733
849.057	4870
849.192	4930
849.328	4782
849.463	4858
849.598	4790
849.734	4759
849.869	4668
850.004	4588
850.14	4672
850.275	4607
850.41	4500
850.545	4592
850.68	4618
850.815	4626
850.95	4626
851.085	4809
851.22	4755
851.355	4683
851.49	4615
851.625	4611
851.76	4637
851.895	4531
852.03	4497
852.165	4653
852.299	4668
852.434	4763
852.569	4786
852.703	4793
852.838	4828
852.973	4911
853.107	4923
853.242	4729
853.376	4691
853.511	4558
853.645	4611
853.78	4774
853.914	4683
854.048	4694
854.183	4694
854.317	4740
854.451	4820
854.585	4664
854.72	4622
854.854	4752
854.988	4565
855.122	4672
855.256	4531
855.39	4641
855.524	4748
855.658	4733
855.792	4691
855.926	4782
856.06	4752
856.194	4778
856.327	4721
856.461	4634
856.595	4630
856.729	4630
856.862	4740
856.996	4675
857.13	4763
857.263	4771
857.397	4759
857.53	4675
857.664	4740
857.797	4771
857.931	4782
858.064	4679
858.197	4717
858.331	4660
858.464	4607
858.597	4497
858.731	4656
858.864	4653
858.997	4596
859.13	4668
859.263	4630
859.396	4683
859.529	4577
859.662	4554
859.795	4554
859.928	4565
860.061	4744
860.194	4774
860.327	4603
860.46	4565
860.592	4729
860.725	4721
860.858	4729
860.99	4558
861.123	4527
861.256	4455
861.388	4611
861.521	5246
861.653	4497
861.786	4432
861.918	4478
862.05	4558
862.183	4558
862.315	4558
862.447	4641
862.58	4523
862.712	4402
862.844	4303
862.976	4413
863.108	4470
863.24	4896
863.372	4352
863.504	4436
863.636	4405
863.768	4516
863.9	4436
864.032	4424
864.164	4379
864.296	4451
864.428	4542
864.559	4538
864.691	4577
864.823	4455
864.954	4485
865.086	4531
865.217	4428
865.349	4428
865.48	4481
865.612	4447
865.743	4618
865.875	4443
866.006	4481
866.137	4497
866.269	4489
866.4	4474
866.531	4421
866.662	4375
866.793	4455
866.924	4432
867.055	4459
867.186	4432
867.317	4432
867.448	4390
867.579	4402
867.71	4432
867.841	4413
867.972	4466
868.103	4447
868.233	4432
868.364	4447
868.495	4504
868.625	4607
868.756	4755
868.886	4607
869.017	4615
869.147	4752
869.278	4774
869.408	4637
869.539	4653
869.669	4656
869.799	4675
869.929	4812
870.06	4717
870.19	4957
870.32	4938
870.45	4919
870.58	5025
870.71	5071
870.84	5048
870.97	4911
871.1	4892
871.23	5132
871.36	5140
871.489	5025
871.619	5075
871.749	5083
871.879	5147
872.008	5147
872.138	5014
872.267	4995
872.397	4774
872.526	4748
872.656	4721
872.785	4797
872.915	4949
873.044	4995
873.173	4984
873.303	4987
873.432	4953
873.561	4934
873.69	4847
873.819	4850
873.948	4908
874.077	4824
874.206	4744
874.335	4786
874.464	4934
874.593	5045
874.722	4984
874.851	5109
874.979	5079
875.108	5010
875.237	4885
875.365	4900
875.494	4881
875.623	4984
875.751	4866
875.88	4839
876.008	5006
876.136	5052
876.265	5265
876.393	5326
876.521	5261
876.65	5166
876.778	5109
876.906	5079
877.034	4991
877.162	5045
877.29	4968
877.418	5033
877.546	5045
877.674	5025
877.802	5022
877.93	5003
878.058	4915
878.185	4915
878.313	4991
878.441	4957
878.568	4752
878.696	4854
878.824	4984
878.951	4976
879.079	5147
879.206	5239
879.333	5151
879.461	4987
879.588	4999
879.715	5124
879.842	5261
879.97	4953
880.097	4744
880.224	4763
880.351	4801
880.478	4805
880.605	4771
880.732	4748
880.859	5117
880.986	4900
881.112	4908
881.239	4820
881.366	4702
881.493	4599
881.619	4535
881.746	4649
881.872	4626
881.999	4634
882.125	4679
882.252	4759
882.378	4816
882.505	4949
882.631	4816
882.757	4653
882.883	4763
883.01	4763
883.136	4649
883.262	4615
883.388	4573
883.514	4793
883.64	4828
883.766	4786
883.892	4702
884.018	4702
884.143	4900
884.269	4995
884.395	4675
884.52	4599
884.646	4679
884.772	4607
884.897	4573
885.023	4634
885.148	4744
885.274	4873
885.399	4828
885.524	4683
885.65	4710
885.775	4809
885.9	4748
886.025	4870
886.15	4771
886.275	4763
886.4	4637
886.525	4744
886.65	4698
886.775	4710
886.9	4908
887.025	5025
887.149	4782
887.274	4637
887.399	4596
887.523	4641
887.648	4542
887.773	4615
887.897	4740
888.021	4778
888.146	4694
888.27	4767
888.395	4866
888.519	4793
888.643	4816
888.767	4805
888.891	4645
889.015	4554
889.139	4668
889.263	4580
889.387	4763
889.511	4862
889.635	4820
889.759	4611
889.883	4615
890.006	4736
890.13	4820
890.254	4577
890.377	4675
890.501	4565
890.624	4531
890.748	4634
890.871	4489
890.995	4436
891.118	4352
891.241	4481
891.364	4527
891.488	4603
891.611	4493
891.734	4531
891.857	4630
891.98	4554
892.103	4641
892.226	4558
892.349	4565
892.471	4371
892.594	4580
892.717	4626
892.839	4558
892.962	4565
893.085	4679
893.207	4561
893.33	4527
893.452	4535
893.575	4752
893.697	4569
893.819	4771
893.941	4824
894.064	4771
894.186	4565
894.308	4592
894.43	4714
894.552	4812
894.674	4744
894.796	4531
894.918	4592
895.04	4618
895.161	4714
895.283	4630
895.405	4592
895.526	4672
895.648	4656
895.769	4649
895.891	4717
896.012	4721
896.134	4714
896.255	4656
896.376	4615
896.498	4626
896.619	4679
896.74	4630
896.861	4637
896.982	4896
897.103	5086
897.224	4816
897.345	4759
897.466	4653
897.587	4744
897.708	4816
897.828	4721
897.949	4675
898.07	4519
898.19	4607
898.311	4812
898.431	4736
898.552	4778
898.672	4843
898.792	4786
898.913	4759
899.033	4641
899.153	4519
899.273	4394
899.393	4519
899.513	4512
899.633	4550
899.753	4531
899.873	4508
899.993	4615
900.113	4558
900.232	4573
900.352	4554
900.472	4470
900.591	4322
900.711	4519
900.83	4402
900.95	4611
901.069	4683
901.189	4573
901.308	4371
901.427	4310
901.546	4348
901.665	4432
901.784	4535
901.904	4405
902.023	4333
902.141	4204
902.26	4173
902.379	4306
902.498	4238
902.617	4284
902.735	4390
902.854	4386
902.973	4352
903.091	4185
903.21	4185
903.328	4348
903.446	4257
903.565	4242
903.683	4337
903.801	4287
903.919	4348
904.038	4451
904.156	4280
904.274	4462
904.392	4394
904.51	4417
904.627	4451
904.745	4573
904.863	4634
904.981	4344
905.098	4322
905.216	4341
905.334	4424
905.451	4470
905.569	4428
905.686	4508
905.803	4580
905.921	4459
906.038	4584
906.155	4409
906.272	4352
906.389	4443
906.506	4344
906.623	4360
906.74	4363
906.857	4333
906.974	4424
907.091	4516
907.208	4679
907.324	4603
907.441	4504
907.557	4314
907.674	4325
907.79	4348
907.907	4375
908.023	4451
908.139	4443
908.256	4383
908.372	4462
908.488	4470
908.604	4363
908.72	4287
908.836	4352
908.952	4390
909.068	4428
909.184	4542
909.3	4493
909.415	4558
909.531	4550
909.647	4337
909.762	4348
909.878	4329
909.993	4375
910.108	4394
910.224	4459
910.339	4447
910.454	4386
910.57	4360
910.685	4314
910.8	4645
910.915	4535
911.03	4504
911.145	4299
911.259	4318
911.374	4344
911.489	4291
911.604	4276
911.718	4166
911.833	4238
911.947	4093
912.062	4051
912.176	4200
912.291	4276
912.405	4223
912.519	4428
912.633	4459
912.748	4367
912.862	4314
912.976	4215
913.09	4093
913.204	4196
913.318	4272
913.431	4333
913.545	4390
913.659	4508
913.772	4329
913.886	4211
914	4303
914.113	4352
914.226	4386
914.34	4394
914.453	4230
914.566	4443
914.68	4356
914.793	4356
914.906	4154
915.019	4139
915.132	4063
915.245	4192
915.358	4173
915.47	4207
915.583	4291
915.696	4280
915.809	4390
915.921	4436
916.034	4238
916.146	4219
916.259	4173
916.371	4363
916.483	4402
916.595	4306
916.708	4314
916.82	4314
916.932	4329
917.044	4329
917.156	4318
917.268	4265
917.38	4295
917.491	4261
917.603	4337
917.715	4428
917.826	4440
917.938	4386
918.049	4227
918.161	4379
918.272	4554
918.384	4542
918.495	4428
918.606	4318
918.717	4207
918.828	4341
918.939	4299
919.05	4276
919.161	4287
919.272	4124
919.383	4268
919.494	4447
919.604	4603
919.715	4409
919.826	4386
919.936	4405
920.047	4500
920.157	4485
920.267	4664
920.378	4558
920.488	4470
920.598	4698
920.708	4889
920.818	4763
920.928	4744
921.038	4968
921.148	4896
921.258	4577
921.368	4550
921.477	4516
921.587	4500
921.697	4363
921.806	4538
921.916	4421
922.025	4204
922.134	4268
922.244	4265
922.353	4314
922.462	4215
922.571	4185
922.68	3991
922.789	3983
922.898	4010
923.007	3956
923.116	4101
923.224	4090
923.333	4082
923.442	4010
923.55	3979
923.659	4021
923.767	4067
923.876	3983
923.984	4109
924.092	3987
924.201	4135
924.309	4093
924.417	4090
924.525	4059
924.633	4051
924.741	5025
924.849	3934
924.956	4147
925.064	3987
925.172	3869
925.279	3991
925.387	4029
925.494	4090
925.602	4227
925.709	4162
925.816	4036
925.924	4154
926.031	4192
926.138	4169
926.245	4200
926.352	4074
926.459	4223
926.566	4249
926.673	4162
926.779	4086
926.886	4135
926.993	3994
927.099	3975
927.206	3941
927.312	3934
927.419	4021
927.525	4078
927.631	4074
927.737	3991
927.843	3953
927.95	3865
928.056	3983
928.162	3968
928.267	4086
928.373	4653
928.479	4116
928.585	3865
928.69	4006
928.796	4063
928.901	3968
929.007	3857
929.112	4036
929.218	3953
929.323	3899
929.428	3915
929.533	4131
929.638	3915
929.743	3934
929.848	4078
929.953	3983
930.058	3915
930.163	3789
930.267	3797
930.372	3975
930.477	3854
930.581	4116
930.685	3960
930.79	3816
930.894	3861
930.998	3838
931.103	4071
931.207	3736
931.311	3663
931.415	3686
931.519	3504
931.623	3549
