Data from test_V78500241_2698.txt Node
Date: Fri Mar 25 17:07:45 CST 2022
User: usil
Spectrometer: V785-0024
Trigger mode: 0
Integration Time (sec): 4.000000E-1
Scans to average: 1
Nonlinearity correction enabled: false
Boxcar width: 0
Storing dark spectrum: false
XAxis mode: Wavelengths
Number of Pixels in Spectrum: 1024
>>>>>Begin Spectral Data<<<<<
801.071	7989
801.214	7970
801.356	7875
801.499	7845
801.641	7822
801.783	7864
801.926	7986
802.068	7925
802.211	7997
802.353	8024
802.496	7906
802.638	7887
802.78	7982
802.923	7928
803.065	7868
803.208	7818
803.35	7974
803.492	8073
803.635	8214
803.777	8069
803.919	8168
804.061	8484
804.204	8161
804.346	8043
804.488	7970
804.63	8054
804.773	7997
804.915	8077
805.057	8282
805.199	8149
805.341	8210
805.483	8286
805.626	8225
805.768	8115
805.91	8244
806.052	8195
806.194	8031
806.336	8301
806.478	8077
806.62	8084
806.762	8008
806.904	8237
807.046	8431
807.188	8339
807.33	8332
807.472	8370
807.614	8149
807.756	8183
807.898	7967
808.04	7890
808.182	7909
808.324	7879
808.465	7944
808.607	8134
808.749	8138
808.891	8305
809.033	8324
809.174	8218
809.316	8088
809.458	8084
809.6	8054
809.741	8001
809.883	8096
810.025	8073
810.166	8123
810.308	7993
810.45	7909
810.591	7928
810.733	7723
810.875	7575
811.016	7582
811.158	7552
811.299	7632
811.441	7719
811.582	7693
811.724	7540
811.865	7559
812.007	7563
812.148	7639
812.29	7674
812.431	7712
812.573	7868
812.714	7974
812.855	8145
812.997	8195
813.138	8355
813.279	8119
813.421	8088
813.562	8008
813.703	7841
813.845	7765
813.986	7449
814.127	7289
814.268	7236
814.41	7156
814.551	7137
814.692	7164
814.833	7053
814.974	7099
815.115	7179
815.256	6973
815.397	6924
815.539	6947
815.68	6810
815.821	6776
815.962	6878
816.103	6787
816.244	6806
816.385	6639
816.526	6673
816.666	6536
816.807	6338
816.948	6403
817.089	6490
817.23	6517
817.371	6407
817.512	6441
817.653	6403
817.793	6319
817.934	6448
818.075	6536
818.216	6441
818.356	6445
818.497	6266
818.638	6133
818.778	6140
818.919	6197
819.06	6190
819.2	6289
819.341	6331
819.481	6380
819.622	6589
819.762	6730
819.903	6719
820.043	6627
820.184	6631
820.324	6578
820.465	6703
820.605	6684
820.746	6665
820.886	6509
821.026	6779
821.167	6738
821.307	6810
821.447	6741
821.588	6741
821.728	6555
821.868	6563
822.008	6346
822.149	6357
822.289	6308
822.429	6159
822.569	6114
822.709	6133
822.849	5931
822.99	5946
823.13	6015
823.27	5942
823.41	5760
823.55	5745
823.69	5783
823.83	5817
823.97	5672
824.11	5543
824.25	5486
824.389	5535
824.529	5657
824.669	5539
824.809	5657
824.949	5649
825.089	5619
825.228	5566
825.368	5406
825.508	5353
825.648	5349
825.787	5357
825.927	5417
826.067	5349
826.206	5231
826.346	5383
826.485	5395
826.625	5398
826.765	5547
826.904	5452
827.044	5216
827.183	5227
827.323	5136
827.462	5254
827.601	5189
827.741	5181
827.88	5277
828.02	5117
828.159	5223
828.298	5315
828.437	5349
828.577	5299
828.716	5501
828.855	5315
828.994	5147
829.134	5128
829.273	5178
829.412	5174
829.551	5197
829.69	5159
829.829	5273
829.968	5376
830.107	5208
830.246	5265
830.385	5208
830.524	5105
830.663	5098
830.802	4987
830.941	4911
831.08	4873
831.219	4980
831.357	5003
831.496	5094
831.635	4930
831.774	4850
831.913	4850
832.051	4744
832.19	4790
832.329	4854
832.467	4656
832.606	4637
832.744	4786
832.883	4744
833.022	4691
833.16	4812
833.299	4850
833.437	4812
833.576	4843
833.714	4850
833.852	4870
833.991	4949
834.129	4980
834.267	4919
834.406	4900
834.544	4984
834.682	4999
834.821	4934
834.959	5151
835.097	5006
835.235	5147
835.373	5075
835.511	5178
835.65	5029
835.788	4991
835.926	4862
836.064	4835
836.202	4896
836.34	5113
836.478	5231
836.615	5083
836.753	5185
836.891	5269
837.029	5288
837.167	5178
837.305	5140
837.443	5170
837.58	5094
837.718	5246
837.856	5208
837.993	5143
838.131	5197
838.269	5170
838.406	5178
838.544	5178
838.681	5003
838.819	4984
838.956	4904
839.094	4904
839.231	4930
839.369	5094
839.506	5474
839.643	5284
839.781	5079
839.918	5006
840.055	5075
840.193	5041
840.33	5102
840.467	5136
840.604	5223
840.742	5349
840.879	5071
841.016	5140
841.153	5162
841.29	5341
841.427	5330
841.564	5341
841.701	5303
841.838	5307
841.975	5208
842.112	5242
842.249	5121
842.385	5121
842.522	5349
842.659	5166
842.796	5113
842.933	5231
843.069	5136
843.206	5155
843.343	5292
843.479	5239
843.616	5227
843.752	5045
843.889	4961
844.025	5220
844.162	4995
844.298	5162
844.435	5094
844.571	5048
844.708	5132
844.844	5242
844.98	5288
845.117	5326
845.253	5132
845.389	5090
845.525	5109
845.661	5151
845.798	5060
845.934	5041
846.07	5010
846.206	5109
846.342	5246
846.478	5227
846.614	5086
846.75	4946
846.886	4953
847.022	5117
847.158	5033
847.294	5067
847.429	5090
847.565	5086
847.701	5334
847.837	4862
847.972	4782
848.108	4938
848.244	4927
848.379	4759
848.515	4736
848.65	4717
848.786	4725
848.921	4755
849.057	4900
849.192	4934
849.328	4816
849.463	4843
849.598	4793
849.734	4812
849.869	4763
850.004	4592
850.14	4683
850.275	4603
850.41	4554
850.545	4542
850.68	4565
850.815	4615
850.95	4626
851.085	4847
851.22	4767
851.355	4637
851.49	4649
851.625	4592
851.76	4626
851.895	4580
852.03	4485
852.165	4687
852.299	4675
852.434	4812
852.569	4733
852.703	4729
852.838	4858
852.973	4942
853.107	4953
853.242	4729
853.376	4656
853.511	4569
853.645	4607
853.78	4774
853.914	4664
854.048	4672
854.183	4672
854.317	4683
854.451	4858
854.585	4672
854.72	4596
854.854	4778
854.988	4584
855.122	4607
855.256	4516
855.39	4679
855.524	4793
855.658	4710
855.792	4672
855.926	4744
856.06	4736
856.194	4767
856.327	4691
856.461	4569
856.595	4668
856.729	4672
856.862	4763
856.996	4679
857.13	4706
857.263	4748
857.397	4778
857.53	4641
857.664	4694
857.797	4733
857.931	4801
858.064	4694
858.197	4675
858.331	4637
858.464	4630
858.597	4485
858.731	4615
858.864	4630
858.997	4611
859.13	4675
859.263	4668
859.396	4706
859.529	4603
859.662	4592
859.795	4565
859.928	4656
860.061	4736
860.194	4774
860.327	4599
860.46	4523
860.592	4721
860.725	4755
860.858	4702
860.99	4561
861.123	4573
861.256	4455
861.388	4656
861.521	5280
861.653	4489
861.786	4436
861.918	4462
862.05	4447
862.183	4527
862.315	4573
862.447	4668
862.58	4584
862.712	4413
862.844	4329
862.976	4500
863.108	4428
863.24	4752
863.372	4371
863.504	4413
863.636	4405
863.768	4485
863.9	4470
864.032	4379
864.164	4402
864.296	4481
864.428	4538
864.559	4519
864.691	4538
864.823	4493
864.954	4508
865.086	4542
865.217	4462
865.349	4417
865.48	4451
865.612	4508
865.743	4653
865.875	4500
866.006	4455
866.137	4466
866.269	4413
866.4	4413
866.531	4424
866.662	4405
866.793	4363
866.924	4424
867.055	4489
867.186	4436
867.317	4417
867.448	4341
867.579	4379
867.71	4367
867.841	4375
867.972	4417
868.103	4489
868.233	4455
868.364	4485
868.495	4493
868.625	4668
868.756	4778
868.886	4546
869.017	4645
869.147	4767
869.278	4771
869.408	4660
869.539	4649
869.669	4683
869.799	4645
869.929	4759
870.06	4752
870.19	5003
870.32	4911
870.45	4934
870.58	4991
870.71	5075
870.84	5060
870.97	4968
871.1	4896
871.23	5143
871.36	5128
871.489	4991
871.619	5075
871.749	5113
871.879	5102
872.008	5143
872.138	5048
872.267	4972
872.397	4835
872.526	4816
872.656	4664
872.785	4774
872.915	4987
873.044	4995
873.173	4961
873.303	4934
873.432	4968
873.561	4942
873.69	4892
873.819	4858
873.948	4972
874.077	4793
874.206	4763
874.335	4839
874.464	4923
874.593	5056
874.722	4980
874.851	5056
874.979	5045
875.108	5048
875.237	4858
875.365	4949
875.494	4923
875.623	4968
875.751	4854
875.88	4904
876.008	5022
876.136	5064
876.265	5208
876.393	5334
876.521	5231
876.65	5208
876.778	5208
876.906	5083
877.034	5052
877.162	5067
877.29	5003
877.418	5083
877.546	5045
877.674	5052
877.802	5064
877.93	5003
878.058	4953
878.185	4885
878.313	4980
878.441	4957
878.568	4805
878.696	4904
878.824	4976
878.951	4961
879.079	5124
879.206	5254
879.333	5079
879.461	5003
879.588	4953
879.715	5079
879.842	5231
879.97	5025
880.097	4797
880.224	4733
880.351	4809
880.478	4771
880.605	4812
880.732	4835
880.859	5052
880.986	4900
881.112	4908
881.239	4786
881.366	4668
881.493	4607
881.619	4645
881.746	4626
881.872	4622
881.999	4645
882.125	4679
882.252	4782
882.378	4854
882.505	4949
882.631	4854
882.757	4664
882.883	4725
883.01	4683
883.136	4641
883.262	4615
883.388	4618
883.514	4763
883.64	4904
883.766	4809
883.892	4656
884.018	4721
884.143	4850
884.269	5018
884.395	4679
884.52	4630
884.646	4630
884.772	4637
884.897	4565
885.023	4653
885.148	4717
885.274	4816
885.399	4782
885.524	4729
885.65	4706
885.775	4793
885.9	4733
886.025	4854
886.15	4797
886.275	4691
886.4	4637
886.525	4736
886.65	4721
886.775	4656
886.9	4889
887.025	5037
887.149	4809
887.274	4672
887.399	4573
887.523	4618
887.648	4630
887.773	4565
887.897	4782
888.021	4774
888.146	4592
888.27	4809
888.395	4873
888.519	4755
888.643	4801
888.767	4820
888.891	4634
889.015	4596
889.139	4664
889.263	4592
889.387	4725
889.511	4900
889.635	4843
889.759	4675
889.883	4702
890.006	4736
890.13	4820
890.254	4622
890.377	4679
890.501	4542
890.624	4565
890.748	4611
890.871	4478
890.995	4417
891.118	4417
891.241	4512
891.364	4512
891.488	4637
891.611	4531
891.734	4565
891.857	4618
891.98	4531
892.103	4645
892.226	4569
892.349	4516
892.471	4424
892.594	4558
892.717	4615
892.839	4577
892.962	4558
893.085	4683
893.207	4577
893.33	4478
893.452	4546
893.575	4653
893.697	4523
893.819	4744
893.941	4820
894.064	4774
894.186	4569
894.308	4519
894.43	4748
894.552	4774
894.674	4740
894.796	4588
894.918	4588
895.04	4588
895.161	4717
895.283	4637
895.405	4588
895.526	4634
895.648	4736
895.769	4717
895.891	4740
896.012	4729
896.134	4714
896.255	4656
896.376	4622
896.498	4664
896.619	4672
896.74	4580
896.861	4683
896.982	4942
897.103	5060
897.224	4797
897.345	4733
897.466	4660
897.587	4759
897.708	4771
897.828	4805
897.949	4683
898.07	4531
898.19	4611
898.311	4824
898.431	4645
898.552	4763
898.672	4843
898.792	4824
898.913	4721
899.033	4622
899.153	4508
899.273	4462
899.393	4542
899.513	4538
899.633	4508
899.753	4577
899.873	4508
899.993	4558
900.113	4558
900.232	4565
900.352	4561
900.472	4443
900.591	4379
900.711	4489
900.83	4432
900.95	4580
901.069	4702
901.189	4497
901.308	4379
901.427	4306
901.546	4352
901.665	4508
901.784	4523
901.904	4398
902.023	4295
902.141	4177
902.26	4211
902.379	4306
902.498	4261
902.617	4261
902.735	4360
902.854	4375
902.973	4329
903.091	4196
903.21	4227
903.328	4325
903.446	4314
903.565	4249
903.683	4337
903.801	4280
903.919	4379
904.038	4466
904.156	4344
904.274	4474
904.392	4417
904.51	4417
904.627	4500
904.745	4546
904.863	4618
904.981	4367
905.098	4276
905.216	4383
905.334	4474
905.451	4459
905.569	4402
905.686	4542
905.803	4588
905.921	4462
906.038	4535
906.155	4459
906.272	4405
906.389	4451
906.506	4371
906.623	4360
906.74	4417
906.857	4295
906.974	4356
907.091	4550
907.208	4622
907.324	4607
907.441	4489
907.557	4303
907.674	4356
907.79	4318
907.907	4371
908.023	4497
908.139	4462
908.256	4413
908.372	4462
908.488	4478
908.604	4363
908.72	4344
908.836	4325
908.952	4405
909.068	4451
909.184	4554
909.3	4485
909.415	4580
909.531	4523
909.647	4341
909.762	4363
909.878	4310
909.993	4443
910.108	4440
910.224	4455
910.339	4512
910.454	4436
910.57	4344
910.685	4284
910.8	4660
910.915	4561
911.03	4462
911.145	4310
911.259	4306
911.374	4413
911.489	4318
911.604	4276
911.718	4158
911.833	4268
911.947	4029
912.062	4051
912.176	4246
912.291	4196
912.405	4265
912.519	4462
912.633	4516
912.748	4379
912.862	4295
912.976	4147
913.09	4051
913.204	4135
913.318	4242
913.431	4367
913.545	4371
913.659	4432
913.772	4322
913.886	4227
914	4268
914.113	4409
914.226	4405
914.34	4409
914.453	4227
914.566	4390
914.68	4287
914.793	4314
914.906	4139
915.019	4105
915.132	4101
915.245	4204
915.358	4188
915.47	4238
915.583	4261
915.696	4318
915.809	4398
915.921	4455
916.034	4227
916.146	4249
916.259	4143
916.371	4383
916.483	4344
916.595	4261
916.708	4325
916.82	4352
916.932	4356
917.044	4337
917.156	4322
917.268	4246
917.38	4257
917.491	4268
917.603	4348
917.715	4421
917.826	4421
917.938	4337
918.049	4234
918.161	4413
918.272	4508
918.384	4558
918.495	4432
918.606	4306
918.717	4253
918.828	4322
918.939	4363
919.05	4261
919.161	4291
919.272	4112
919.383	4265
919.494	4451
919.604	4634
919.715	4402
919.826	4303
919.936	4432
920.047	4561
920.157	4451
920.267	4675
920.378	4523
920.488	4489
920.598	4694
920.708	4919
920.818	4721
920.928	4748
921.038	4972
921.148	4961
921.258	4584
921.368	4538
921.477	4462
921.587	4455
921.697	4314
921.806	4592
921.916	4443
922.025	4272
922.134	4272
922.244	4268
922.353	4333
922.462	4158
922.571	4124
922.68	3998
922.789	3956
922.898	4040
923.007	3994
923.116	4044
923.224	4021
923.333	4078
923.442	3979
923.55	3968
923.659	3994
923.767	4116
923.876	4017
923.984	4086
924.092	3998
924.201	4074
924.309	4131
924.417	4120
924.525	4086
924.633	4074
924.741	5071
924.849	3907
924.956	4135
925.064	3968
925.172	3876
925.279	3991
925.387	4067
925.494	4082
925.602	4227
925.709	4196
925.816	4006
925.924	4109
926.031	4265
926.138	4196
926.245	4188
926.352	4082
926.459	4223
926.566	4348
926.673	4150
926.779	4082
926.886	4032
926.993	3979
927.099	3922
927.206	3964
927.312	3956
927.419	4040
927.525	3994
927.631	4025
927.737	3979
927.843	3979
927.95	3819
928.056	3945
928.162	3979
928.267	4029
928.373	4607
928.479	4143
928.585	3854
928.69	3991
928.796	4090
928.901	3964
929.007	3819
929.112	3937
929.218	3968
929.323	3998
929.428	3918
929.533	4097
929.638	3907
929.743	3949
929.848	3994
929.953	4006
930.058	3899
930.163	3732
930.267	3819
930.372	3934
930.477	3789
930.581	4093
930.685	3915
930.79	3793
930.894	3899
930.998	3880
931.103	4044
931.207	3694
931.311	3671
931.415	3644
931.519	3473
931.623	3561
