Data from test_V78500241_2015.txt Node
Date: Fri Mar 25 17:03:00 CST 2022
User: usil
Spectrometer: V785-0024
Trigger mode: 0
Integration Time (sec): 4.000000E-1
Scans to average: 1
Nonlinearity correction enabled: false
Boxcar width: 0
Storing dark spectrum: false
XAxis mode: Wavelengths
Number of Pixels in Spectrum: 1024
>>>>>Begin Spectral Data<<<<<
801.071	7959
801.214	8008
801.356	7875
801.499	7856
801.641	7807
801.783	7830
801.926	7978
802.068	7940
802.211	8054
802.353	7963
802.496	7852
802.638	7868
802.78	7856
802.923	7906
803.065	7814
803.208	7799
803.35	7974
803.492	8020
803.635	8130
803.777	8054
803.919	8191
804.061	8431
804.204	8221
804.346	8119
804.488	7978
804.63	8062
804.773	8020
804.915	8096
805.057	8320
805.199	8142
805.341	8233
805.483	8210
805.626	8214
805.768	8138
805.91	8221
806.052	8195
806.194	8073
806.336	8191
806.478	8081
806.62	8103
806.762	8149
806.904	8309
807.046	8461
807.188	8374
807.33	8298
807.472	8275
807.614	8183
807.756	8134
807.898	8020
808.04	7898
808.182	7917
808.324	7909
808.465	7826
808.607	8096
808.749	8107
808.891	8202
809.033	8313
809.174	8233
809.316	8092
809.458	8073
809.6	8020
809.741	7997
809.883	8008
810.025	8084
810.166	8092
810.308	8062
810.45	7986
810.591	7887
810.733	7738
810.875	7632
811.016	7491
811.158	7499
811.299	7533
811.441	7666
811.582	7696
811.724	7518
811.865	7510
812.007	7582
812.148	7559
812.29	7620
812.431	7761
812.573	7849
812.714	7986
812.855	8043
812.997	8202
813.138	8279
813.279	8145
813.421	8069
813.562	7936
813.703	7784
813.845	7765
813.986	7460
814.127	7297
814.268	7187
814.41	7179
814.551	7160
814.692	7217
814.833	7091
814.974	7072
815.115	7088
815.256	6977
815.397	6947
815.539	6882
815.68	6814
815.821	6776
815.962	6932
816.103	6798
816.244	6711
816.385	6593
816.526	6585
816.666	6456
816.807	6258
816.948	6418
817.089	6445
817.23	6494
817.371	6372
817.512	6331
817.653	6426
817.793	6338
817.934	6437
818.075	6426
818.216	6429
818.356	6456
818.497	6277
818.638	6125
818.778	6144
818.919	6159
819.06	6178
819.2	6273
819.341	6289
819.481	6350
819.622	6517
819.762	6741
819.903	6715
820.043	6604
820.184	6597
820.324	6566
820.465	6662
820.605	6665
820.746	6631
820.886	6460
821.026	6662
821.167	6757
821.307	6772
821.447	6692
821.588	6650
821.728	6528
821.868	6479
822.008	6311
822.149	6388
822.289	6270
822.429	6228
822.569	6041
822.709	6121
822.849	5958
822.99	5897
823.13	5942
823.27	5935
823.41	5767
823.55	5786
823.69	5741
823.83	5718
823.97	5627
824.11	5532
824.25	5547
824.389	5596
824.529	5581
824.669	5532
824.809	5665
824.949	5668
825.089	5539
825.228	5516
825.368	5402
825.508	5330
825.648	5357
825.787	5414
825.927	5383
826.067	5311
826.206	5296
826.346	5391
826.485	5379
826.625	5326
826.765	5478
826.904	5471
827.044	5216
827.183	5185
827.323	5143
827.462	5280
827.601	5212
827.741	5220
827.88	5220
828.02	5117
828.159	5231
828.298	5311
828.437	5326
828.577	5235
828.716	5505
828.855	5345
828.994	5162
829.134	5143
829.273	5155
829.412	5147
829.551	5159
829.69	5143
829.829	5235
829.968	5353
830.107	5273
830.246	5288
830.385	5235
830.524	5132
830.663	5090
830.802	4984
830.941	4862
831.08	4908
831.219	4965
831.357	4938
831.496	5102
831.635	4896
831.774	4824
831.913	4877
832.051	4675
832.19	4755
832.329	4782
832.467	4672
832.606	4630
832.744	4714
832.883	4668
833.022	4694
833.16	4797
833.299	4801
833.437	4850
833.576	4801
833.714	4850
833.852	4877
833.991	4889
834.129	4946
834.267	4942
834.406	4930
834.544	4923
834.682	4930
834.821	4965
834.959	5181
835.097	4934
835.235	5140
835.373	5090
835.511	5075
835.65	5025
835.788	4976
835.926	4877
836.064	4881
836.202	4923
836.34	5083
836.478	5223
836.615	5143
836.753	5162
836.891	5315
837.029	5288
837.167	5147
837.305	5151
837.443	5155
837.58	5041
837.718	5254
837.856	5159
837.993	5185
838.131	5269
838.269	5189
838.406	5174
838.544	5162
838.681	5045
838.819	4999
838.956	4900
839.094	4881
839.231	4927
839.369	5041
839.506	5372
839.643	5303
839.781	5041
839.918	5014
840.055	5098
840.193	5098
840.33	5102
840.467	5105
840.604	5197
840.742	5421
840.879	5060
841.016	5075
841.153	5185
841.29	5330
841.427	5265
841.564	5296
841.701	5364
841.838	5269
841.975	5197
842.112	5261
842.249	5128
842.385	5102
842.522	5341
842.659	5147
842.796	5117
842.933	5143
843.069	5128
843.206	5155
843.343	5284
843.479	5223
843.616	5235
843.752	4995
843.889	4965
844.025	5189
844.162	4965
844.298	5193
844.435	5124
844.571	5045
844.708	5204
844.844	5292
844.98	5353
845.117	5311
845.253	5155
845.389	5064
845.525	5124
845.661	5185
845.798	5022
845.934	5162
846.07	5037
846.206	5193
846.342	5242
846.478	5227
846.614	5018
846.75	4972
846.886	4923
847.022	5075
847.158	4976
847.294	5064
847.429	5090
847.565	5075
847.701	5288
847.837	4850
847.972	4816
848.108	4980
848.244	4919
848.379	4748
848.515	4755
848.65	4683
848.786	4771
848.921	4778
849.057	4839
849.192	4930
849.328	4831
849.463	4816
849.598	4774
849.734	4733
849.869	4634
850.004	4615
850.14	4691
850.275	4580
850.41	4508
850.545	4611
850.68	4596
850.815	4698
850.95	4607
851.085	4797
851.22	4706
851.355	4694
851.49	4599
851.625	4603
851.76	4611
851.895	4535
852.03	4569
852.165	4691
852.299	4740
852.434	4767
852.569	4786
852.703	4782
852.838	4866
852.973	4877
853.107	4923
853.242	4733
853.376	4679
853.511	4569
853.645	4584
853.78	4790
853.914	4702
854.048	4679
854.183	4683
854.317	4675
854.451	4843
854.585	4664
854.72	4660
854.854	4759
854.988	4618
855.122	4668
855.256	4497
855.39	4660
855.524	4755
855.658	4672
855.792	4687
855.926	4710
856.06	4793
856.194	4771
856.327	4691
856.461	4622
856.595	4592
856.729	4630
856.862	4748
856.996	4702
857.13	4702
857.263	4801
857.397	4790
857.53	4630
857.664	4759
857.797	4740
857.931	4778
858.064	4679
858.197	4771
858.331	4641
858.464	4565
858.597	4519
858.731	4596
858.864	4634
858.997	4607
859.13	4668
859.263	4675
859.396	4656
859.529	4649
859.662	4554
859.795	4531
859.928	4588
860.061	4759
860.194	4748
860.327	4634
860.46	4580
860.592	4683
860.725	4725
860.858	4687
860.99	4550
861.123	4565
861.256	4531
861.388	4618
861.521	5269
861.653	4432
861.786	4409
861.918	4493
862.05	4535
862.183	4523
862.315	4615
862.447	4656
862.58	4554
862.712	4398
862.844	4318
862.976	4462
863.108	4470
863.24	4790
863.372	4333
863.504	4436
863.636	4405
863.768	4478
863.9	4455
864.032	4379
864.164	4398
864.296	4459
864.428	4519
864.559	4645
864.691	4558
864.823	4546
864.954	4459
865.086	4455
865.217	4466
865.349	4398
865.48	4432
865.612	4489
865.743	4637
865.875	4474
866.006	4379
866.137	4436
866.269	4428
866.4	4447
866.531	4428
866.662	4363
866.793	4402
866.924	4390
867.055	4481
867.186	4474
867.317	4481
867.448	4379
867.579	4386
867.71	4386
867.841	4383
867.972	4485
868.103	4455
868.233	4447
868.364	4421
868.495	4470
868.625	4683
868.756	4706
868.886	4497
869.017	4649
869.147	4793
869.278	4729
869.408	4634
869.539	4618
869.669	4717
869.799	4668
869.929	4786
870.06	4721
870.19	4915
870.32	4900
870.45	4900
870.58	5037
870.71	5132
870.84	5090
870.97	4889
871.1	4930
871.23	5151
871.36	5166
871.489	4972
871.619	5083
871.749	5086
871.879	5128
872.008	5197
872.138	5041
872.267	4987
872.397	4847
872.526	4850
872.656	4759
872.785	4782
872.915	5006
873.044	4995
873.173	4900
873.303	5033
873.432	4976
873.561	4927
873.69	4870
873.819	4900
873.948	4949
874.077	4771
874.206	4805
874.335	4850
874.464	4919
874.593	5071
874.722	4949
874.851	5067
874.979	5022
875.108	5067
875.237	4915
875.365	4885
875.494	4904
875.623	4946
875.751	4854
875.88	4877
876.008	4953
876.136	5048
876.265	5201
876.393	5330
876.521	5227
876.65	5204
876.778	5189
876.906	5079
877.034	5098
877.162	5033
877.29	5041
877.418	5094
877.546	5014
877.674	5064
877.802	5033
877.93	4995
878.058	4972
878.185	4896
878.313	4938
878.441	4949
878.568	4839
878.696	4858
878.824	4957
878.951	4980
879.079	5151
879.206	5250
879.333	5094
879.461	4999
879.588	5006
879.715	5140
879.842	5265
879.97	4987
880.097	4786
880.224	4748
880.351	4790
880.478	4847
880.605	4755
880.732	4771
880.859	5064
880.986	4896
881.112	4881
881.239	4733
881.366	4634
881.493	4588
881.619	4611
881.746	4622
881.872	4641
881.999	4683
882.125	4687
882.252	4828
882.378	4812
882.505	4980
882.631	4786
882.757	4630
882.883	4714
883.01	4759
883.136	4683
883.262	4615
883.388	4580
883.514	4843
883.64	4908
883.766	4816
883.892	4656
884.018	4698
884.143	4873
884.269	4999
884.395	4664
884.52	4656
884.646	4611
884.772	4538
884.897	4565
885.023	4634
885.148	4759
885.274	4881
885.399	4801
885.524	4691
885.65	4733
885.775	4752
885.9	4687
886.025	4858
886.15	4744
886.275	4702
886.4	4637
886.525	4710
886.65	4683
886.775	4725
886.9	4873
887.025	5018
887.149	4805
887.274	4740
887.399	4599
887.523	4580
887.648	4561
887.773	4584
887.897	4782
888.021	4790
888.146	4649
888.27	4805
888.395	4892
888.519	4767
888.643	4774
888.767	4873
888.891	4687
889.015	4607
889.139	4626
889.263	4599
889.387	4710
889.511	4877
889.635	4786
889.759	4664
889.883	4637
890.006	4752
890.13	4831
890.254	4626
890.377	4679
890.501	4493
890.624	4508
890.748	4630
890.871	4500
890.995	4409
891.118	4344
891.241	4523
891.364	4554
891.488	4641
891.611	4519
891.734	4573
891.857	4618
891.98	4588
892.103	4668
892.226	4561
892.349	4508
892.471	4455
892.594	4531
892.717	4592
892.839	4592
892.962	4561
893.085	4649
893.207	4565
893.33	4455
893.452	4519
893.575	4634
893.697	4580
893.819	4805
893.941	4854
894.064	4755
894.186	4565
894.308	4577
894.43	4740
894.552	4835
894.674	4793
894.796	4531
894.918	4577
895.04	4569
895.161	4706
895.283	4630
895.405	4592
895.526	4637
895.648	4714
895.769	4691
895.891	4774
896.012	4748
896.134	4771
896.255	4660
896.376	4672
896.498	4599
896.619	4714
896.74	4618
896.861	4675
896.982	4904
897.103	5128
897.224	4816
897.345	4691
897.466	4691
897.587	4702
897.708	4892
897.828	4759
897.949	4637
898.07	4516
898.19	4649
898.311	4835
898.431	4683
898.552	4725
898.672	4820
898.792	4733
898.913	4752
899.033	4592
899.153	4519
899.273	4428
899.393	4508
899.513	4523
899.633	4527
899.753	4554
899.873	4443
899.993	4569
900.113	4558
900.232	4596
900.352	4523
900.472	4478
900.591	4386
900.711	4493
900.83	4386
900.95	4615
901.069	4637
901.189	4546
901.308	4360
901.427	4329
901.546	4424
901.665	4451
901.784	4478
901.904	4405
902.023	4310
902.141	4188
902.26	4185
902.379	4261
902.498	4219
902.617	4246
902.735	4341
902.854	4375
902.973	4379
903.091	4166
903.21	4215
903.328	4325
903.446	4287
903.565	4234
903.683	4318
903.801	4284
903.919	4417
904.038	4421
904.156	4261
904.274	4447
904.392	4318
904.51	4383
904.627	4500
904.745	4535
904.863	4634
904.981	4363
905.098	4314
905.216	4371
905.334	4443
905.451	4459
905.569	4436
905.686	4561
905.803	4569
905.921	4409
906.038	4554
906.155	4466
906.272	4352
906.389	4409
906.506	4314
906.623	4341
906.74	4356
906.857	4325
906.974	4341
907.091	4554
907.208	4729
907.324	4577
907.441	4470
907.557	4329
907.674	4337
907.79	4325
907.907	4367
908.023	4481
908.139	4436
908.256	4466
908.372	4462
908.488	4432
908.604	4333
908.72	4379
908.836	4390
908.952	4386
909.068	4447
909.184	4573
909.3	4512
909.415	4580
909.531	4523
909.647	4390
909.762	4341
909.878	4318
909.993	4447
910.108	4402
910.224	4421
910.339	4500
910.454	4409
910.57	4314
910.685	4310
910.8	4565
910.915	4592
911.03	4485
911.145	4352
911.259	4310
911.374	4314
911.489	4276
911.604	4291
911.718	4162
911.833	4204
911.947	4109
912.062	4017
912.176	4219
912.291	4223
912.405	4223
912.519	4466
912.633	4470
912.748	4371
912.862	4295
912.976	4181
913.09	4082
913.204	4181
913.318	4284
913.431	4348
913.545	4329
913.659	4428
913.772	4390
913.886	4192
914	4211
914.113	4360
914.226	4371
914.34	4402
914.453	4272
914.566	4459
914.68	4295
914.793	4306
914.906	4158
915.019	4124
915.132	4078
915.245	4154
915.358	4200
915.47	4242
915.583	4246
915.696	4306
915.809	4413
915.921	4386
916.034	4249
916.146	4227
916.259	4196
916.371	4383
916.483	4352
916.595	4306
916.708	4303
916.82	4303
916.932	4337
917.044	4322
917.156	4348
917.268	4227
917.38	4287
917.491	4287
917.603	4325
917.715	4413
917.826	4424
917.938	4329
918.049	4253
918.161	4413
918.272	4497
918.384	4561
918.495	4386
918.606	4227
918.717	4234
918.828	4352
918.939	4375
919.05	4284
919.161	4333
919.272	4143
919.383	4223
919.494	4436
919.604	4626
919.715	4405
919.826	4360
919.936	4360
920.047	4500
920.157	4493
920.267	4675
920.378	4561
920.488	4500
920.598	4729
920.708	4858
920.818	4714
920.928	4717
921.038	4915
921.148	4892
921.258	4641
921.368	4535
921.477	4508
921.587	4500
921.697	4352
921.806	4508
921.916	4432
922.025	4329
922.134	4257
922.244	4200
922.353	4314
922.462	4196
922.571	4128
922.68	4017
922.789	3998
922.898	4029
923.007	3979
923.116	4090
923.224	4097
923.333	4082
923.442	3991
923.55	3949
923.659	4013
923.767	4082
923.876	4013
923.984	4097
924.092	3972
924.201	4051
924.309	4040
924.417	4131
924.525	4021
924.633	4097
924.741	4984
924.849	3922
924.956	4074
925.064	4044
925.172	3926
925.279	3964
925.387	4063
925.494	4032
925.602	4192
925.709	4196
925.816	4044
925.924	4169
926.031	4192
926.138	4139
926.245	4162
926.352	4109
926.459	4261
926.566	4280
926.673	4109
926.779	4021
926.886	4051
926.993	3983
927.099	3945
927.206	3911
927.312	3915
927.419	4002
927.525	4040
927.631	4051
927.737	3949
927.843	3930
927.95	3835
928.056	3960
928.162	3972
928.267	4029
928.373	4565
928.479	4105
928.585	3850
928.69	4017
928.796	4029
928.901	3968
929.007	3816
929.112	3975
929.218	3968
929.323	3949
929.428	3937
929.533	4097
929.638	3880
929.743	3945
929.848	4021
929.953	3964
930.058	3930
930.163	3766
930.267	3819
930.372	3926
930.477	3781
930.581	4013
930.685	3941
930.79	3816
930.894	3876
930.998	3838
931.103	4032
931.207	3717
931.311	3686
931.415	3663
931.519	3534
931.623	3545
