Data from test_V78500241_1172.txt Node
Date: Fri Mar 25 16:57:09 CST 2022
User: usil
Spectrometer: V785-0024
Trigger mode: 0
Integration Time (sec): 4.000000E-1
Scans to average: 1
Nonlinearity correction enabled: false
Boxcar width: 0
Storing dark spectrum: false
XAxis mode: Wavelengths
Number of Pixels in Spectrum: 1024
>>>>>Begin Spectral Data<<<<<
801.071	8069
801.214	7989
801.356	7978
801.499	7860
801.641	7704
801.783	7818
801.926	7917
802.068	7947
802.211	7928
802.353	7913
802.496	7795
802.638	7841
802.78	7921
802.923	7947
803.065	7898
803.208	7860
803.35	7997
803.492	8153
803.635	8130
803.777	8062
803.919	8134
804.061	8473
804.204	8210
804.346	8035
804.488	7970
804.63	8119
804.773	8001
804.915	8065
805.057	8225
805.199	8229
805.341	8294
805.483	8328
805.626	8168
805.768	8123
805.91	8202
806.052	8191
806.194	8077
806.336	8199
806.478	8050
806.62	8039
806.762	8172
806.904	8267
807.046	8415
807.188	8343
807.33	8313
807.472	8290
807.614	8187
807.756	8100
807.898	7982
808.04	7982
808.182	7898
808.324	7871
808.465	7963
808.607	8145
808.749	7993
808.891	8191
809.033	8301
809.174	8142
809.316	8058
809.458	8012
809.6	8001
809.741	7986
809.883	8005
810.025	8020
810.166	8035
810.308	7967
810.45	7989
810.591	7814
810.733	7681
810.875	7639
811.016	7529
811.158	7472
811.299	7544
811.441	7719
811.582	7765
811.724	7548
811.865	7537
812.007	7571
812.148	7533
812.29	7632
812.431	7731
812.573	7833
812.714	7982
812.855	8058
812.997	8172
813.138	8309
813.279	8126
813.421	8069
813.562	7947
813.703	7864
813.845	7757
813.986	7468
814.127	7225
814.268	7168
814.41	7137
814.551	7164
814.692	7152
814.833	7046
814.974	7091
815.115	7072
815.256	6932
815.397	6905
815.539	6966
815.68	6814
815.821	6795
815.962	6871
816.103	6749
816.244	6715
816.385	6658
816.526	6662
816.666	6486
816.807	6273
816.948	6460
817.089	6490
817.23	6418
817.371	6399
817.512	6357
817.653	6357
817.793	6414
817.934	6441
818.075	6426
818.216	6445
818.356	6365
818.497	6292
818.638	6064
818.778	6186
818.919	6152
819.06	6171
819.2	6289
819.341	6357
819.481	6380
819.622	6570
819.762	6760
819.903	6665
820.043	6601
820.184	6585
820.324	6646
820.465	6658
820.605	6658
820.746	6669
820.886	6479
821.026	6662
821.167	6764
821.307	6795
821.447	6745
821.588	6673
821.728	6582
821.868	6452
822.008	6369
822.149	6429
822.289	6388
822.429	6106
822.569	6038
822.709	6197
822.849	5969
822.99	5904
823.13	5927
823.27	5920
823.41	5756
823.55	5824
823.69	5805
823.83	5836
823.97	5726
824.11	5589
824.25	5493
824.389	5543
824.529	5619
824.669	5535
824.809	5619
824.949	5653
825.089	5672
825.228	5596
825.368	5440
825.508	5360
825.648	5364
825.787	5379
825.927	5417
826.067	5337
826.206	5368
826.346	5391
826.485	5444
826.625	5448
826.765	5627
826.904	5497
827.044	5326
827.183	5208
827.323	5162
827.462	5265
827.601	5242
827.741	5216
827.88	5197
828.02	5147
828.159	5239
828.298	5337
828.437	5364
828.577	5277
828.716	5520
828.855	5353
828.994	5185
829.134	5212
829.273	5220
829.412	5159
829.551	5109
829.69	5174
829.829	5258
829.968	5357
830.107	5292
830.246	5299
830.385	5193
830.524	5189
830.663	5086
830.802	5014
830.941	4904
831.08	4934
831.219	5006
831.357	5025
831.496	5178
831.635	4968
831.774	4850
831.913	4870
832.051	4771
832.19	4740
832.329	4934
832.467	4740
832.606	4679
832.744	4752
832.883	4782
833.022	4736
833.16	4767
833.299	4866
833.437	4828
833.576	4904
833.714	4854
833.852	4854
833.991	4934
834.129	4976
834.267	4965
834.406	4938
834.544	5056
834.682	4984
834.821	4934
834.959	5155
835.097	5022
835.235	5143
835.373	5086
835.511	5128
835.65	5052
835.788	5025
835.926	4923
836.064	4885
836.202	4923
836.34	5185
836.478	5273
836.615	5155
836.753	5208
836.891	5318
837.029	5246
837.167	5155
837.305	5181
837.443	5197
837.58	5029
837.718	5239
837.856	5181
837.993	5181
838.131	5277
838.269	5181
838.406	5261
838.544	5239
838.681	5048
838.819	5018
838.956	4919
839.094	4915
839.231	4991
839.369	5124
839.506	5478
839.643	5277
839.781	5109
839.918	5075
840.055	5109
840.193	5098
840.33	5143
840.467	5124
840.604	5178
840.742	5448
840.879	5170
841.016	5086
841.153	5128
841.29	5364
841.427	5360
841.564	5322
841.701	5387
841.838	5341
841.975	5212
842.112	5303
842.249	5166
842.385	5147
842.522	5372
842.659	5204
842.796	5185
842.933	5220
843.069	5174
843.206	5235
843.343	5299
843.479	5269
843.616	5284
843.752	4991
843.889	5003
844.025	5242
844.162	5029
844.298	5223
844.435	5124
844.571	5075
844.708	5231
844.844	5345
844.98	5364
845.117	5360
845.253	5174
845.389	5136
845.525	5181
845.661	5174
845.798	5060
845.934	5143
846.07	5079
846.206	5147
846.342	5239
846.478	5189
846.614	5094
846.75	5014
846.886	4953
847.022	5151
847.158	5045
847.294	5056
847.429	5083
847.565	5105
847.701	5376
847.837	4911
847.972	4809
848.108	4995
848.244	4946
848.379	4755
848.515	4736
848.65	4702
848.786	4771
848.921	4790
849.057	4892
849.192	4915
849.328	4809
849.463	4919
849.598	4774
849.734	4771
849.869	4729
850.004	4656
850.14	4599
850.275	4580
850.41	4554
850.545	4588
850.68	4630
850.815	4649
850.95	4656
851.085	4911
851.22	4805
851.355	4687
851.49	4611
851.625	4637
851.76	4714
851.895	4561
852.03	4603
852.165	4637
852.299	4752
852.434	4809
852.569	4752
852.703	4805
852.838	4847
852.973	4942
853.107	4965
853.242	4771
853.376	4714
853.511	4561
853.645	4634
853.78	4805
853.914	4683
854.048	4698
854.183	4675
854.317	4694
854.451	4828
854.585	4706
854.72	4637
854.854	4782
854.988	4645
855.122	4653
855.256	4535
855.39	4706
855.524	4805
855.658	4721
855.792	4752
855.926	4729
856.06	4782
856.194	4801
856.327	4679
856.461	4554
856.595	4634
856.729	4672
856.862	4755
856.996	4706
857.13	4759
857.263	4717
857.397	4873
857.53	4622
857.664	4755
857.797	4793
857.931	4801
858.064	4710
858.197	4736
858.331	4664
858.464	4634
858.597	4573
858.731	4683
858.864	4634
858.997	4622
859.13	4687
859.263	4691
859.396	4717
859.529	4599
859.662	4611
859.795	4569
859.928	4660
860.061	4805
860.194	4831
860.327	4634
860.46	4599
860.592	4748
860.725	4725
860.858	4725
860.99	4565
861.123	4508
861.256	4516
861.388	4653
861.521	5277
861.653	4554
861.786	4470
861.918	4485
862.05	4561
862.183	4558
862.315	4607
862.447	4645
862.58	4538
862.712	4402
862.844	4322
862.976	4478
863.108	4470
863.24	4923
863.372	4348
863.504	4356
863.636	4417
863.768	4485
863.9	4402
864.032	4363
864.164	4428
864.296	4485
864.428	4615
864.559	4561
864.691	4542
864.823	4500
864.954	4447
865.086	4535
865.217	4478
865.349	4470
865.48	4459
865.612	4497
865.743	4641
865.875	4531
866.006	4485
866.137	4538
866.269	4424
866.4	4440
866.531	4428
866.662	4356
866.793	4432
866.924	4436
867.055	4508
867.186	4409
867.317	4417
867.448	4409
867.579	4390
867.71	4413
867.841	4402
867.972	4436
868.103	4481
868.233	4493
868.364	4459
868.495	4470
868.625	4683
868.756	4786
868.886	4565
869.017	4637
869.147	4805
869.278	4801
869.408	4664
869.539	4714
869.669	4729
869.799	4672
869.929	4771
870.06	4714
870.19	4953
870.32	4957
870.45	4900
870.58	5006
870.71	5045
870.84	5121
870.97	4946
871.1	4850
871.23	5170
871.36	5159
871.489	5075
871.619	5113
871.749	5113
871.879	5124
872.008	5189
872.138	5067
872.267	4980
872.397	4831
872.526	4801
872.656	4778
872.785	4820
872.915	4953
873.044	4999
873.173	4946
873.303	4957
873.432	4987
873.561	4942
873.69	4870
873.819	4850
873.948	4904
874.077	4805
874.206	4759
874.335	4797
874.464	4908
874.593	5060
874.722	4995
874.851	5094
874.979	5048
875.108	5033
875.237	4957
875.365	4930
875.494	4911
875.623	4949
875.751	4847
875.88	4877
876.008	4984
876.136	4976
876.265	5185
876.393	5345
876.521	5258
876.65	5239
876.778	5136
876.906	5105
877.034	5056
877.162	5071
877.29	4980
877.418	5060
877.546	5010
877.674	5018
877.802	5014
877.93	4972
878.058	4938
878.185	4889
878.313	4953
878.441	5010
878.568	4812
878.696	4877
878.824	4972
878.951	5006
879.079	5121
879.206	5265
879.333	5140
879.461	5037
879.588	5037
879.715	5143
879.842	5246
879.97	5003
880.097	4778
880.224	4755
880.351	4816
880.478	4816
880.605	4774
880.732	4812
880.859	5098
880.986	4923
881.112	4858
881.239	4782
881.366	4672
881.493	4641
881.619	4637
881.746	4611
881.872	4672
881.999	4664
882.125	4733
882.252	4774
882.378	4828
882.505	4957
882.631	4778
882.757	4641
882.883	4752
883.01	4793
883.136	4660
883.262	4580
883.388	4637
883.514	4793
883.64	4911
883.766	4786
883.892	4702
884.018	4698
884.143	4934
884.269	5006
884.395	4691
884.52	4649
884.646	4649
884.772	4596
884.897	4592
885.023	4672
885.148	4774
885.274	4850
885.399	4793
885.524	4694
885.65	4721
885.775	4744
885.9	4786
886.025	4862
886.15	4771
886.275	4771
886.4	4649
886.525	4729
886.65	4679
886.775	4694
886.9	4911
887.025	5048
887.149	4816
887.274	4691
887.399	4558
887.523	4535
887.648	4550
887.773	4573
887.897	4752
888.021	4790
888.146	4672
888.27	4824
888.395	4885
888.519	4797
888.643	4816
888.767	4805
888.891	4691
889.015	4607
889.139	4641
889.263	4580
889.387	4755
889.511	4820
889.635	4786
889.759	4656
889.883	4634
890.006	4748
890.13	4805
890.254	4592
890.377	4687
890.501	4508
890.624	4497
890.748	4641
890.871	4542
890.995	4428
891.118	4383
891.241	4538
891.364	4546
891.488	4626
891.611	4459
891.734	4523
891.857	4584
891.98	4550
892.103	4668
892.226	4615
892.349	4519
892.471	4424
892.594	4558
892.717	4611
892.839	4588
892.962	4588
893.085	4675
893.207	4542
893.33	4478
893.452	4535
893.575	4649
893.697	4596
893.819	4816
893.941	4858
894.064	4778
894.186	4542
894.308	4573
894.43	4763
894.552	4835
894.674	4729
894.796	4546
894.918	4626
895.04	4561
895.161	4725
895.283	4668
895.405	4626
895.526	4615
895.648	4702
895.769	4664
895.891	4744
896.012	4736
896.134	4710
896.255	4630
896.376	4656
896.498	4615
896.619	4660
896.74	4599
896.861	4668
896.982	4934
897.103	5052
897.224	4858
897.345	4733
897.466	4596
897.587	4706
897.708	4885
897.828	4816
897.949	4664
898.07	4580
898.19	4603
898.311	4793
898.431	4675
898.552	4733
898.672	4797
898.792	4786
898.913	4725
899.033	4592
899.153	4538
899.273	4405
899.393	4504
899.513	4512
899.633	4538
899.753	4508
899.873	4538
899.993	4554
900.113	4527
900.232	4592
900.352	4523
900.472	4459
900.591	4424
900.711	4500
900.83	4455
900.95	4558
901.069	4668
901.189	4497
901.308	4390
901.427	4322
901.546	4383
901.665	4504
901.784	4478
901.904	4371
902.023	4314
902.141	4223
902.26	4234
902.379	4344
902.498	4249
902.617	4188
902.735	4383
902.854	4413
902.973	4371
903.091	4204
903.21	4200
903.328	4246
903.446	4303
903.565	4265
903.683	4341
903.801	4223
903.919	4421
904.038	4440
904.156	4310
904.274	4398
904.392	4402
904.51	4398
904.627	4516
904.745	4538
904.863	4660
904.981	4379
905.098	4291
905.216	4352
905.334	4409
905.451	4459
905.569	4432
905.686	4535
905.803	4580
905.921	4405
906.038	4558
906.155	4459
906.272	4375
906.389	4447
906.506	4360
906.623	4394
906.74	4352
906.857	4284
906.974	4356
907.091	4542
907.208	4664
907.324	4603
907.441	4447
907.557	4360
907.674	4394
907.79	4318
907.907	4379
908.023	4443
908.139	4455
908.256	4455
908.372	4447
908.488	4459
908.604	4356
908.72	4299
908.836	4413
908.952	4390
909.068	4402
909.184	4558
909.3	4535
909.415	4554
909.531	4584
909.647	4383
909.762	4390
909.878	4348
909.993	4481
910.108	4405
910.224	4413
910.339	4455
910.454	4417
910.57	4344
910.685	4383
910.8	4698
910.915	4603
911.03	4485
911.145	4333
911.259	4322
911.374	4405
911.489	4280
911.604	4268
911.718	4154
911.833	4253
911.947	4059
912.062	4013
912.176	4227
912.291	4249
912.405	4207
912.519	4440
912.633	4455
912.748	4344
912.862	4314
912.976	4207
913.09	4131
913.204	4169
913.318	4238
913.431	4379
913.545	4386
913.659	4436
913.772	4360
913.886	4272
914	4211
914.113	4379
914.226	4386
914.34	4402
914.453	4238
914.566	4462
914.68	4299
914.793	4360
914.906	4181
915.019	4063
915.132	4116
915.245	4150
915.358	4200
915.47	4253
915.583	4257
915.696	4310
915.809	4432
915.921	4443
916.034	4246
916.146	4234
916.259	4181
916.371	4436
916.483	4394
916.595	4246
916.708	4249
916.82	4329
916.932	4341
917.044	4337
917.156	4325
917.268	4188
917.38	4284
917.491	4238
917.603	4333
917.715	4405
917.826	4481
917.938	4348
918.049	4219
918.161	4405
918.272	4531
918.384	4493
918.495	4440
918.606	4341
918.717	4227
918.828	4333
918.939	4375
919.05	4261
919.161	4253
919.272	4112
919.383	4253
919.494	4470
919.604	4577
919.715	4417
919.826	4375
919.936	4375
920.047	4516
920.157	4481
920.267	4687
920.378	4538
920.488	4489
920.598	4687
920.708	4858
920.818	4721
920.928	4698
921.038	4976
921.148	4938
921.258	4546
921.368	4558
921.477	4493
921.587	4398
921.697	4352
921.806	4558
921.916	4432
922.025	4249
922.134	4223
922.244	4215
922.353	4333
922.462	4200
922.571	4116
922.68	3979
922.789	3983
922.898	4036
923.007	4010
923.116	4097
923.224	4044
923.333	4097
923.442	4025
923.55	3964
923.659	4006
923.767	4105
923.876	4002
923.984	4143
924.092	3960
924.201	4082
924.309	4154
924.417	4120
924.525	4036
924.633	4166
924.741	5041
924.849	3903
924.956	4131
925.064	3987
925.172	3892
925.279	3968
925.387	4025
925.494	4044
925.602	4223
925.709	4196
925.816	4055
925.924	4128
926.031	4227
926.138	4169
926.245	4200
926.352	4071
926.459	4215
926.566	4329
926.673	4150
926.779	4097
926.886	4051
926.993	3926
927.099	3915
927.206	3964
927.312	3884
927.419	4078
927.525	4021
927.631	4078
927.737	3953
927.843	3964
927.95	3861
928.056	3945
928.162	4017
928.267	4063
928.373	4668
928.479	4120
928.585	3876
928.69	3979
928.796	4093
928.901	3953
929.007	3869
929.112	3994
929.218	4010
929.323	3956
929.428	3953
929.533	4112
929.638	3926
929.743	3991
929.848	4025
929.953	3953
930.058	3892
930.163	3785
930.267	3800
930.372	3979
930.477	3793
930.581	4105
930.685	3953
930.79	3873
930.894	3896
930.998	3865
931.103	4017
931.207	3701
931.311	3701
931.415	3679
931.519	3553
931.623	3511
