Data from test_V78500241_312.txt Node
Date: Fri Mar 25 16:51:10 CST 2022
User: usil
Spectrometer: V785-0024
Trigger mode: 0
Integration Time (sec): 4.000000E-1
Scans to average: 1
Nonlinearity correction enabled: false
Boxcar width: 0
Storing dark spectrum: false
XAxis mode: Wavelengths
Number of Pixels in Spectrum: 1024
>>>>>Begin Spectral Data<<<<<
801.071	8157
801.214	8092
801.356	7917
801.499	7814
801.641	7822
801.783	7864
801.926	8039
802.068	8035
802.211	8012
802.353	8077
802.496	7890
802.638	7951
802.78	7986
802.923	7955
803.065	7871
803.208	7913
803.35	7963
803.492	8035
803.635	8168
803.777	8005
803.919	8126
804.061	8381
804.204	8161
804.346	8153
804.488	8016
804.63	8202
804.773	8058
804.915	8107
805.057	8267
805.199	8187
805.341	8256
805.483	8328
805.626	8164
805.768	8111
805.91	8138
806.052	8218
806.194	8126
806.336	8343
806.478	8123
806.62	8153
806.762	8221
806.904	8267
807.046	8492
807.188	8434
807.33	8320
807.472	8332
807.614	8183
807.756	8119
807.898	8027
808.04	7909
808.182	7902
808.324	7940
808.465	7986
808.607	8103
808.749	8168
808.891	8157
809.033	8313
809.174	8195
809.316	7997
809.458	8027
809.6	8020
809.741	8065
809.883	8001
810.025	8119
810.166	8058
810.308	8016
810.45	7986
810.591	7860
810.733	7811
810.875	7704
811.016	7502
811.158	7514
811.299	7616
811.441	7731
811.582	7719
811.724	7628
811.865	7575
812.007	7674
812.148	7624
812.29	7609
812.431	7746
812.573	7902
812.714	7978
812.855	8069
812.997	8149
813.138	8267
813.279	8206
813.421	8176
813.562	8012
813.703	7875
813.845	7868
813.986	7392
814.127	7278
814.268	7308
814.41	7244
814.551	7171
814.692	7225
814.833	7099
814.974	7042
815.115	7149
815.256	6970
815.397	6985
815.539	6989
815.68	6878
815.821	6878
815.962	6897
816.103	6806
816.244	6764
816.385	6650
816.526	6662
816.666	6574
816.807	6315
816.948	6437
817.089	6528
817.23	6418
817.371	6407
817.512	6403
817.653	6410
817.793	6391
817.934	6441
818.075	6502
818.216	6517
818.356	6422
818.497	6289
818.638	6144
818.778	6163
818.919	6175
819.06	6152
819.2	6304
819.341	6350
819.481	6353
819.622	6589
819.762	6768
819.903	6715
820.043	6604
820.184	6559
820.324	6589
820.465	6715
820.605	6631
820.746	6631
820.886	6532
821.026	6734
821.167	6734
821.307	6878
821.447	6821
821.588	6700
821.728	6623
821.868	6517
822.008	6346
822.149	6433
822.289	6391
822.429	6155
822.569	6087
822.709	6140
822.849	5973
822.99	5965
823.13	5901
823.27	5901
823.41	5844
823.55	5813
823.69	5821
823.83	5821
823.97	5707
824.11	5577
824.25	5532
824.389	5592
824.529	5604
824.669	5535
824.809	5703
824.949	5638
825.089	5592
825.228	5566
825.368	5421
825.508	5387
825.648	5398
825.787	5406
825.927	5379
826.067	5368
826.206	5303
826.346	5436
826.485	5440
826.625	5459
826.765	5554
826.904	5490
827.044	5258
827.183	5235
827.323	5128
827.462	5258
827.601	5178
827.741	5197
827.88	5227
828.02	5079
828.159	5223
828.298	5280
828.437	5398
828.577	5330
828.716	5520
828.855	5345
828.994	5159
829.134	5147
829.273	5239
829.412	5159
829.551	5174
829.69	5140
829.829	5254
829.968	5383
830.107	5231
830.246	5303
830.385	5242
830.524	5136
830.663	5083
830.802	4976
830.941	4911
831.08	4938
831.219	4984
831.357	4957
831.496	5174
831.635	4930
831.774	4885
831.913	4919
832.051	4744
832.19	4767
832.329	4843
832.467	4706
832.606	4634
832.744	4729
832.883	4736
833.022	4714
833.16	4854
833.299	4854
833.437	4858
833.576	4812
833.714	4850
833.852	4870
833.991	4896
834.129	4949
834.267	4976
834.406	4930
834.544	4984
834.682	4999
834.821	4995
834.959	5140
835.097	4953
835.235	5174
835.373	5083
835.511	5067
835.65	5060
835.788	5056
835.926	4919
836.064	4892
836.202	4908
836.34	5166
836.478	5223
836.615	5086
836.753	5235
836.891	5277
837.029	5258
837.167	5220
837.305	5201
837.443	5128
837.58	5094
837.718	5246
837.856	5239
837.993	5166
838.131	5185
838.269	5258
838.406	5277
838.544	5223
838.681	5102
838.819	4995
838.956	4980
839.094	4938
839.231	5003
839.369	5098
839.506	5463
839.643	5303
839.781	5117
839.918	5086
840.055	5128
840.193	5151
840.33	5159
840.467	5181
840.604	5185
840.742	5410
840.879	5113
841.016	5128
841.153	5201
841.29	5406
841.427	5311
841.564	5315
841.701	5387
841.838	5273
841.975	5254
842.112	5292
842.249	5113
842.385	5090
842.522	5318
842.659	5216
842.796	5159
842.933	5204
843.069	5197
843.206	5178
843.343	5296
843.479	5254
843.616	5231
843.752	5048
843.889	5075
844.025	5193
844.162	5041
844.298	5212
844.435	5105
844.571	5075
844.708	5181
844.844	5307
844.98	5330
845.117	5315
845.253	5189
845.389	5094
845.525	5166
845.661	5166
845.798	5075
845.934	5098
846.07	5117
846.206	5208
846.342	5246
846.478	5208
846.614	5056
846.75	4961
846.886	4961
847.022	5132
847.158	5018
847.294	5079
847.429	5067
847.565	5086
847.701	5307
847.837	4877
847.972	4866
848.108	4953
848.244	4915
848.379	4793
848.515	4736
848.65	4714
848.786	4771
848.921	4812
849.057	4843
849.192	4892
849.328	4889
849.463	4862
849.598	4752
849.734	4752
849.869	4675
850.004	4656
850.14	4675
850.275	4592
850.41	4565
850.545	4580
850.68	4630
850.815	4660
850.95	4645
851.085	4831
851.22	4763
851.355	4710
851.49	4634
851.625	4656
851.76	4641
851.895	4554
852.03	4561
852.165	4664
852.299	4786
852.434	4778
852.569	4733
852.703	4809
852.838	4866
852.973	4972
853.107	4908
853.242	4748
853.376	4653
853.511	4573
853.645	4584
853.78	4771
853.914	4691
854.048	4694
854.183	4664
854.317	4752
854.451	4858
854.585	4679
854.72	4653
854.854	4740
854.988	4630
855.122	4641
855.256	4542
855.39	4694
855.524	4778
855.658	4702
855.792	4698
855.926	4725
856.06	4843
856.194	4778
856.327	4691
856.461	4607
856.595	4622
856.729	4626
856.862	4755
856.996	4717
857.13	4767
857.263	4771
857.397	4866
857.53	4717
857.664	4778
857.797	4774
857.931	4774
858.064	4679
858.197	4797
858.331	4691
858.464	4577
858.597	4538
858.731	4649
858.864	4664
858.997	4618
859.13	4653
859.263	4679
859.396	4717
859.529	4622
859.662	4569
859.795	4535
859.928	4599
860.061	4763
860.194	4763
860.327	4573
860.46	4599
860.592	4755
860.725	4774
860.858	4721
860.99	4565
861.123	4565
861.256	4485
861.388	4626
861.521	5284
861.653	4504
861.786	4409
861.918	4394
862.05	4535
862.183	4565
862.315	4538
862.447	4664
862.58	4592
862.712	4371
862.844	4329
862.976	4470
863.108	4512
863.24	4854
863.372	4360
863.504	4409
863.636	4398
863.768	4451
863.9	4402
864.032	4379
864.164	4459
864.296	4443
864.428	4588
864.559	4554
864.691	4584
864.823	4573
864.954	4497
865.086	4508
865.217	4500
865.349	4447
865.48	4432
865.612	4497
865.743	4637
865.875	4466
866.006	4405
866.137	4459
866.269	4409
866.4	4405
866.531	4470
866.662	4398
866.793	4383
866.924	4432
867.055	4504
867.186	4493
867.317	4451
867.448	4413
867.579	4356
867.71	4402
867.841	4348
867.972	4462
868.103	4470
868.233	4474
868.364	4428
868.495	4485
868.625	4679
868.756	4782
868.886	4588
869.017	4653
869.147	4759
869.278	4744
869.408	4668
869.539	4653
869.669	4717
869.799	4683
869.929	4786
870.06	4755
870.19	4930
870.32	4919
870.45	4972
870.58	4995
870.71	5071
870.84	5090
870.97	4972
871.1	4915
871.23	5143
871.36	5140
871.489	5022
871.619	5079
871.749	5090
871.879	5113
872.008	5227
872.138	5033
872.267	5029
872.397	4885
872.526	4809
872.656	4729
872.785	4820
872.915	4934
873.044	5067
873.173	4927
873.303	5041
873.432	4976
873.561	4976
873.69	4911
873.819	4885
873.948	4934
874.077	4847
874.206	4801
874.335	4782
874.464	4953
874.593	5033
874.722	4976
874.851	5109
874.979	5056
875.108	5029
875.237	4915
875.365	4915
875.494	4866
875.623	4999
875.751	4824
875.88	4908
876.008	4980
876.136	5014
876.265	5261
876.393	5360
876.521	5227
876.65	5220
876.778	5132
876.906	5029
877.034	5033
877.162	5079
877.29	4980
877.418	5079
877.546	5048
877.674	5079
877.802	5056
877.93	5037
878.058	4961
878.185	4889
878.313	4942
878.441	4934
878.568	4809
878.696	4908
878.824	4953
878.951	4946
879.079	5124
879.206	5250
879.333	5102
879.461	5018
879.588	5025
879.715	5067
879.842	5185
879.97	5048
880.097	4793
880.224	4755
880.351	4805
880.478	4820
880.605	4809
880.732	4801
880.859	5064
880.986	4919
881.112	4957
881.239	4797
881.366	4721
881.493	4588
881.619	4592
881.746	4626
881.872	4683
881.999	4687
882.125	4691
882.252	4740
882.378	4850
882.505	4999
882.631	4839
882.757	4675
882.883	4706
883.01	4759
883.136	4691
883.262	4622
883.388	4668
883.514	4858
883.64	4873
883.766	4805
883.892	4668
884.018	4725
884.143	4911
884.269	5056
884.395	4691
884.52	4637
884.646	4634
884.772	4596
884.897	4558
885.023	4675
885.148	4797
885.274	4870
885.399	4824
885.524	4778
885.65	4759
885.775	4736
885.9	4729
886.025	4896
886.15	4771
886.275	4694
886.4	4698
886.525	4744
886.65	4668
886.775	4752
886.9	4927
887.025	5109
887.149	4839
887.274	4603
887.399	4599
887.523	4607
887.648	4599
887.773	4523
887.897	4782
888.021	4797
888.146	4656
888.27	4801
888.395	4900
888.519	4858
888.643	4793
888.767	4831
888.891	4729
889.015	4603
889.139	4630
889.263	4630
889.387	4778
889.511	4942
889.635	4797
889.759	4649
889.883	4645
890.006	4778
890.13	4831
890.254	4626
890.377	4615
890.501	4596
890.624	4573
890.748	4611
890.871	4542
890.995	4466
891.118	4421
891.241	4497
891.364	4516
891.488	4679
891.611	4481
891.734	4527
891.857	4641
891.98	4550
892.103	4683
892.226	4626
892.349	4580
892.471	4440
892.594	4489
892.717	4649
892.839	4603
892.962	4592
893.085	4645
893.207	4626
893.33	4466
893.452	4519
893.575	4679
893.697	4577
893.819	4812
893.941	4828
894.064	4736
894.186	4592
894.308	4569
894.43	4755
894.552	4824
894.674	4755
894.796	4599
894.918	4577
895.04	4603
895.161	4672
895.283	4645
895.405	4599
895.526	4645
895.648	4691
895.769	4725
895.891	4683
896.012	4721
896.134	4725
896.255	4630
896.376	4649
896.498	4618
896.619	4664
896.74	4626
896.861	4683
896.982	4957
897.103	5025
897.224	4820
897.345	4767
897.466	4706
897.587	4774
897.708	4885
897.828	4793
897.949	4641
898.07	4584
898.19	4634
898.311	4820
898.431	4721
898.552	4679
898.672	4755
898.792	4820
898.913	4771
899.033	4622
899.153	4508
899.273	4455
899.393	4512
899.513	4516
899.633	4546
899.753	4542
899.873	4535
899.993	4588
900.113	4531
900.232	4531
900.352	4554
900.472	4519
900.591	4443
900.711	4519
900.83	4485
900.95	4645
901.069	4660
901.189	4569
901.308	4398
901.427	4341
901.546	4352
901.665	4428
901.784	4493
901.904	4383
902.023	4360
902.141	4177
902.26	4188
902.379	4322
902.498	4215
902.617	4219
902.735	4379
902.854	4409
902.973	4363
903.091	4230
903.21	4238
903.328	4291
903.446	4295
903.565	4238
903.683	4367
903.801	4257
903.919	4428
904.038	4421
904.156	4287
904.274	4443
904.392	4367
904.51	4409
904.627	4462
904.745	4558
904.863	4634
904.981	4405
905.098	4333
905.216	4348
905.334	4424
905.451	4428
905.569	4428
905.686	4565
905.803	4535
905.921	4417
906.038	4573
906.155	4489
906.272	4428
906.389	4428
906.506	4341
906.623	4375
906.74	4405
906.857	4341
906.974	4371
907.091	4580
907.208	4653
907.324	4592
907.441	4428
907.557	4375
907.674	4398
907.79	4295
907.907	4398
908.023	4500
908.139	4459
908.256	4405
908.372	4470
908.488	4470
908.604	4348
908.72	4322
908.836	4344
908.952	4367
909.068	4443
909.184	4561
909.3	4489
909.415	4599
909.531	4558
909.647	4371
909.762	4398
909.878	4352
909.993	4428
910.108	4398
910.224	4409
910.339	4451
910.454	4432
910.57	4367
910.685	4325
910.8	4675
910.915	4615
911.03	4508
911.145	4341
911.259	4341
911.374	4386
911.489	4306
911.604	4318
911.718	4185
911.833	4215
911.947	4101
912.062	4063
912.176	4173
912.291	4280
912.405	4272
912.519	4508
912.633	4500
912.748	4386
912.862	4322
912.976	4200
913.09	4101
913.204	4169
913.318	4249
913.431	4405
913.545	4386
913.659	4455
913.772	4383
913.886	4246
914	4265
914.113	4386
914.226	4440
914.34	4409
914.453	4238
914.566	4398
914.68	4322
914.793	4284
914.906	4177
915.019	4154
915.132	4078
915.245	4188
915.358	4265
915.47	4257
915.583	4322
915.696	4253
915.809	4405
915.921	4413
916.034	4253
916.146	4268
916.259	4265
916.371	4367
916.483	4394
916.595	4246
916.708	4325
916.82	4383
916.932	4295
917.044	4291
917.156	4363
917.268	4261
917.38	4265
917.491	4261
917.603	4325
917.715	4440
917.826	4459
917.938	4386
918.049	4299
918.161	4421
918.272	4592
918.384	4523
918.495	4409
918.606	4276
918.717	4238
918.828	4337
918.939	4417
919.05	4211
919.161	4348
919.272	4162
919.383	4268
919.494	4432
919.604	4645
919.715	4489
919.826	4352
919.936	4470
920.047	4546
920.157	4497
920.267	4702
920.378	4527
920.488	4500
920.598	4706
920.708	4866
920.818	4736
920.928	4782
921.038	4991
921.148	4885
921.258	4668
921.368	4554
921.477	4497
921.587	4402
921.697	4371
921.806	4523
921.916	4402
922.025	4303
922.134	4306
922.244	4219
922.353	4329
922.462	4166
922.571	4112
922.68	4006
922.789	3983
922.898	4067
923.007	4010
923.116	4063
923.224	4074
923.333	4090
923.442	4013
923.55	3991
923.659	3975
923.767	4120
923.876	4025
923.984	4116
924.092	3983
924.201	4017
924.309	4082
924.417	4166
924.525	4036
924.633	4116
924.741	4847
924.849	3926
924.956	4173
925.064	4021
925.172	3956
925.279	3987
925.387	4078
925.494	4067
925.602	4261
925.709	4181
925.816	4055
925.924	4131
926.031	4204
926.138	4207
926.245	4200
926.352	4082
926.459	4227
926.566	4276
926.673	4185
926.779	4074
926.886	4078
926.993	3987
927.099	3987
927.206	3949
927.312	3922
927.419	4063
927.525	4048
927.631	4147
927.737	3949
927.843	3949
927.95	3857
928.056	3953
928.162	3941
928.267	4055
928.373	4717
928.479	4135
928.585	3842
928.69	4010
928.796	4128
928.901	3956
929.007	3850
929.112	4010
929.218	3975
929.323	3964
929.428	3953
929.533	4158
929.638	3964
929.743	3991
929.848	4044
929.953	3983
930.058	3937
930.163	3808
930.267	3819
930.372	3945
930.477	3808
930.581	4109
930.685	3937
930.79	3819
930.894	3899
930.998	3812
931.103	4059
931.207	3705
931.311	3709
931.415	3686
931.519	3530
931.623	3564
