Data from test_V78500241_2069.txt Node
Date: Fri Mar 25 17:03:23 CST 2022
User: usil
Spectrometer: V785-0024
Trigger mode: 0
Integration Time (sec): 4.000000E-1
Scans to average: 1
Nonlinearity correction enabled: false
Boxcar width: 0
Storing dark spectrum: false
XAxis mode: Wavelengths
Number of Pixels in Spectrum: 1024
>>>>>Begin Spectral Data<<<<<
801.071	7993
801.214	8027
801.356	7792
801.499	7772
801.641	7780
801.783	7818
801.926	7928
802.068	7944
802.211	8001
802.353	7974
802.496	7879
802.638	7856
802.78	7860
802.923	7864
803.065	7875
803.208	7860
803.35	7967
803.492	8039
803.635	8195
803.777	8008
803.919	8126
804.061	8393
804.204	8115
804.346	8020
804.488	7909
804.63	8111
804.773	8024
804.915	8058
805.057	8282
805.199	8126
805.341	8187
805.483	8229
805.626	8259
805.768	8069
805.91	8218
806.052	8229
806.194	8088
806.336	8290
806.478	8123
806.62	8062
806.762	8176
806.904	8282
807.046	8469
807.188	8366
807.33	8309
807.472	8336
807.614	8145
807.756	8096
807.898	7940
808.04	7849
808.182	7860
808.324	7898
808.465	7841
808.607	8100
808.749	8183
808.891	8214
809.033	8358
809.174	8180
809.316	8092
809.458	8027
809.6	7913
809.741	8027
809.883	8016
810.025	8043
810.166	7989
810.308	8008
810.45	7951
810.591	7856
810.733	7734
810.875	7620
811.016	7556
811.158	7441
811.299	7575
811.441	7715
811.582	7647
811.724	7586
811.865	7533
812.007	7605
812.148	7559
812.29	7563
812.431	7799
812.573	7909
812.714	7986
812.855	8058
812.997	8149
813.138	8244
813.279	8107
813.421	7974
813.562	7989
813.703	7818
813.845	7715
813.986	7422
814.127	7217
814.268	7225
814.41	7190
814.551	7179
814.692	7247
814.833	7057
814.974	7118
815.115	7156
815.256	7004
815.397	6897
815.539	6913
815.68	6734
815.821	6738
815.962	6818
816.103	6818
816.244	6719
816.385	6559
816.526	6681
816.666	6486
816.807	6273
816.948	6399
817.089	6456
817.23	6403
817.371	6353
817.512	6353
817.653	6391
817.793	6353
817.934	6433
818.075	6426
818.216	6448
818.356	6399
818.497	6266
818.638	6106
818.778	6152
818.919	6152
819.06	6091
819.2	6300
819.341	6300
819.481	6361
819.622	6502
819.762	6726
819.903	6749
820.043	6635
820.184	6536
820.324	6544
820.465	6662
820.605	6665
820.746	6563
820.886	6502
821.026	6700
821.167	6703
821.307	6795
821.447	6760
821.588	6654
821.728	6521
821.868	6467
822.008	6270
822.149	6361
822.289	6376
822.429	6121
822.569	6125
822.709	6114
822.849	5935
822.99	5870
823.13	5939
823.27	5965
823.41	5779
823.55	5840
823.69	5809
823.83	5790
823.97	5665
824.11	5493
824.25	5497
824.389	5547
824.529	5577
824.669	5551
824.809	5585
824.949	5691
825.089	5577
825.228	5566
825.368	5337
825.508	5330
825.648	5311
825.787	5379
825.927	5349
826.067	5326
826.206	5311
826.346	5349
826.485	5391
826.625	5387
826.765	5570
826.904	5532
827.044	5258
827.183	5239
827.323	5132
827.462	5227
827.601	5143
827.741	5208
827.88	5151
828.02	5124
828.159	5189
828.298	5284
828.437	5330
828.577	5273
828.716	5429
828.855	5368
828.994	5162
829.134	5178
829.273	5174
829.412	5136
829.551	5094
829.69	5136
829.829	5250
829.968	5368
830.107	5265
830.246	5288
830.385	5170
830.524	5124
830.663	5064
830.802	4999
830.941	4862
831.08	4923
831.219	4995
831.357	4949
831.496	5151
831.635	4911
831.774	4850
831.913	4820
832.051	4717
832.19	4771
832.329	4828
832.467	4668
832.606	4592
832.744	4752
832.883	4702
833.022	4675
833.16	4824
833.299	4797
833.437	4793
833.576	4866
833.714	4885
833.852	4850
833.991	4934
834.129	4942
834.267	4877
834.406	4839
834.544	4995
834.682	4995
834.821	4976
834.959	5170
835.097	4930
835.235	5178
835.373	5079
835.511	5071
835.65	4991
835.788	5033
835.926	4915
836.064	4889
836.202	4889
836.34	5159
836.478	5231
836.615	5174
836.753	5242
836.891	5292
837.029	5242
837.167	5170
837.305	5140
837.443	5140
837.58	5033
837.718	5292
837.856	5159
837.993	5174
838.131	5235
838.269	5162
838.406	5174
838.544	5185
838.681	4987
838.819	4889
838.956	4870
839.094	4938
839.231	4934
839.369	5014
839.506	5486
839.643	5277
839.781	5022
839.918	5067
840.055	5109
840.193	5086
840.33	5124
840.467	5079
840.604	5181
840.742	5429
840.879	5079
841.016	5086
841.153	5132
841.29	5376
841.427	5357
841.564	5326
841.701	5341
841.838	5261
841.975	5223
842.112	5265
842.249	5159
842.385	5098
842.522	5334
842.659	5136
842.796	5105
842.933	5166
843.069	5113
843.206	5155
843.343	5273
843.479	5250
843.616	5261
843.752	4968
843.889	5010
844.025	5178
844.162	4991
844.298	5216
844.435	5121
844.571	5003
844.708	5159
844.844	5273
844.98	5311
845.117	5318
845.253	5094
845.389	5067
845.525	5201
845.661	5109
845.798	5029
845.934	5155
846.07	5048
846.206	5254
846.342	5227
846.478	5162
846.614	5033
846.75	4957
846.886	4896
847.022	5136
847.158	4987
847.294	5064
847.429	5098
847.565	5075
847.701	5345
847.837	4839
847.972	4793
848.108	4972
848.244	4953
848.379	4752
848.515	4721
848.65	4702
848.786	4729
848.921	4790
849.057	4854
849.192	4892
849.328	4824
849.463	4858
849.598	4835
849.734	4782
849.869	4664
850.004	4626
850.14	4687
850.275	4634
850.41	4554
850.545	4550
850.68	4615
850.815	4588
850.95	4577
851.085	4892
851.22	4740
851.355	4634
851.49	4615
851.625	4653
851.76	4664
851.895	4565
852.03	4531
852.165	4679
852.299	4653
852.434	4816
852.569	4790
852.703	4771
852.838	4862
852.973	4919
853.107	4908
853.242	4740
853.376	4694
853.511	4561
853.645	4611
853.78	4801
853.914	4691
854.048	4691
854.183	4615
854.317	4660
854.451	4816
854.585	4698
854.72	4656
854.854	4755
854.988	4546
855.122	4653
855.256	4516
855.39	4649
855.524	4755
855.658	4729
855.792	4694
855.926	4687
856.06	4752
856.194	4793
856.327	4672
856.461	4622
856.595	4615
856.729	4618
856.862	4786
856.996	4721
857.13	4725
857.263	4767
857.397	4771
857.53	4641
857.664	4672
857.797	4767
857.931	4790
858.064	4660
858.197	4733
858.331	4656
858.464	4622
858.597	4485
858.731	4672
858.864	4691
858.997	4584
859.13	4660
859.263	4679
859.396	4672
859.529	4561
859.662	4599
859.795	4550
859.928	4645
860.061	4729
860.194	4782
860.327	4607
860.46	4535
860.592	4679
860.725	4641
860.858	4774
860.99	4599
861.123	4535
861.256	4550
861.388	4645
861.521	5318
861.653	4466
861.786	4459
861.918	4485
862.05	4508
862.183	4611
862.315	4577
862.447	4641
862.58	4519
862.712	4394
862.844	4299
862.976	4489
863.108	4455
863.24	4744
863.372	4322
863.504	4379
863.636	4402
863.768	4481
863.9	4424
864.032	4356
864.164	4424
864.296	4447
864.428	4558
864.559	4580
864.691	4516
864.823	4497
864.954	4489
865.086	4538
865.217	4470
865.349	4383
865.48	4466
865.612	4523
865.743	4607
865.875	4462
866.006	4428
866.137	4493
866.269	4440
866.4	4390
866.531	4455
866.662	4363
866.793	4409
866.924	4402
867.055	4470
867.186	4440
867.317	4402
867.448	4363
867.579	4409
867.71	4409
867.841	4348
867.972	4413
868.103	4459
868.233	4474
868.364	4424
868.495	4519
868.625	4626
868.756	4752
868.886	4573
869.017	4622
869.147	4824
869.278	4793
869.408	4637
869.539	4607
869.669	4710
869.799	4641
869.929	4774
870.06	4763
870.19	4953
870.32	4930
870.45	4885
870.58	5006
870.71	5102
870.84	5067
870.97	4953
871.1	4946
871.23	5109
871.36	5159
871.489	5006
871.619	5045
871.749	5037
871.879	5155
872.008	5166
872.138	5075
872.267	5025
872.397	4850
872.526	4831
872.656	4759
872.785	4763
872.915	4991
873.044	5064
873.173	4949
873.303	4946
873.432	4934
873.561	4946
873.69	4858
873.819	4889
873.948	4942
874.077	4820
874.206	4717
874.335	4755
874.464	4942
874.593	5071
874.722	4911
874.851	5090
874.979	5006
875.108	5048
875.237	4934
875.365	4881
875.494	4873
875.623	5022
875.751	4843
875.88	4900
876.008	5029
876.136	5029
876.265	5189
876.393	5337
876.521	5208
876.65	5227
876.778	5128
876.906	5094
877.034	5037
877.162	5083
877.29	4976
877.418	5064
877.546	5060
877.674	5045
877.802	5048
877.93	4987
878.058	4911
878.185	4854
878.313	4923
878.441	4942
878.568	4809
878.696	4881
878.824	4930
878.951	5014
879.079	5132
879.206	5303
879.333	5079
879.461	4953
879.588	4999
879.715	5117
879.842	5216
879.97	5067
880.097	4767
880.224	4714
880.351	4805
880.478	4824
880.605	4820
880.732	4752
880.859	5048
880.986	4911
881.112	4896
881.239	4744
881.366	4607
881.493	4573
881.619	4596
881.746	4596
881.872	4622
881.999	4679
882.125	4668
882.252	4812
882.378	4805
882.505	4987
882.631	4835
882.757	4672
882.883	4714
883.01	4729
883.136	4649
883.262	4615
883.388	4592
883.514	4736
883.64	4866
883.766	4755
883.892	4706
884.018	4759
884.143	4892
884.269	5010
884.395	4668
884.52	4611
884.646	4592
884.772	4580
884.897	4531
885.023	4694
885.148	4786
885.274	4930
885.399	4786
885.524	4710
885.65	4687
885.775	4755
885.9	4717
886.025	4812
886.15	4809
886.275	4725
886.4	4634
886.525	4706
886.65	4679
886.775	4672
886.9	4877
887.025	5045
887.149	4797
887.274	4675
887.399	4584
887.523	4577
887.648	4596
887.773	4554
887.897	4774
888.021	4748
888.146	4668
888.27	4778
888.395	4904
888.519	4790
888.643	4782
888.767	4824
888.891	4687
889.015	4588
889.139	4618
889.263	4615
889.387	4694
889.511	4881
889.635	4801
889.759	4649
889.883	4634
890.006	4763
890.13	4824
890.254	4645
890.377	4683
890.501	4531
890.624	4466
890.748	4611
890.871	4489
890.995	4402
891.118	4417
891.241	4531
891.364	4546
891.488	4592
891.611	4516
891.734	4538
891.857	4573
891.98	4580
892.103	4664
892.226	4584
892.349	4497
892.471	4409
892.594	4592
892.717	4588
892.839	4622
892.962	4599
893.085	4615
893.207	4637
893.33	4436
893.452	4531
893.575	4668
893.697	4580
893.819	4740
893.941	4820
894.064	4763
894.186	4603
894.308	4535
894.43	4725
894.552	4854
894.674	4790
894.796	4596
894.918	4588
895.04	4596
895.161	4702
895.283	4637
895.405	4622
895.526	4618
895.648	4687
895.769	4694
895.891	4710
896.012	4710
896.134	4710
896.255	4683
896.376	4664
896.498	4615
896.619	4694
896.74	4611
896.861	4668
896.982	4927
897.103	5056
897.224	4847
897.345	4729
897.466	4641
897.587	4763
897.708	4816
897.828	4752
897.949	4649
898.07	4542
898.19	4672
898.311	4873
898.431	4698
898.552	4702
898.672	4805
898.792	4774
898.913	4782
899.033	4634
899.153	4512
899.273	4455
899.393	4466
899.513	4481
899.633	4561
899.753	4550
899.873	4546
899.993	4607
900.113	4497
900.232	4611
900.352	4516
900.472	4519
900.591	4390
900.711	4493
900.83	4447
900.95	4645
901.069	4702
901.189	4569
901.308	4363
901.427	4322
901.546	4360
901.665	4481
901.784	4527
901.904	4390
902.023	4314
902.141	4181
902.26	4223
902.379	4318
902.498	4280
902.617	4246
902.735	4363
902.854	4394
902.973	4371
903.091	4211
903.21	4223
903.328	4280
903.446	4287
903.565	4249
903.683	4375
903.801	4291
903.919	4398
904.038	4413
904.156	4318
904.274	4390
904.392	4421
904.51	4470
904.627	4519
904.745	4584
904.863	4565
904.981	4394
905.098	4306
905.216	4390
905.334	4428
905.451	4409
905.569	4485
905.686	4554
905.803	4550
905.921	4375
906.038	4531
906.155	4497
906.272	4398
906.389	4462
906.506	4367
906.623	4394
906.74	4386
906.857	4303
906.974	4379
907.091	4561
907.208	4630
907.324	4531
907.441	4508
907.557	4333
907.674	4333
907.79	4337
907.907	4379
908.023	4493
908.139	4504
908.256	4413
908.372	4470
908.488	4485
908.604	4341
908.72	4268
908.836	4383
908.952	4379
909.068	4413
909.184	4569
909.3	4500
909.415	4599
909.531	4550
909.647	4360
909.762	4383
909.878	4325
909.993	4413
910.108	4421
910.224	4428
910.339	4481
910.454	4421
910.57	4402
910.685	4284
910.8	4626
910.915	4653
911.03	4478
911.145	4390
911.259	4310
911.374	4405
911.489	4261
911.604	4291
911.718	4200
911.833	4200
911.947	4109
912.062	4002
912.176	4223
912.291	4257
912.405	4291
912.519	4440
912.633	4493
912.748	4367
912.862	4329
912.976	4181
913.09	4128
913.204	4139
913.318	4257
913.431	4371
913.545	4367
913.659	4500
913.772	4379
913.886	4200
914	4295
914.113	4363
914.226	4440
914.34	4424
914.453	4230
914.566	4436
914.68	4337
914.793	4306
914.906	4200
915.019	4116
915.132	4071
915.245	4234
915.358	4253
915.47	4265
915.583	4265
915.696	4314
915.809	4352
915.921	4443
916.034	4188
916.146	4249
916.259	4230
916.371	4363
916.483	4348
916.595	4230
916.708	4352
916.82	4337
916.932	4344
917.044	4371
917.156	4333
917.268	4253
917.38	4299
917.491	4287
917.603	4367
917.715	4417
917.826	4440
917.938	4341
918.049	4246
918.161	4409
918.272	4512
918.384	4565
918.495	4462
918.606	4303
918.717	4257
918.828	4280
918.939	4383
919.05	4257
919.161	4375
919.272	4128
919.383	4204
919.494	4451
919.604	4645
919.715	4413
919.826	4356
919.936	4417
920.047	4538
920.157	4519
920.267	4736
920.378	4577
920.488	4466
920.598	4755
920.708	4889
920.818	4763
920.928	4786
921.038	4934
921.148	4919
921.258	4664
921.368	4592
921.477	4519
921.587	4462
921.697	4360
921.806	4565
921.916	4424
922.025	4284
922.134	4284
922.244	4257
922.353	4356
922.462	4211
922.571	4116
922.68	4013
922.789	3956
922.898	4048
923.007	4040
923.116	4120
923.224	4074
923.333	4101
923.442	4025
923.55	4013
923.659	4067
923.767	4116
923.876	4021
923.984	4109
924.092	3975
924.201	4112
924.309	4162
924.417	4166
924.525	4097
924.633	4112
924.741	5064
924.849	3983
924.956	4200
925.064	3960
925.172	3934
925.279	3983
925.387	4109
925.494	4074
925.602	4234
925.709	4230
925.816	4097
925.924	4135
926.031	4215
926.138	4158
926.245	4227
926.352	4097
926.459	4246
926.566	4322
926.673	4135
926.779	4093
926.886	4120
926.993	4025
927.099	3975
927.206	3934
927.312	3964
927.419	4051
927.525	4036
927.631	4090
927.737	3968
927.843	3956
927.95	3842
928.056	3953
928.162	3991
928.267	4071
928.373	4596
928.479	4196
928.585	3918
928.69	4010
928.796	4059
928.901	3991
929.007	3846
929.112	4013
929.218	3964
929.323	3960
929.428	3991
929.533	4082
929.638	3911
929.743	3979
929.848	4055
929.953	4036
930.058	3926
930.163	3781
930.267	3850
930.372	3987
930.477	3831
930.581	4124
930.685	4017
930.79	3797
930.894	3888
930.998	3892
931.103	4048
931.207	3740
931.311	3732
931.415	3663
931.519	3530
931.623	3572
