Data from test_V78500241_1804.txt Node
Date: Fri Mar 25 17:01:32 CST 2022
User: usil
Spectrometer: V785-0024
Trigger mode: 0
Integration Time (sec): 4.000000E-1
Scans to average: 1
Nonlinearity correction enabled: false
Boxcar width: 0
Storing dark spectrum: false
XAxis mode: Wavelengths
Number of Pixels in Spectrum: 1024
>>>>>Begin Spectral Data<<<<<
801.071	7993
801.214	7947
801.356	7845
801.499	7925
801.641	7753
801.783	7883
801.926	7940
802.068	7902
802.211	7932
802.353	8024
802.496	7807
802.638	7837
802.78	7909
802.923	7864
803.065	7830
803.208	7818
803.35	7959
803.492	8024
803.635	8157
803.777	7997
803.919	8046
804.061	8465
804.204	8191
804.346	8084
804.488	7921
804.63	8039
804.773	8050
804.915	8123
805.057	8259
805.199	8138
805.341	8305
805.483	8183
805.626	8161
805.768	8119
805.91	8191
806.052	8187
806.194	8069
806.336	8237
806.478	8065
806.62	8046
806.762	8081
806.904	8256
807.046	8454
807.188	8370
807.33	8339
807.472	8313
807.614	8233
807.756	8199
807.898	7963
808.04	7928
808.182	7875
808.324	7845
808.465	7997
808.607	8046
808.749	8119
808.891	8221
809.033	8305
809.174	8218
809.316	8043
809.458	8054
809.6	7986
809.741	8016
809.883	8035
810.025	8161
810.166	8126
810.308	8065
810.45	7993
810.591	7830
810.733	7727
810.875	7693
811.016	7453
811.158	7476
811.299	7544
811.441	7712
811.582	7628
811.724	7552
811.865	7525
812.007	7548
812.148	7552
812.29	7597
812.431	7742
812.573	7868
812.714	7959
812.855	8176
812.997	8145
813.138	8191
813.279	8142
813.421	8081
813.562	7951
813.703	7826
813.845	7719
813.986	7506
814.127	7251
814.268	7206
814.41	7145
814.551	7145
814.692	7206
814.833	7069
814.974	7118
815.115	7118
815.256	6947
815.397	6920
815.539	6947
815.68	6810
815.821	6798
815.962	6779
816.103	6764
816.244	6677
816.385	6544
816.526	6589
816.666	6502
816.807	6292
816.948	6441
817.089	6479
817.23	6464
817.371	6365
817.512	6407
817.653	6296
817.793	6346
817.934	6426
818.075	6452
818.216	6422
818.356	6414
818.497	6243
818.638	6098
818.778	6144
818.919	6152
819.06	6144
819.2	6273
819.341	6376
819.481	6361
819.622	6540
819.762	6700
819.903	6673
820.043	6597
820.184	6585
820.324	6585
820.465	6673
820.605	6639
820.746	6684
820.886	6566
821.026	6673
821.167	6681
821.307	6764
821.447	6703
821.588	6677
821.728	6563
821.868	6429
822.008	6327
822.149	6346
822.289	6353
822.429	6220
822.569	6091
822.709	6038
822.849	5939
822.99	5916
823.13	5904
823.27	5897
823.41	5745
823.55	5767
823.69	5790
823.83	5786
823.97	5680
824.11	5516
824.25	5524
824.389	5547
824.529	5589
824.669	5539
824.809	5657
824.949	5691
825.089	5577
825.228	5551
825.368	5402
825.508	5341
825.648	5330
825.787	5368
825.927	5337
826.067	5303
826.206	5337
826.346	5402
826.485	5402
826.625	5417
826.765	5532
826.904	5455
827.044	5277
827.183	5208
827.323	5121
827.462	5239
827.601	5159
827.741	5185
827.88	5239
828.02	5155
828.159	5216
828.298	5288
828.437	5364
828.577	5284
828.716	5486
828.855	5277
828.994	5136
829.134	5136
829.273	5235
829.412	5143
829.551	5162
829.69	5155
829.829	5242
829.968	5341
830.107	5250
830.246	5299
830.385	5136
830.524	5128
830.663	5052
830.802	4972
830.941	4889
831.08	4850
831.219	5045
831.357	5022
831.496	5117
831.635	4930
831.774	4835
831.913	4805
832.051	4694
832.19	4771
832.329	4812
832.467	4752
832.606	4626
832.744	4725
832.883	4675
833.022	4759
833.16	4778
833.299	4824
833.437	4850
833.576	4793
833.714	4847
833.852	4816
833.991	4870
834.129	4961
834.267	4892
834.406	4885
834.544	4961
834.682	4953
834.821	5003
834.959	5132
835.097	4953
835.235	5147
835.373	5056
835.511	5102
835.65	5014
835.788	5033
835.926	4839
836.064	4866
836.202	4900
836.34	5102
836.478	5220
836.615	5098
836.753	5181
836.891	5273
837.029	5204
837.167	5189
837.305	5174
837.443	5193
837.58	5064
837.718	5227
837.856	5155
837.993	5109
838.131	5288
838.269	5181
838.406	5204
838.544	5166
838.681	5045
838.819	4980
838.956	4889
839.094	4961
839.231	5022
839.369	5025
839.506	5440
839.643	5280
839.781	5014
839.918	5006
840.055	5052
840.193	5079
840.33	5117
840.467	5136
840.604	5140
840.742	5402
840.879	5079
841.016	5037
841.153	5159
841.29	5337
841.427	5372
841.564	5250
841.701	5379
841.838	5269
841.975	5269
842.112	5239
842.249	5170
842.385	5060
842.522	5296
842.659	5155
842.796	5147
842.933	5204
843.069	5102
843.206	5166
843.343	5250
843.479	5204
843.616	5231
843.752	5018
843.889	4999
844.025	5231
844.162	5006
844.298	5181
844.435	5033
844.571	5014
844.708	5208
844.844	5288
844.98	5337
845.117	5284
845.253	5151
845.389	5079
845.525	5178
845.661	5079
845.798	5014
845.934	5136
846.07	5083
846.206	5136
846.342	5284
846.478	5151
846.614	4987
846.75	4957
846.886	4915
847.022	5113
847.158	5064
847.294	4995
847.429	5048
847.565	5102
847.701	5318
847.837	4881
847.972	4790
848.108	4961
848.244	4927
848.379	4759
848.515	4744
848.65	4721
848.786	4668
848.921	4755
849.057	4896
849.192	4892
849.328	4782
849.463	4824
849.598	4790
849.734	4790
849.869	4664
850.004	4592
850.14	4694
850.275	4584
850.41	4550
850.545	4565
850.68	4542
850.815	4630
850.95	4630
851.085	4850
851.22	4748
851.355	4672
851.49	4618
851.625	4615
851.76	4664
851.895	4516
852.03	4577
852.165	4660
852.299	4733
852.434	4828
852.569	4744
852.703	4774
852.838	4850
852.973	4915
853.107	4930
853.242	4782
853.376	4649
853.511	4588
853.645	4637
853.78	4828
853.914	4634
854.048	4679
854.183	4626
854.317	4675
854.451	4809
854.585	4717
854.72	4626
854.854	4767
854.988	4634
855.122	4630
855.256	4489
855.39	4637
855.524	4778
855.658	4668
855.792	4702
855.926	4733
856.06	4790
856.194	4763
856.327	4664
856.461	4580
856.595	4668
856.729	4672
856.862	4755
856.996	4672
857.13	4698
857.263	4767
857.397	4809
857.53	4618
857.664	4729
857.797	4759
857.931	4774
858.064	4675
858.197	4702
858.331	4611
858.464	4607
858.597	4523
858.731	4618
858.864	4660
858.997	4607
859.13	4649
859.263	4687
859.396	4672
859.529	4558
859.662	4550
859.795	4508
859.928	4558
860.061	4752
860.194	4771
860.327	4584
860.46	4596
860.592	4740
860.725	4710
860.858	4679
860.99	4535
861.123	4538
861.256	4504
861.388	4596
861.521	5227
861.653	4474
861.786	4470
861.918	4447
862.05	4538
862.183	4538
862.315	4542
862.447	4679
862.58	4546
862.712	4394
862.844	4291
862.976	4470
863.108	4504
863.24	4892
863.372	4337
863.504	4432
863.636	4409
863.768	4493
863.9	4379
864.032	4284
864.164	4367
864.296	4481
864.428	4538
864.559	4508
864.691	4554
864.823	4535
864.954	4470
865.086	4470
865.217	4478
865.349	4443
865.48	4417
865.612	4497
865.743	4615
865.875	4485
866.006	4436
866.137	4436
866.269	4459
866.4	4417
866.531	4447
866.662	4409
866.793	4405
866.924	4440
867.055	4474
867.186	4474
867.317	4398
867.448	4375
867.579	4375
867.71	4386
867.841	4375
867.972	4432
868.103	4478
868.233	4466
868.364	4451
868.495	4451
868.625	4683
868.756	4786
868.886	4580
869.017	4584
869.147	4786
869.278	4736
869.408	4630
869.539	4656
869.669	4721
869.799	4683
869.929	4763
870.06	4755
870.19	4980
870.32	4900
870.45	4896
870.58	4984
870.71	5083
870.84	5090
870.97	4919
871.1	4854
871.23	5132
871.36	5170
871.489	5033
871.619	5048
871.749	5060
871.879	5140
872.008	5159
872.138	5090
872.267	4999
872.397	4885
872.526	4797
872.656	4706
872.785	4828
872.915	4942
873.044	5025
873.173	4934
873.303	4938
873.432	4946
873.561	4934
873.69	4870
873.819	4858
873.948	4850
874.077	4774
874.206	4714
874.335	4805
874.464	4938
874.593	5048
874.722	4946
874.851	5071
874.979	5064
875.108	5014
875.237	4915
875.365	4930
875.494	4877
875.623	4908
875.751	4847
875.88	4866
876.008	4930
876.136	5006
876.265	5197
876.393	5265
876.521	5265
876.65	5235
876.778	5178
876.906	5105
877.034	5056
877.162	5003
877.29	4972
877.418	5056
877.546	4995
877.674	5037
877.802	5025
877.93	4980
878.058	4957
878.185	4835
878.313	4915
878.441	4927
878.568	4793
878.696	4892
878.824	4984
878.951	4927
879.079	5105
879.206	5288
879.333	5124
879.461	4953
879.588	4984
879.715	5155
879.842	5239
879.97	4995
880.097	4759
880.224	4771
880.351	4824
880.478	4831
880.605	4805
880.732	4767
880.859	5086
880.986	4927
881.112	4870
881.239	4706
881.366	4664
881.493	4603
881.619	4634
881.746	4656
881.872	4691
881.999	4653
882.125	4687
882.252	4790
882.378	4831
882.505	4953
882.631	4805
882.757	4622
882.883	4656
883.01	4744
883.136	4653
883.262	4626
883.388	4569
883.514	4786
883.64	4835
883.766	4767
883.892	4653
884.018	4702
884.143	4911
884.269	4987
884.395	4683
884.52	4622
884.646	4611
884.772	4584
884.897	4542
885.023	4630
885.148	4714
885.274	4862
885.399	4801
885.524	4714
885.65	4752
885.775	4717
885.9	4729
886.025	4881
886.15	4786
886.275	4698
886.4	4691
886.525	4729
886.65	4687
886.775	4660
886.9	4885
887.025	5056
887.149	4801
887.274	4630
887.399	4618
887.523	4603
887.648	4596
887.773	4531
887.897	4736
888.021	4771
888.146	4744
888.27	4774
888.395	4908
888.519	4793
888.643	4858
888.767	4805
888.891	4641
889.015	4561
889.139	4672
889.263	4588
889.387	4733
889.511	4797
889.635	4786
889.759	4611
889.883	4630
890.006	4748
890.13	4866
890.254	4607
890.377	4702
890.501	4512
890.624	4535
890.748	4596
890.871	4512
890.995	4455
891.118	4352
891.241	4485
891.364	4554
891.488	4618
891.611	4466
891.734	4523
891.857	4637
891.98	4531
892.103	4607
892.226	4588
892.349	4497
892.471	4398
892.594	4580
892.717	4599
892.839	4554
892.962	4573
893.085	4622
893.207	4573
893.33	4493
893.452	4493
893.575	4706
893.697	4588
893.819	4801
893.941	4820
894.064	4782
894.186	4588
894.308	4592
894.43	4729
894.552	4809
894.674	4729
894.796	4508
894.918	4618
895.04	4588
895.161	4740
895.283	4683
895.405	4561
895.526	4679
895.648	4729
895.769	4691
895.891	4733
896.012	4748
896.134	4691
896.255	4660
896.376	4607
896.498	4596
896.619	4706
896.74	4573
896.861	4675
896.982	4892
897.103	5071
897.224	4805
897.345	4736
897.466	4702
897.587	4729
897.708	4866
897.828	4782
897.949	4645
898.07	4580
898.19	4653
898.311	4824
898.431	4668
898.552	4714
898.672	4748
898.792	4797
898.913	4748
899.033	4656
899.153	4508
899.273	4440
899.393	4523
899.513	4542
899.633	4512
899.753	4561
899.873	4508
899.993	4607
900.113	4527
900.232	4630
900.352	4512
900.472	4504
900.591	4383
900.711	4493
900.83	4474
900.95	4561
901.069	4615
901.189	4580
901.308	4344
901.427	4341
901.546	4367
901.665	4497
901.784	4523
901.904	4375
902.023	4310
902.141	4169
902.26	4166
902.379	4284
902.498	4253
902.617	4230
902.735	4352
902.854	4402
902.973	4352
903.091	4215
903.21	4253
903.328	4276
903.446	4272
903.565	4230
903.683	4318
903.801	4303
903.919	4386
904.038	4409
904.156	4333
904.274	4462
904.392	4398
904.51	4424
904.627	4455
904.745	4561
904.863	4592
904.981	4417
905.098	4280
905.216	4356
905.334	4451
905.451	4436
905.569	4402
905.686	4596
905.803	4611
905.921	4386
906.038	4561
906.155	4500
906.272	4371
906.389	4443
906.506	4299
906.623	4424
906.74	4390
906.857	4314
906.974	4360
907.091	4558
907.208	4714
907.324	4573
907.441	4455
907.557	4363
907.674	4360
907.79	4299
907.907	4383
908.023	4443
908.139	4440
908.256	4459
908.372	4409
908.488	4417
908.604	4409
908.72	4363
908.836	4379
908.952	4341
909.068	4375
909.184	4577
909.3	4474
909.415	4561
909.531	4554
909.647	4367
909.762	4341
909.878	4322
909.993	4443
910.108	4344
910.224	4367
910.339	4493
910.454	4421
910.57	4379
910.685	4291
910.8	4641
910.915	4603
911.03	4519
911.145	4291
911.259	4333
911.374	4333
911.489	4287
911.604	4284
911.718	4116
911.833	4215
911.947	4093
912.062	3994
912.176	4200
912.291	4230
912.405	4185
912.519	4424
912.633	4542
912.748	4371
912.862	4284
912.976	4211
913.09	4082
913.204	4158
913.318	4265
913.431	4341
913.545	4386
913.659	4432
913.772	4363
913.886	4284
914	4242
914.113	4383
914.226	4447
914.34	4390
914.453	4223
914.566	4459
914.68	4344
914.793	4291
914.906	4162
915.019	4124
915.132	4044
915.245	4166
915.358	4207
915.47	4280
915.583	4272
915.696	4287
915.809	4409
915.921	4436
916.034	4272
916.146	4249
916.259	4200
916.371	4352
916.483	4371
916.595	4276
916.708	4303
916.82	4310
916.932	4341
917.044	4344
917.156	4341
917.268	4211
917.38	4230
917.491	4261
917.603	4356
917.715	4386
917.826	4428
917.938	4379
918.049	4242
918.161	4379
918.272	4500
918.384	4531
918.495	4478
918.606	4325
918.717	4223
918.828	4333
918.939	4367
919.05	4238
919.161	4306
919.272	4135
919.383	4268
919.494	4428
919.604	4615
919.715	4405
919.826	4329
919.936	4394
920.047	4565
920.157	4489
920.267	4698
920.378	4527
920.488	4504
920.598	4721
920.708	4896
920.818	4763
920.928	4740
921.038	4927
921.148	4938
921.258	4653
921.368	4535
921.477	4489
921.587	4481
921.697	4398
921.806	4519
921.916	4379
922.025	4207
922.134	4268
922.244	4246
922.353	4284
922.462	4154
922.571	4147
922.68	3987
922.789	3956
922.898	4032
923.007	4029
923.116	4109
923.224	4086
923.333	4067
923.442	4002
923.55	3941
923.659	4010
923.767	4074
923.876	3998
923.984	4128
924.092	3987
924.201	4067
924.309	4093
924.417	4128
924.525	4093
924.633	4128
924.741	5056
924.849	3903
924.956	4150
925.064	3994
925.172	3941
925.279	3930
925.387	4059
925.494	4059
925.602	4230
925.709	4150
925.816	4036
925.924	4147
926.031	4227
926.138	4169
926.245	4188
926.352	4071
926.459	4249
926.566	4322
926.673	4185
926.779	4071
926.886	4071
926.993	3964
927.099	3960
927.206	3945
927.312	3953
927.419	4071
927.525	4010
927.631	4090
927.737	3998
927.843	3930
927.95	3857
928.056	3926
928.162	3972
928.267	4086
928.373	4542
928.479	4150
928.585	3857
928.69	4002
928.796	4051
928.901	3899
929.007	3861
929.112	3987
929.218	3934
929.323	3945
929.428	3964
929.533	4109
929.638	3911
929.743	3972
929.848	4017
929.953	3975
930.058	3911
930.163	3781
930.267	3789
930.372	3983
930.477	3804
930.581	4093
930.685	3956
930.79	3850
930.894	3903
930.998	3865
931.103	4063
931.207	3701
931.311	3728
931.415	3660
931.519	3492
931.623	3599
