Data from test_V78500241_2106.txt Node
Date: Fri Mar 25 17:03:38 CST 2022
User: usil
Spectrometer: V785-0024
Trigger mode: 0
Integration Time (sec): 4.000000E-1
Scans to average: 1
Nonlinearity correction enabled: false
Boxcar width: 0
Storing dark spectrum: false
XAxis mode: Wavelengths
Number of Pixels in Spectrum: 1024
>>>>>Begin Spectral Data<<<<<
801.071	8012
801.214	7986
801.356	7814
801.499	7875
801.641	7811
801.783	7833
801.926	8050
802.068	7959
802.211	8016
802.353	8020
802.496	7887
802.638	7947
802.78	7909
802.923	7963
803.065	7868
803.208	7940
803.35	8035
803.492	8168
803.635	8107
803.777	8027
803.919	8142
804.061	8552
804.204	8191
804.346	8123
804.488	7967
804.63	8168
804.773	8073
804.915	8138
805.057	8279
805.199	8142
805.341	8233
805.483	8320
805.626	8248
805.768	8187
805.91	8161
806.052	8267
806.194	8149
806.336	8305
806.478	8191
806.62	8092
806.762	8138
806.904	8358
807.046	8545
807.188	8404
807.33	8347
807.472	8332
807.614	8180
807.756	8202
807.898	7982
808.04	7902
808.182	7883
808.324	7917
808.465	7947
808.607	8130
808.749	8149
808.891	8214
809.033	8320
809.174	8176
809.316	8126
809.458	8123
809.6	8039
809.741	8073
809.883	8103
810.025	8138
810.166	8050
810.308	7955
810.45	8001
810.591	7894
810.733	7734
810.875	7594
811.016	7529
811.158	7445
811.299	7613
811.441	7765
811.582	7685
811.724	7624
811.865	7540
812.007	7578
812.148	7670
812.29	7624
812.431	7761
812.573	7906
812.714	7978
812.855	8092
812.997	8279
813.138	8271
813.279	8157
813.421	8073
813.562	7970
813.703	7852
813.845	7693
813.986	7521
814.127	7217
814.268	7232
814.41	7175
814.551	7171
814.692	7263
814.833	7171
814.974	7129
815.115	7156
815.256	7012
815.397	6970
815.539	6996
815.68	6818
815.821	6787
815.962	6901
816.103	6863
816.244	6760
816.385	6620
816.526	6669
816.666	6525
816.807	6353
816.948	6486
817.089	6441
817.23	6441
817.371	6414
817.512	6433
817.653	6410
817.793	6357
817.934	6410
818.075	6471
818.216	6506
818.356	6407
818.497	6315
818.638	6125
818.778	6224
818.919	6133
819.06	6155
819.2	6304
819.341	6338
819.481	6399
819.622	6563
819.762	6741
819.903	6665
820.043	6604
820.184	6585
820.324	6639
820.465	6726
820.605	6707
820.746	6711
820.886	6555
821.026	6642
821.167	6749
821.307	6772
821.447	6821
821.588	6711
821.728	6631
821.868	6532
822.008	6346
822.149	6429
822.289	6369
822.429	6171
822.569	6098
822.709	6163
822.849	5897
822.99	5897
823.13	5969
823.27	5920
823.41	5794
823.55	5775
823.69	5691
823.83	5809
823.97	5722
824.11	5562
824.25	5551
824.389	5566
824.529	5562
824.669	5520
824.809	5627
824.949	5691
825.089	5611
825.228	5581
825.368	5383
825.508	5341
825.648	5360
825.787	5410
825.927	5395
826.067	5349
826.206	5337
826.346	5337
826.485	5406
826.625	5463
826.765	5562
826.904	5539
827.044	5280
827.183	5246
827.323	5132
827.462	5292
827.601	5204
827.741	5170
827.88	5250
828.02	5117
828.159	5258
828.298	5296
828.437	5444
828.577	5311
828.716	5505
828.855	5322
828.994	5227
829.134	5140
829.273	5204
829.412	5155
829.551	5181
829.69	5204
829.829	5277
829.968	5391
830.107	5269
830.246	5265
830.385	5204
830.524	5128
830.663	5090
830.802	4957
830.941	4904
831.08	4911
831.219	4976
831.357	5033
831.496	5166
831.635	4904
831.774	4915
831.913	4839
832.051	4786
832.19	4729
832.329	4866
832.467	4759
832.606	4687
832.744	4767
832.883	4744
833.022	4740
833.16	4812
833.299	4858
833.437	4904
833.576	4858
833.714	4927
833.852	4862
833.991	4908
834.129	4946
834.267	4953
834.406	4938
834.544	4976
834.682	5029
834.821	4987
834.959	5197
835.097	4995
835.235	5140
835.373	5113
835.511	5086
835.65	5041
835.788	5041
835.926	4908
836.064	4831
836.202	4968
836.34	5174
836.478	5159
836.615	5136
836.753	5231
836.891	5284
837.029	5296
837.167	5181
837.305	5159
837.443	5166
837.58	5121
837.718	5288
837.856	5197
837.993	5166
838.131	5223
838.269	5242
838.406	5174
838.544	5189
838.681	5048
838.819	4995
838.956	4900
839.094	4957
839.231	4987
839.369	5109
839.506	5463
839.643	5250
839.781	5075
839.918	5033
840.055	5136
840.193	5128
840.33	5090
840.467	5090
840.604	5220
840.742	5474
840.879	5090
841.016	5067
841.153	5151
841.29	5357
841.427	5334
841.564	5288
841.701	5372
841.838	5311
841.975	5246
842.112	5280
842.249	5174
842.385	5102
842.522	5315
842.659	5174
842.796	5098
842.933	5212
843.069	5166
843.206	5117
843.343	5303
843.479	5212
843.616	5235
843.752	5052
843.889	5014
844.025	5242
844.162	5052
844.298	5227
844.435	5083
844.571	5022
844.708	5204
844.844	5277
844.98	5360
845.117	5277
845.253	5147
845.389	5094
845.525	5159
845.661	5162
845.798	5064
845.934	5109
846.07	5086
846.206	5189
846.342	5242
846.478	5155
846.614	5052
846.75	5003
846.886	4999
847.022	5136
847.158	5060
847.294	5094
847.429	5090
847.565	5067
847.701	5315
847.837	4828
847.972	4786
848.108	4957
848.244	4980
848.379	4748
848.515	4710
848.65	4736
848.786	4717
848.921	4797
849.057	4873
849.192	4927
849.328	4820
849.463	4816
849.598	4774
849.734	4759
849.869	4733
850.004	4618
850.14	4683
850.275	4668
850.41	4538
850.545	4577
850.68	4599
850.815	4603
850.95	4634
851.085	4854
851.22	4752
851.355	4649
851.49	4645
851.625	4622
851.76	4592
851.895	4531
852.03	4565
852.165	4725
852.299	4797
852.434	4805
852.569	4698
852.703	4816
852.838	4809
852.973	4908
853.107	4908
853.242	4736
853.376	4641
853.511	4596
853.645	4626
853.78	4809
853.914	4744
854.048	4698
854.183	4710
854.317	4691
854.451	4885
854.585	4714
854.72	4660
854.854	4816
854.988	4573
855.122	4637
855.256	4459
855.39	4637
855.524	4740
855.658	4786
855.792	4710
855.926	4714
856.06	4812
856.194	4835
856.327	4653
856.461	4611
856.595	4592
856.729	4607
856.862	4763
856.996	4729
857.13	4668
857.263	4733
857.397	4809
857.53	4691
857.664	4687
857.797	4786
857.931	4790
858.064	4706
858.197	4767
858.331	4660
858.464	4588
858.597	4497
858.731	4622
858.864	4679
858.997	4618
859.13	4687
859.263	4679
859.396	4679
859.529	4630
859.662	4615
859.795	4554
859.928	4618
860.061	4755
860.194	4717
860.327	4615
860.46	4538
860.592	4687
860.725	4752
860.858	4710
860.99	4603
861.123	4504
861.256	4519
861.388	4611
861.521	5383
861.653	4508
861.786	4462
861.918	4451
862.05	4455
862.183	4558
862.315	4599
862.447	4675
862.58	4607
862.712	4421
862.844	4409
862.976	4451
863.108	4432
863.24	4778
863.372	4337
863.504	4417
863.636	4432
863.768	4485
863.9	4459
864.032	4394
864.164	4375
864.296	4500
864.428	4527
864.559	4554
864.691	4531
864.823	4584
864.954	4497
865.086	4527
865.217	4462
865.349	4421
865.48	4409
865.612	4500
865.743	4649
865.875	4470
866.006	4428
866.137	4466
866.269	4405
866.4	4383
866.531	4440
866.662	4402
866.793	4447
866.924	4436
867.055	4497
867.186	4516
867.317	4424
867.448	4383
867.579	4363
867.71	4402
867.841	4405
867.972	4443
868.103	4478
868.233	4462
868.364	4451
868.495	4504
868.625	4679
868.756	4793
868.886	4607
869.017	4634
869.147	4839
869.278	4793
869.408	4679
869.539	4637
869.669	4725
869.799	4668
869.929	4759
870.06	4752
870.19	4957
870.32	4991
870.45	4946
870.58	5014
870.71	5067
870.84	5052
870.97	4938
871.1	4892
871.23	5174
871.36	5178
871.489	5071
871.619	5045
871.749	5109
871.879	5056
872.008	5075
872.138	5064
872.267	5048
872.397	4896
872.526	4809
872.656	4714
872.785	4873
872.915	4987
873.044	5094
873.173	4938
873.303	4938
873.432	4972
873.561	4938
873.69	4892
873.819	4850
873.948	4965
874.077	4797
874.206	4752
874.335	4828
874.464	4919
874.593	5029
874.722	4984
874.851	5128
874.979	5090
875.108	5045
875.237	4908
875.365	4896
875.494	4938
875.623	4995
875.751	4847
875.88	4946
876.008	5006
876.136	5022
876.265	5208
876.393	5357
876.521	5223
876.65	5231
876.778	5166
876.906	5075
877.034	5014
877.162	5045
877.29	5048
877.418	5094
877.546	5071
877.674	5056
877.802	5025
877.93	5022
878.058	4965
878.185	4870
878.313	4976
878.441	4915
878.568	4778
878.696	4881
878.824	4991
878.951	4961
879.079	5166
879.206	5357
879.333	5079
879.461	4957
879.588	5003
879.715	5071
879.842	5258
879.97	5033
880.097	4782
880.224	4790
880.351	4759
880.478	4858
880.605	4805
880.732	4763
880.859	5098
880.986	4870
881.112	4911
881.239	4774
881.366	4687
881.493	4618
881.619	4588
881.746	4607
881.872	4664
881.999	4714
882.125	4698
882.252	4843
882.378	4793
882.505	4987
882.631	4797
882.757	4683
882.883	4759
883.01	4721
883.136	4683
883.262	4611
883.388	4626
883.514	4858
883.64	4904
883.766	4824
883.892	4675
884.018	4706
884.143	4892
884.269	5014
884.395	4706
884.52	4596
884.646	4664
884.772	4527
884.897	4565
885.023	4675
885.148	4759
885.274	4896
885.399	4805
885.524	4698
885.65	4744
885.775	4786
885.9	4710
886.025	4831
886.15	4763
886.275	4702
886.4	4645
886.525	4694
886.65	4679
886.775	4656
886.9	4904
887.025	5056
887.149	4801
887.274	4630
887.399	4584
887.523	4588
887.648	4561
887.773	4607
887.897	4759
888.021	4782
888.146	4637
888.27	4824
888.395	4885
888.519	4828
888.643	4828
888.767	4858
888.891	4660
889.015	4641
889.139	4630
889.263	4603
889.387	4782
889.511	4881
889.635	4771
889.759	4653
889.883	4645
890.006	4698
890.13	4858
890.254	4596
890.377	4679
890.501	4519
890.624	4523
890.748	4645
890.871	4512
890.995	4432
891.118	4379
891.241	4485
891.364	4538
891.488	4668
891.611	4478
891.734	4538
891.857	4618
891.98	4538
892.103	4645
892.226	4588
892.349	4519
892.471	4432
892.594	4531
892.717	4622
892.839	4599
892.962	4615
893.085	4641
893.207	4577
893.33	4447
893.452	4519
893.575	4691
893.697	4584
893.819	4744
893.941	4839
894.064	4759
894.186	4592
894.308	4516
894.43	4717
894.552	4854
894.674	4752
894.796	4550
894.918	4569
895.04	4546
895.161	4721
895.283	4653
895.405	4596
895.526	4592
895.648	4691
895.769	4645
895.891	4744
896.012	4675
896.134	4729
896.255	4660
896.376	4599
896.498	4588
896.619	4717
896.74	4622
896.861	4660
896.982	4870
897.103	5052
897.224	4816
897.345	4748
897.466	4645
897.587	4733
897.708	4877
897.828	4733
897.949	4656
898.07	4554
898.19	4649
898.311	4812
898.431	4736
898.552	4748
898.672	4820
898.792	4767
898.913	4759
899.033	4637
899.153	4516
899.273	4455
899.393	4455
899.513	4596
899.633	4531
899.753	4538
899.873	4535
899.993	4603
900.113	4516
900.232	4565
900.352	4546
900.472	4466
900.591	4383
900.711	4455
900.83	4459
900.95	4588
901.069	4721
901.189	4546
901.308	4352
901.427	4314
901.546	4341
901.665	4440
901.784	4504
901.904	4413
902.023	4303
902.141	4185
902.26	4223
902.379	4253
902.498	4242
902.617	4227
902.735	4325
902.854	4405
902.973	4318
903.091	4227
903.21	4204
903.328	4249
903.446	4265
903.565	4188
903.683	4341
903.801	4249
903.919	4428
904.038	4398
904.156	4291
904.274	4394
904.392	4451
904.51	4386
904.627	4424
904.745	4565
904.863	4660
904.981	4398
905.098	4314
905.216	4325
905.334	4394
905.451	4451
905.569	4466
905.686	4538
905.803	4538
905.921	4390
906.038	4554
906.155	4523
906.272	4440
906.389	4474
906.506	4314
906.623	4363
906.74	4352
906.857	4276
906.974	4344
907.091	4542
907.208	4710
907.324	4577
907.441	4478
907.557	4299
907.674	4356
907.79	4306
907.907	4383
908.023	4516
908.139	4466
908.256	4405
908.372	4481
908.488	4428
908.604	4352
908.72	4310
908.836	4333
908.952	4337
909.068	4440
909.184	4573
909.3	4512
909.415	4599
909.531	4538
909.647	4337
909.762	4390
909.878	4318
909.993	4436
910.108	4375
910.224	4394
910.339	4451
910.454	4436
910.57	4363
910.685	4276
910.8	4618
910.915	4592
911.03	4466
911.145	4322
911.259	4341
911.374	4383
911.489	4272
911.604	4318
911.718	4147
911.833	4211
911.947	4109
912.062	4051
912.176	4204
912.291	4230
912.405	4196
912.519	4481
912.633	4500
912.748	4356
912.862	4314
912.976	4238
913.09	4124
913.204	4181
913.318	4185
913.431	4405
913.545	4383
913.659	4436
913.772	4344
913.886	4234
914	4223
914.113	4421
914.226	4428
914.34	4375
914.453	4242
914.566	4436
914.68	4314
914.793	4318
914.906	4147
915.019	4120
915.132	4097
915.245	4169
915.358	4242
915.47	4242
915.583	4242
915.696	4299
915.809	4432
915.921	4421
916.034	4249
916.146	4257
916.259	4207
916.371	4383
916.483	4337
916.595	4238
916.708	4329
916.82	4303
916.932	4322
917.044	4306
917.156	4341
917.268	4211
917.38	4318
917.491	4268
917.603	4333
917.715	4428
917.826	4413
917.938	4299
918.049	4303
918.161	4367
918.272	4558
918.384	4546
918.495	4424
918.606	4341
918.717	4249
918.828	4329
918.939	4394
919.05	4257
919.161	4295
919.272	4131
919.383	4215
919.494	4436
919.604	4615
919.715	4432
919.826	4329
919.936	4428
920.047	4565
920.157	4459
920.267	4717
920.378	4508
920.488	4531
920.598	4691
920.708	4873
920.818	4755
920.928	4755
921.038	4919
921.148	4900
921.258	4634
921.368	4584
921.477	4550
921.587	4443
921.697	4379
921.806	4550
921.916	4432
922.025	4291
922.134	4291
922.244	4219
922.353	4314
922.462	4143
922.571	4135
922.68	3998
922.789	3975
922.898	4063
923.007	4002
923.116	4078
923.224	4074
923.333	4105
923.442	3972
923.55	3937
923.659	4006
923.767	4124
923.876	4006
923.984	4109
924.092	3979
924.201	4105
924.309	4078
924.417	4112
924.525	4063
924.633	4112
924.741	5018
924.849	3869
924.956	4154
925.064	3930
925.172	3892
925.279	3991
925.387	4055
925.494	4044
925.602	4215
925.709	4211
925.816	4055
925.924	4128
926.031	4249
926.138	4150
926.245	4204
926.352	4071
926.459	4223
926.566	4314
926.673	4143
926.779	4097
926.886	4120
926.993	3991
927.099	3915
927.206	3968
927.312	3911
927.419	4071
927.525	4059
927.631	4090
927.737	3960
927.843	3949
927.95	3804
928.056	3949
928.162	3964
928.267	4051
928.373	4569
928.479	4124
928.585	3846
928.69	3994
928.796	4055
928.901	4002
929.007	3861
929.112	3968
929.218	3926
929.323	3949
929.428	3953
929.533	4090
929.638	3918
929.743	3983
929.848	3998
929.953	3998
930.058	3926
930.163	3781
930.267	3778
930.372	3968
930.477	3797
930.581	4101
930.685	3903
930.79	3838
930.894	3888
930.998	3838
931.103	4044
931.207	3701
931.311	3747
931.415	3633
931.519	3454
931.623	3519
