Data from test_V78500241_2538.txt Node
Date: Fri Mar 25 17:06:39 CST 2022
User: usil
Spectrometer: V785-0024
Trigger mode: 0
Integration Time (sec): 4.000000E-1
Scans to average: 1
Nonlinearity correction enabled: false
Boxcar width: 0
Storing dark spectrum: false
XAxis mode: Wavelengths
Number of Pixels in Spectrum: 1024
>>>>>Begin Spectral Data<<<<<
801.071	8016
801.214	8027
801.356	7909
801.499	7837
801.641	7788
801.783	7792
801.926	7989
802.068	7978
802.211	8024
802.353	8046
802.496	7913
802.638	7871
802.78	7947
802.923	7932
803.065	7849
803.208	7849
803.35	7925
803.492	8138
803.635	8168
803.777	7997
803.919	8088
804.061	8423
804.204	8126
804.346	8046
804.488	7997
804.63	8058
804.773	7993
804.915	8180
805.057	8317
805.199	8157
805.341	8218
805.483	8328
805.626	8225
805.768	8202
805.91	8263
806.052	8187
806.194	8123
806.336	8362
806.478	8073
806.62	8050
806.762	8149
806.904	8149
807.046	8533
807.188	8427
807.33	8343
807.472	8400
807.614	8119
807.756	8153
807.898	8096
808.04	7894
808.182	7967
808.324	7879
808.465	7868
808.607	8111
808.749	8176
808.891	8275
809.033	8263
809.174	8252
809.316	8054
809.458	8069
809.6	8058
809.741	8035
809.883	8027
810.025	8157
810.166	8088
810.308	7997
810.45	8050
810.591	7852
810.733	7761
810.875	7700
811.016	7529
811.158	7518
811.299	7590
811.441	7769
811.582	7677
811.724	7571
811.865	7548
812.007	7643
812.148	7658
812.29	7715
812.431	7780
812.573	7875
812.714	7959
812.855	8126
812.997	8221
813.138	8317
813.279	8183
813.421	8100
813.562	7944
813.703	7830
813.845	7784
813.986	7457
814.127	7278
814.268	7221
814.41	7179
814.551	7190
814.692	7297
814.833	7126
814.974	7156
815.115	7187
815.256	7008
815.397	6954
815.539	7012
815.68	6818
815.821	6772
815.962	6924
816.103	6779
816.244	6700
816.385	6673
816.526	6677
816.666	6536
816.807	6361
816.948	6460
817.089	6467
817.23	6490
817.371	6426
817.512	6365
817.653	6395
817.793	6327
817.934	6399
818.075	6517
818.216	6395
818.356	6471
818.497	6277
818.638	6152
818.778	6148
818.919	6155
819.06	6194
819.2	6327
819.341	6357
819.481	6403
819.622	6601
819.762	6844
819.903	6730
820.043	6616
820.184	6646
820.324	6593
820.465	6696
820.605	6741
820.746	6677
820.886	6566
821.026	6707
821.167	6745
821.307	6875
821.447	6818
821.588	6681
821.728	6528
821.868	6498
822.008	6391
822.149	6399
822.289	6369
822.429	6148
822.569	6091
822.709	6178
822.849	5958
822.99	5916
823.13	5973
823.27	5942
823.41	5771
823.55	5809
823.69	5817
823.83	5783
823.97	5649
824.11	5554
824.25	5535
824.389	5581
824.529	5611
824.669	5543
824.809	5691
824.949	5672
825.089	5661
825.228	5554
825.368	5436
825.508	5326
825.648	5360
825.787	5391
825.927	5406
826.067	5265
826.206	5269
826.346	5364
826.485	5406
826.625	5406
826.765	5547
826.904	5482
827.044	5269
827.183	5197
827.323	5098
827.462	5227
827.601	5201
827.741	5181
827.88	5250
828.02	5181
828.159	5299
828.298	5341
828.437	5398
828.577	5254
828.716	5505
828.855	5337
828.994	5193
829.134	5143
829.273	5201
829.412	5193
829.551	5140
829.69	5212
829.829	5223
829.968	5402
830.107	5246
830.246	5311
830.385	5189
830.524	5185
830.663	5124
830.802	5006
830.941	4938
831.08	4923
831.219	4999
831.357	4965
831.496	5159
831.635	4889
831.774	4850
831.913	4873
832.051	4748
832.19	4752
832.329	4885
832.467	4710
832.606	4626
832.744	4748
832.883	4702
833.022	4691
833.16	4782
833.299	4828
833.437	4835
833.576	4843
833.714	4828
833.852	4870
833.991	4915
834.129	4976
834.267	4938
834.406	4938
834.544	4995
834.682	4987
834.821	4957
834.959	5155
835.097	5010
835.235	5143
835.373	5083
835.511	5090
835.65	5052
835.788	5064
835.926	4915
836.064	4904
836.202	4889
836.34	5170
836.478	5227
836.615	5132
836.753	5307
836.891	5303
837.029	5273
837.167	5220
837.305	5193
837.443	5170
837.58	5071
837.718	5254
837.856	5227
837.993	5174
838.131	5277
838.269	5193
838.406	5181
838.544	5193
838.681	5067
838.819	4976
838.956	4866
839.094	4900
839.231	5014
839.369	5117
839.506	5364
839.643	5235
839.781	5064
839.918	4987
840.055	5086
840.193	5094
840.33	5124
840.467	5124
840.604	5174
840.742	5455
840.879	5105
841.016	5147
841.153	5147
841.29	5448
841.427	5349
841.564	5318
841.701	5364
841.838	5349
841.975	5227
842.112	5231
842.249	5128
842.385	5048
842.522	5360
842.659	5201
842.796	5204
842.933	5212
843.069	5162
843.206	5136
843.343	5307
843.479	5235
843.616	5307
843.752	5045
843.889	5006
844.025	5223
844.162	5025
844.298	5227
844.435	5083
844.571	5033
844.708	5166
844.844	5318
844.98	5360
845.117	5364
845.253	5140
845.389	5067
845.525	5136
845.661	5185
845.798	5041
845.934	5098
846.07	5056
846.206	5235
846.342	5292
846.478	5193
846.614	5052
846.75	4927
846.886	4984
847.022	5098
847.158	5025
847.294	5075
847.429	5102
847.565	5052
847.701	5315
847.837	4862
847.972	4816
848.108	4980
848.244	4961
848.379	4812
848.515	4691
848.65	4752
848.786	4820
848.921	4820
849.057	4839
849.192	4896
849.328	4759
849.463	4835
849.598	4793
849.734	4831
849.869	4714
850.004	4645
850.14	4733
850.275	4603
850.41	4519
850.545	4565
850.68	4607
850.815	4660
850.95	4649
851.085	4820
851.22	4767
851.355	4653
851.49	4596
851.625	4596
851.76	4622
851.895	4554
852.03	4527
852.165	4653
852.299	4729
852.434	4793
852.569	4774
852.703	4774
852.838	4835
852.973	4915
853.107	4911
853.242	4714
853.376	4687
853.511	4565
853.645	4607
853.78	4782
853.914	4683
854.048	4694
854.183	4660
854.317	4706
854.451	4824
854.585	4660
854.72	4672
854.854	4801
854.988	4611
855.122	4649
855.256	4519
855.39	4645
855.524	4828
855.658	4694
855.792	4710
855.926	4687
856.06	4752
856.194	4824
856.327	4721
856.461	4626
856.595	4668
856.729	4668
856.862	4717
856.996	4675
857.13	4675
857.263	4805
857.397	4790
857.53	4634
857.664	4759
857.797	4752
857.931	4755
858.064	4687
858.197	4755
858.331	4630
858.464	4584
858.597	4531
858.731	4588
858.864	4645
858.997	4569
859.13	4653
859.263	4679
859.396	4702
859.529	4599
859.662	4580
859.795	4538
859.928	4653
860.061	4744
860.194	4771
860.327	4596
860.46	4558
860.592	4748
860.725	4714
860.858	4725
860.99	4565
861.123	4546
861.256	4535
861.388	4630
861.521	5220
861.653	4512
861.786	4459
861.918	4516
862.05	4535
862.183	4588
862.315	4588
862.447	4683
862.58	4546
862.712	4375
862.844	4291
862.976	4497
863.108	4428
863.24	4782
863.372	4344
863.504	4466
863.636	4405
863.768	4478
863.9	4447
864.032	4360
864.164	4447
864.296	4493
864.428	4588
864.559	4584
864.691	4519
864.823	4519
864.954	4527
865.086	4485
865.217	4421
865.349	4413
865.48	4489
865.612	4489
865.743	4649
865.875	4440
866.006	4428
866.137	4466
866.269	4481
866.4	4466
866.531	4390
866.662	4386
866.793	4409
866.924	4417
867.055	4481
867.186	4447
867.317	4436
867.448	4375
867.579	4379
867.71	4390
867.841	4360
867.972	4398
868.103	4497
868.233	4413
868.364	4443
868.495	4470
868.625	4634
868.756	4721
868.886	4580
869.017	4584
869.147	4771
869.278	4733
869.408	4672
869.539	4618
869.669	4729
869.799	4675
869.929	4717
870.06	4763
870.19	4949
870.32	4904
870.45	4911
870.58	4987
870.71	5079
870.84	5090
870.97	4946
871.1	4938
871.23	5098
871.36	5075
871.489	5022
871.619	5075
871.749	5090
871.879	5151
872.008	5174
872.138	4999
872.267	4972
872.397	4866
872.526	4816
872.656	4721
872.785	4824
872.915	4934
873.044	5025
873.173	4938
873.303	4980
873.432	4908
873.561	4957
873.69	4835
873.819	4828
873.948	4915
874.077	4820
874.206	4752
874.335	4816
874.464	4923
874.593	5079
874.722	4946
874.851	5109
874.979	5064
875.108	5056
875.237	4946
875.365	4908
875.494	4904
875.623	4965
875.751	4801
875.88	4835
876.008	4991
876.136	5075
876.265	5193
876.393	5318
876.521	5208
876.65	5250
876.778	5147
876.906	5113
877.034	5064
877.162	5075
877.29	4995
877.418	4991
877.546	5064
877.674	5075
877.802	5071
877.93	5018
878.058	4961
878.185	4915
878.313	4976
878.441	4953
878.568	4797
878.696	4885
878.824	4934
878.951	5025
879.079	5136
879.206	5307
879.333	5086
879.461	4987
879.588	5045
879.715	5109
879.842	5189
879.97	5010
880.097	4759
880.224	4717
880.351	4816
880.478	4812
880.605	4797
880.732	4736
880.859	5086
880.986	4919
881.112	4892
881.239	4759
881.366	4664
881.493	4607
881.619	4607
881.746	4691
881.872	4615
881.999	4630
882.125	4645
882.252	4801
882.378	4850
882.505	4961
882.631	4774
882.757	4634
882.883	4744
883.01	4725
883.136	4714
883.262	4573
883.388	4607
883.514	4793
883.64	4831
883.766	4729
883.892	4664
884.018	4702
884.143	4892
884.269	5003
884.395	4645
884.52	4637
884.646	4672
884.772	4584
884.897	4542
885.023	4630
885.148	4759
885.274	4870
885.399	4843
885.524	4710
885.65	4717
885.775	4748
885.9	4733
886.025	4835
886.15	4805
886.275	4733
886.4	4607
886.525	4702
886.65	4706
886.775	4694
886.9	4923
887.025	5067
887.149	4786
887.274	4660
887.399	4588
887.523	4550
887.648	4573
887.773	4558
887.897	4767
888.021	4778
888.146	4687
888.27	4820
888.395	4919
888.519	4790
888.643	4786
888.767	4835
888.891	4675
889.015	4622
889.139	4584
889.263	4588
889.387	4717
889.511	4843
889.635	4778
889.759	4630
889.883	4630
890.006	4717
890.13	4824
890.254	4634
890.377	4660
890.501	4588
890.624	4497
890.748	4637
890.871	4516
890.995	4405
891.118	4375
891.241	4493
891.364	4550
891.488	4599
891.611	4489
891.734	4542
891.857	4561
891.98	4558
892.103	4618
892.226	4588
892.349	4519
892.471	4489
892.594	4523
892.717	4626
892.839	4580
892.962	4577
893.085	4649
893.207	4580
893.33	4470
893.452	4546
893.575	4691
893.697	4634
893.819	4752
893.941	4820
894.064	4786
894.186	4569
894.308	4561
894.43	4706
894.552	4820
894.674	4778
894.796	4535
894.918	4573
895.04	4584
895.161	4668
895.283	4637
895.405	4573
895.526	4634
895.648	4679
895.769	4691
895.891	4729
896.012	4744
896.134	4778
896.255	4641
896.376	4622
896.498	4660
896.619	4736
896.74	4641
896.861	4622
896.982	4927
897.103	5098
897.224	4805
897.345	4771
897.466	4653
897.587	4725
897.708	4809
897.828	4736
897.949	4733
898.07	4538
898.19	4630
898.311	4839
898.431	4694
898.552	4729
898.672	4790
898.792	4786
898.913	4755
899.033	4653
899.153	4546
899.273	4432
899.393	4443
899.513	4558
899.633	4512
899.753	4508
899.873	4500
899.993	4577
900.113	4561
900.232	4538
900.352	4519
900.472	4504
900.591	4398
900.711	4493
900.83	4470
900.95	4599
901.069	4729
901.189	4554
901.308	4360
901.427	4291
901.546	4379
901.665	4481
901.784	4504
901.904	4394
902.023	4360
902.141	4257
902.26	4150
902.379	4299
902.498	4318
902.617	4200
902.735	4398
902.854	4390
902.973	4344
903.091	4169
903.21	4207
903.328	4306
903.446	4295
903.565	4261
903.683	4337
903.801	4284
903.919	4398
904.038	4440
904.156	4344
904.274	4470
904.392	4367
904.51	4436
904.627	4489
904.745	4584
904.863	4637
904.981	4409
905.098	4272
905.216	4333
905.334	4443
905.451	4383
905.569	4428
905.686	4592
905.803	4584
905.921	4432
906.038	4558
906.155	4459
906.272	4386
906.389	4481
906.506	4318
906.623	4379
906.74	4417
906.857	4341
906.974	4390
907.091	4554
907.208	4683
907.324	4592
907.441	4474
907.557	4352
907.674	4356
907.79	4295
907.907	4409
908.023	4481
908.139	4485
908.256	4504
908.372	4455
908.488	4474
908.604	4367
908.72	4325
908.836	4363
908.952	4367
909.068	4417
909.184	4550
909.3	4478
909.415	4561
909.531	4531
909.647	4348
909.762	4371
909.878	4375
909.993	4405
910.108	4386
910.224	4394
910.339	4470
910.454	4405
910.57	4379
910.685	4322
910.8	4675
910.915	4607
911.03	4493
911.145	4303
911.259	4341
911.374	4333
911.489	4310
911.604	4261
911.718	4211
911.833	4162
911.947	4078
912.062	4029
912.176	4230
912.291	4253
912.405	4291
912.519	4466
912.633	4527
912.748	4424
912.862	4265
912.976	4246
913.09	4109
913.204	4124
913.318	4207
913.431	4379
913.545	4375
913.659	4440
913.772	4371
913.886	4230
914	4215
914.113	4394
914.226	4417
914.34	4360
914.453	4215
914.566	4459
914.68	4265
914.793	4299
914.906	4166
915.019	4078
915.132	4078
915.245	4169
915.358	4188
915.47	4242
915.583	4322
915.696	4287
915.809	4386
915.921	4432
916.034	4272
916.146	4234
916.259	4272
916.371	4371
916.483	4360
916.595	4261
916.708	4333
916.82	4314
916.932	4310
917.044	4295
917.156	4310
917.268	4268
917.38	4287
917.491	4291
917.603	4356
917.715	4432
917.826	4440
917.938	4466
918.049	4242
918.161	4405
918.272	4561
918.384	4516
918.495	4451
918.606	4310
918.717	4238
918.828	4310
918.939	4390
919.05	4227
919.161	4318
919.272	4109
919.383	4223
919.494	4478
919.604	4569
919.715	4440
919.826	4329
919.936	4398
920.047	4561
920.157	4421
920.267	4698
920.378	4519
920.488	4516
920.598	4683
920.708	4854
920.818	4744
920.928	4733
921.038	4972
921.148	4984
921.258	4630
921.368	4558
921.477	4455
921.587	4485
921.697	4348
921.806	4538
921.916	4421
922.025	4276
922.134	4257
922.244	4246
922.353	4329
922.462	4150
922.571	4162
922.68	4021
922.789	3991
922.898	4010
923.007	4029
923.116	4051
923.224	4097
923.333	4097
923.442	3998
923.55	3941
923.659	4002
923.767	4120
923.876	3934
923.984	4143
924.092	3991
924.201	4086
924.309	4112
924.417	4124
924.525	4067
924.633	4105
924.741	5052
924.849	3884
924.956	4128
925.064	3953
925.172	3899
925.279	3934
925.387	4040
925.494	4086
925.602	4246
925.709	4139
925.816	4059
925.924	4124
926.031	4253
926.138	4177
926.245	4249
926.352	4105
926.459	4227
926.566	4284
926.673	4158
926.779	4116
926.886	4051
926.993	4010
927.099	3918
927.206	3994
927.312	3941
927.419	4082
927.525	4021
927.631	4112
927.737	3953
927.843	3899
927.95	3850
928.056	3934
928.162	4010
928.267	4055
928.373	4558
928.479	4135
928.585	3896
928.69	4074
928.796	4109
928.901	3941
929.007	3873
929.112	4002
929.218	3983
929.323	3972
929.428	3945
929.533	4105
929.638	3907
929.743	3922
929.848	4055
929.953	3979
930.058	3934
930.163	3804
930.267	3831
930.372	3994
930.477	3766
930.581	4067
930.685	3911
930.79	3816
930.894	3873
930.998	3850
931.103	4074
931.207	3698
931.311	3663
931.415	3667
931.519	3515
931.623	3553
