Data from test_V78500241_817.txt Node
Date: Fri Mar 25 16:54:41 CST 2022
User: usil
Spectrometer: V785-0024
Trigger mode: 0
Integration Time (sec): 4.000000E-1
Scans to average: 1
Nonlinearity correction enabled: false
Boxcar width: 0
Storing dark spectrum: false
XAxis mode: Wavelengths
Number of Pixels in Spectrum: 1024
>>>>>Begin Spectral Data<<<<<
801.071	8084
801.214	8031
801.356	7890
801.499	7883
801.641	7837
801.783	7883
801.926	7970
802.068	7944
802.211	7963
802.353	7917
802.496	7830
802.638	7883
802.78	7890
802.923	7932
803.065	7845
803.208	7898
803.35	8054
803.492	8176
803.635	8180
803.777	8027
803.919	8058
804.061	8423
804.204	8229
804.346	8031
804.488	7970
804.63	8126
804.773	8039
804.915	8153
805.057	8233
805.199	8164
805.341	8233
805.483	8221
805.626	8320
805.768	8138
805.91	8206
806.052	8191
806.194	8111
806.336	8240
806.478	8123
806.62	8046
806.762	8130
806.904	8221
807.046	8518
807.188	8438
807.33	8267
807.472	8347
807.614	8103
807.756	8092
807.898	7955
808.04	7871
808.182	7864
808.324	7898
808.465	7890
808.607	8062
808.749	8115
808.891	8191
809.033	8313
809.174	8225
809.316	8130
809.458	8062
809.6	8050
809.741	7974
809.883	8050
810.025	8103
810.166	8088
810.308	8043
810.45	8073
810.591	7909
810.733	7727
810.875	7693
811.016	7556
811.158	7499
811.299	7620
811.441	7708
811.582	7715
811.724	7609
811.865	7559
812.007	7620
812.148	7605
812.29	7601
812.431	7712
812.573	7871
812.714	7963
812.855	8126
812.997	8164
813.138	8248
813.279	8180
813.421	8138
813.562	7963
813.703	7925
813.845	7765
813.986	7518
814.127	7217
814.268	7263
814.41	7217
814.551	7141
814.692	7103
814.833	7080
814.974	7133
815.115	7122
815.256	7031
815.397	6977
815.539	7019
815.68	6871
815.821	6768
815.962	6878
816.103	6852
816.244	6722
816.385	6677
816.526	6593
816.666	6483
816.807	6319
816.948	6391
817.089	6479
817.23	6479
817.371	6395
817.512	6460
817.653	6300
817.793	6399
817.934	6395
818.075	6448
818.216	6483
818.356	6372
818.497	6239
818.638	6152
818.778	6087
818.919	6125
819.06	6140
819.2	6342
819.341	6311
819.481	6369
819.622	6563
819.762	6791
819.903	6738
820.043	6635
820.184	6589
820.324	6551
820.465	6688
820.605	6730
820.746	6646
820.886	6528
821.026	6574
821.167	6726
821.307	6719
821.447	6753
821.588	6658
821.728	6635
821.868	6506
822.008	6361
822.149	6300
822.289	6384
822.429	6182
822.569	6083
822.709	6144
822.849	5973
822.99	5878
823.13	5927
823.27	5931
823.41	5805
823.55	5790
823.69	5729
823.83	5718
823.97	5714
824.11	5592
824.25	5467
824.389	5562
824.529	5604
824.669	5459
824.809	5661
824.949	5665
825.089	5596
825.228	5570
825.368	5410
825.508	5322
825.648	5315
825.787	5357
825.927	5398
826.067	5357
826.206	5299
826.346	5459
826.485	5368
826.625	5391
826.765	5592
826.904	5501
827.044	5296
827.183	5159
827.323	5079
827.462	5254
827.601	5197
827.741	5212
827.88	5216
828.02	5174
828.159	5223
828.298	5296
828.437	5357
828.577	5265
828.716	5490
828.855	5303
828.994	5178
829.134	5162
829.273	5193
829.412	5159
829.551	5159
829.69	5189
829.829	5250
829.968	5376
830.107	5269
830.246	5246
830.385	5193
830.524	5124
830.663	5083
830.802	4999
830.941	4900
831.08	4820
831.219	4984
831.357	4980
831.496	5094
831.635	4957
831.774	4850
831.913	4820
832.051	4778
832.19	4725
832.329	4820
832.467	4683
832.606	4702
832.744	4691
832.883	4774
833.022	4752
833.16	4771
833.299	4847
833.437	4839
833.576	4847
833.714	4805
833.852	4881
833.991	4911
834.129	4984
834.267	4919
834.406	4900
834.544	4987
834.682	4968
834.821	4934
834.959	5159
835.097	5022
835.235	5162
835.373	5079
835.511	5166
835.65	4991
835.788	5018
835.926	4847
836.064	4885
836.202	4942
836.34	5212
836.478	5269
836.615	5090
836.753	5223
836.891	5299
837.029	5216
837.167	5143
837.305	5193
837.443	5151
837.58	5128
837.718	5231
837.856	5223
837.993	5178
838.131	5208
838.269	5170
838.406	5193
838.544	5201
838.681	5056
838.819	5041
838.956	4900
839.094	4915
839.231	4961
839.369	5083
839.506	5406
839.643	5307
839.781	5060
839.918	5067
840.055	5075
840.193	5045
840.33	5048
840.467	5136
840.604	5258
840.742	5414
840.879	5117
841.016	5079
841.153	5117
841.29	5383
841.427	5330
841.564	5326
841.701	5334
841.838	5258
841.975	5193
842.112	5250
842.249	5143
842.385	5098
842.522	5296
842.659	5220
842.796	5132
842.933	5212
843.069	5162
843.206	5193
843.343	5280
843.479	5269
843.616	5273
843.752	4987
843.889	4987
844.025	5201
844.162	5048
844.298	5273
844.435	5102
844.571	5048
844.708	5197
844.844	5360
844.98	5311
845.117	5353
845.253	5132
845.389	5064
845.525	5132
845.661	5147
845.798	5022
845.934	5147
846.07	5064
846.206	5204
846.342	5360
846.478	5208
846.614	5037
846.75	4953
846.886	4896
847.022	5121
847.158	5025
847.294	5037
847.429	5094
847.565	5098
847.701	5265
847.837	4824
847.972	4736
848.108	4911
848.244	4961
848.379	4759
848.515	4744
848.65	4755
848.786	4706
848.921	4748
849.057	4873
849.192	4843
849.328	4752
849.463	4900
849.598	4786
849.734	4759
849.869	4714
850.004	4599
850.14	4675
850.275	4615
850.41	4519
850.545	4535
850.68	4622
850.815	4675
850.95	4664
851.085	4877
851.22	4748
851.355	4702
851.49	4599
851.625	4645
851.76	4653
851.895	4558
852.03	4489
852.165	4630
852.299	4698
852.434	4843
852.569	4744
852.703	4740
852.838	4790
852.973	4942
853.107	4934
853.242	4717
853.376	4664
853.511	4531
853.645	4596
853.78	4793
853.914	4634
854.048	4656
854.183	4611
854.317	4675
854.451	4866
854.585	4672
854.72	4656
854.854	4710
854.988	4569
855.122	4603
855.256	4519
855.39	4618
855.524	4820
855.658	4710
855.792	4664
855.926	4729
856.06	4706
856.194	4797
856.327	4664
856.461	4622
856.595	4599
856.729	4622
856.862	4736
856.996	4622
857.13	4717
857.263	4755
857.397	4786
857.53	4637
857.664	4675
857.797	4748
857.931	4782
858.064	4645
858.197	4691
858.331	4702
858.464	4611
858.597	4485
858.731	4641
858.864	4664
858.997	4584
859.13	4592
859.263	4630
859.396	4736
859.529	4542
859.662	4580
859.795	4527
859.928	4645
860.061	4736
860.194	4748
860.327	4622
860.46	4569
860.592	4706
860.725	4691
860.858	4740
860.99	4527
861.123	4527
861.256	4565
861.388	4599
861.521	5265
861.653	4512
861.786	4394
861.918	4481
862.05	4523
862.183	4550
862.315	4630
862.447	4683
862.58	4558
862.712	4440
862.844	4314
862.976	4554
863.108	4459
863.24	4904
863.372	4329
863.504	4405
863.636	4383
863.768	4493
863.9	4413
864.032	4299
864.164	4409
864.296	4493
864.428	4561
864.559	4584
864.691	4542
864.823	4535
864.954	4519
865.086	4546
865.217	4478
865.349	4417
865.48	4428
865.612	4489
865.743	4694
865.875	4470
866.006	4413
866.137	4474
866.269	4413
866.4	4432
866.531	4417
866.662	4394
866.793	4424
866.924	4417
867.055	4512
867.186	4440
867.317	4417
867.448	4371
867.579	4375
867.71	4398
867.841	4383
867.972	4455
868.103	4519
868.233	4428
868.364	4451
868.495	4466
868.625	4653
868.756	4767
868.886	4538
869.017	4611
869.147	4767
869.278	4774
869.408	4698
869.539	4653
869.669	4714
869.799	4664
869.929	4748
870.06	4683
870.19	4949
870.32	4877
870.45	4930
870.58	4995
870.71	5098
870.84	5105
870.97	4980
871.1	4911
871.23	5140
871.36	5136
871.489	5010
871.619	5048
871.749	5079
871.879	5094
872.008	5197
872.138	4999
872.267	4980
872.397	4847
872.526	4824
872.656	4733
872.785	4801
872.915	4961
873.044	5041
873.173	4873
873.303	4919
873.432	4938
873.561	4900
873.69	4911
873.819	4919
873.948	4927
874.077	4835
874.206	4801
874.335	4786
874.464	4908
874.593	5048
874.722	4957
874.851	5056
874.979	5045
875.108	4980
875.237	4938
875.365	4938
875.494	4873
875.623	4923
875.751	4828
875.88	4892
876.008	4930
876.136	5003
876.265	5242
876.393	5326
876.521	5235
876.65	5239
876.778	5140
876.906	5079
877.034	4961
877.162	5010
877.29	5033
877.418	5033
877.546	5037
877.674	5003
877.802	4968
877.93	5010
878.058	4965
878.185	4850
878.313	4927
878.441	4949
878.568	4801
878.696	4866
878.824	4984
878.951	4953
879.079	5105
879.206	5261
879.333	5071
879.461	4953
879.588	4999
879.715	5178
879.842	5250
879.97	4972
880.097	4801
880.224	4752
880.351	4771
880.478	4812
880.605	4759
880.732	4767
880.859	5060
880.986	4881
881.112	4873
881.239	4820
881.366	4660
881.493	4611
881.619	4561
881.746	4641
881.872	4626
881.999	4664
882.125	4714
882.252	4748
882.378	4862
882.505	4968
882.631	4797
882.757	4672
882.883	4763
883.01	4721
883.136	4649
883.262	4577
883.388	4630
883.514	4721
883.64	4858
883.766	4778
883.892	4660
884.018	4702
884.143	4881
884.269	4957
884.395	4706
884.52	4615
884.646	4668
884.772	4577
884.897	4565
885.023	4668
885.148	4759
885.274	4866
885.399	4759
885.524	4698
885.65	4691
885.775	4714
885.9	4721
886.025	4816
886.15	4824
886.275	4702
886.4	4656
886.525	4733
886.65	4687
886.775	4672
886.9	4881
887.025	5018
887.149	4816
887.274	4611
887.399	4577
887.523	4611
887.648	4519
887.773	4546
887.897	4694
888.021	4812
888.146	4679
888.27	4835
888.395	4896
888.519	4755
888.643	4782
888.767	4801
888.891	4656
889.015	4542
889.139	4664
889.263	4615
889.387	4733
889.511	4843
889.635	4828
889.759	4645
889.883	4634
890.006	4714
890.13	4870
890.254	4626
890.377	4702
890.501	4523
890.624	4565
890.748	4611
890.871	4519
890.995	4428
891.118	4379
891.241	4512
891.364	4527
891.488	4592
891.611	4519
891.734	4550
891.857	4565
891.98	4584
892.103	4679
892.226	4580
892.349	4478
892.471	4421
892.594	4535
892.717	4561
892.839	4596
892.962	4569
893.085	4615
893.207	4603
893.33	4451
893.452	4516
893.575	4694
893.697	4599
893.819	4843
893.941	4809
894.064	4740
894.186	4527
894.308	4523
894.43	4725
894.552	4824
894.674	4672
894.796	4542
894.918	4588
895.04	4519
895.161	4702
895.283	4660
895.405	4558
895.526	4637
895.648	4637
895.769	4626
895.891	4710
896.012	4683
896.134	4714
896.255	4668
896.376	4626
896.498	4626
896.619	4653
896.74	4634
896.861	4573
896.982	4930
897.103	5048
897.224	4839
897.345	4744
897.466	4656
897.587	4714
897.708	4870
897.828	4782
897.949	4660
898.07	4538
898.19	4637
898.311	4793
898.431	4687
898.552	4733
898.672	4774
898.792	4824
898.913	4710
899.033	4615
899.153	4497
899.273	4432
899.393	4508
899.513	4504
899.633	4531
899.753	4550
899.873	4527
899.993	4561
900.113	4538
900.232	4569
900.352	4516
900.472	4497
900.591	4383
900.711	4466
900.83	4436
900.95	4660
901.069	4630
901.189	4531
901.308	4352
901.427	4303
901.546	4360
901.665	4478
901.784	4497
901.904	4417
902.023	4295
902.141	4230
902.26	4120
902.379	4265
902.498	4246
902.617	4185
902.735	4348
902.854	4333
902.973	4352
903.091	4211
903.21	4192
903.328	4291
903.446	4253
903.565	4242
903.683	4402
903.801	4257
903.919	4360
904.038	4409
904.156	4325
904.274	4466
904.392	4348
904.51	4413
904.627	4462
904.745	4561
904.863	4630
904.981	4375
905.098	4310
905.216	4329
905.334	4443
905.451	4440
905.569	4447
905.686	4527
905.803	4531
905.921	4398
906.038	4542
906.155	4443
906.272	4440
906.389	4459
906.506	4329
906.623	4348
906.74	4344
906.857	4333
906.974	4318
907.091	4561
907.208	4691
907.324	4596
907.441	4493
907.557	4306
907.674	4337
907.79	4310
907.907	4356
908.023	4440
908.139	4523
908.256	4417
908.372	4455
908.488	4440
908.604	4348
908.72	4348
908.836	4383
908.952	4386
909.068	4383
909.184	4558
909.3	4474
909.415	4573
909.531	4538
909.647	4394
909.762	4375
909.878	4322
909.993	4447
910.108	4443
910.224	4466
910.339	4466
910.454	4344
910.57	4344
910.685	4287
910.8	4664
910.915	4618
911.03	4440
911.145	4287
911.259	4280
911.374	4360
911.489	4280
911.604	4265
911.718	4162
911.833	4215
911.947	4128
912.062	4040
912.176	4242
912.291	4227
912.405	4242
912.519	4462
912.633	4516
912.748	4329
912.862	4295
912.976	4196
913.09	4131
913.204	4196
913.318	4253
913.431	4356
913.545	4329
913.659	4409
913.772	4341
913.886	4249
914	4227
914.113	4375
914.226	4405
914.34	4394
914.453	4192
914.566	4417
914.68	4303
914.793	4341
914.906	4143
915.019	4131
915.132	4090
915.245	4204
915.358	4185
915.47	4249
915.583	4306
915.696	4291
915.809	4440
915.921	4424
916.034	4272
916.146	4219
916.259	4200
916.371	4394
916.483	4352
916.595	4242
916.708	4337
916.82	4329
916.932	4329
917.044	4356
917.156	4329
917.268	4257
917.38	4280
917.491	4261
917.603	4375
917.715	4440
917.826	4428
917.938	4329
918.049	4238
918.161	4413
918.272	4516
918.384	4516
918.495	4466
918.606	4253
918.717	4268
918.828	4303
918.939	4379
919.05	4227
919.161	4314
919.272	4120
919.383	4192
919.494	4440
919.604	4649
919.715	4440
919.826	4405
919.936	4386
920.047	4500
920.157	4428
920.267	4683
920.378	4531
920.488	4527
920.598	4706
920.708	4889
920.818	4748
920.928	4752
921.038	4930
921.148	4892
921.258	4573
921.368	4527
921.477	4493
921.587	4398
921.697	4379
921.806	4565
921.916	4440
922.025	4257
922.134	4249
922.244	4257
922.353	4287
922.462	4158
922.571	4116
922.68	4029
922.789	3998
922.898	4002
923.007	3979
923.116	4097
923.224	4063
923.333	4082
923.442	3949
923.55	3972
923.659	4010
923.767	4055
923.876	3972
923.984	4093
924.092	3953
924.201	4063
924.309	4150
924.417	4131
924.525	4040
924.633	4048
924.741	4911
924.849	3945
924.956	4093
925.064	3949
925.172	3922
925.279	3941
925.387	4086
925.494	4032
925.602	4211
925.709	4169
925.816	4040
925.924	4120
926.031	4219
926.138	4128
926.245	4181
926.352	4112
926.459	4188
926.566	4284
926.673	4166
926.779	4086
926.886	4093
926.993	3915
927.099	3937
927.206	3907
927.312	3953
927.419	4063
927.525	4044
927.631	4105
927.737	3953
927.843	3960
927.95	3865
928.056	3930
928.162	3983
928.267	4010
928.373	4668
928.479	4090
928.585	3850
928.69	4002
928.796	4071
928.901	3926
929.007	3831
929.112	3979
929.218	3949
929.323	3915
929.428	3903
929.533	4097
929.638	3926
929.743	4002
929.848	4044
929.953	4025
930.058	3911
930.163	3770
930.267	3835
930.372	3991
930.477	3842
930.581	4029
930.685	3915
930.79	3823
930.894	3861
930.998	3850
931.103	4040
931.207	3671
931.311	3686
931.415	3644
931.519	3477
931.623	3545
