Data from test_V78500241_616.txt Node
Date: Fri Mar 25 16:53:17 CST 2022
User: usil
Spectrometer: V785-0024
Trigger mode: 0
Integration Time (sec): 4.000000E-1
Scans to average: 1
Nonlinearity correction enabled: false
Boxcar width: 0
Storing dark spectrum: false
XAxis mode: Wavelengths
Number of Pixels in Spectrum: 1024
>>>>>Begin Spectral Data<<<<<
801.071	8084
801.214	7974
801.356	7978
801.499	7860
801.641	7864
801.783	7925
801.926	7947
802.068	7940
802.211	8020
802.353	8035
802.496	7906
802.638	7944
802.78	8008
802.923	7974
803.065	7868
803.208	7811
803.35	7970
803.492	8092
803.635	8168
803.777	8077
803.919	8142
804.061	8434
804.204	8168
804.346	8031
804.488	7982
804.63	8119
804.773	8035
804.915	8176
805.057	8366
805.199	8206
805.341	8301
805.483	8290
805.626	8183
805.768	8103
805.91	8210
806.052	8191
806.194	8107
806.336	8317
806.478	8180
806.62	8054
806.762	8153
806.904	8237
807.046	8457
807.188	8343
807.33	8317
807.472	8324
807.614	8157
807.756	8172
807.898	8005
808.04	7830
808.182	7921
808.324	7871
808.465	7967
808.607	8039
808.749	8096
808.891	8282
809.033	8237
809.174	8130
809.316	8081
809.458	8062
809.6	8008
809.741	7997
809.883	8039
810.025	8100
810.166	8050
810.308	8031
810.45	8031
810.591	7906
810.733	7731
810.875	7670
811.016	7597
811.158	7559
811.299	7616
811.441	7765
811.582	7628
811.724	7533
811.865	7556
812.007	7647
812.148	7658
812.29	7624
812.431	7769
812.573	7887
812.714	8012
812.855	8073
812.997	8206
813.138	8370
813.279	8225
813.421	8142
813.562	8024
813.703	7883
813.845	7807
813.986	7457
814.127	7308
814.268	7244
814.41	7240
814.551	7175
814.692	7171
814.833	7069
814.974	7133
815.115	7118
815.256	6985
815.397	6916
815.539	6966
815.68	6852
815.821	6757
815.962	6848
816.103	6897
816.244	6726
816.385	6639
816.526	6612
816.666	6513
816.807	6357
816.948	6384
817.089	6494
817.23	6422
817.371	6380
817.512	6380
817.653	6334
817.793	6388
817.934	6460
818.075	6467
818.216	6418
818.356	6422
818.497	6232
818.638	6136
818.778	6171
818.919	6098
819.06	6110
819.2	6319
819.341	6361
819.481	6319
819.622	6506
819.762	6757
819.903	6722
820.043	6601
820.184	6563
820.324	6551
820.465	6650
820.605	6589
820.746	6574
820.886	6494
821.026	6612
821.167	6650
821.307	6795
821.447	6692
821.588	6566
821.728	6544
821.868	6502
822.008	6331
822.149	6300
822.289	6315
822.429	6117
822.569	6072
822.709	6121
822.849	5866
822.99	5885
823.13	5961
823.27	5897
823.41	5733
823.55	5794
823.69	5752
823.83	5771
823.97	5745
824.11	5535
824.25	5490
824.389	5589
824.529	5585
824.669	5524
824.809	5623
824.949	5726
825.089	5668
825.228	5600
825.368	5410
825.508	5383
825.648	5349
825.787	5379
825.927	5391
826.067	5303
826.206	5330
826.346	5391
826.485	5452
826.625	5414
826.765	5566
826.904	5497
827.044	5231
827.183	5216
827.323	5193
827.462	5242
827.601	5155
827.741	5170
827.88	5223
828.02	5140
828.159	5273
828.298	5349
828.437	5398
828.577	5311
828.716	5516
828.855	5402
828.994	5212
829.134	5105
829.273	5185
829.412	5227
829.551	5170
829.69	5181
829.829	5254
829.968	5357
830.107	5288
830.246	5341
830.385	5185
830.524	5220
830.663	5102
830.802	4995
830.941	4949
831.08	4938
831.219	5010
831.357	5045
831.496	5216
831.635	4919
831.774	4881
831.913	4881
832.051	4763
832.19	4835
832.329	4911
832.467	4706
832.606	4706
832.744	4812
832.883	4744
833.022	4744
833.16	4847
833.299	4847
833.437	4854
833.576	4854
833.714	4831
833.852	4881
833.991	4915
834.129	5037
834.267	4927
834.406	4953
834.544	5033
834.682	4999
834.821	4987
834.959	5246
835.097	5037
835.235	5197
835.373	5128
835.511	5124
835.65	5071
835.788	5014
835.926	4911
836.064	4908
836.202	4915
836.34	5216
836.478	5292
836.615	5178
836.753	5227
836.891	5360
837.029	5330
837.167	5242
837.305	5170
837.443	5216
837.58	5147
837.718	5246
837.856	5204
837.993	5181
838.131	5250
838.269	5246
838.406	5258
838.544	5239
838.681	5083
838.819	5010
838.956	4904
839.094	4923
839.231	5041
839.369	5132
839.506	5471
839.643	5311
839.781	5132
839.918	5090
840.055	5102
840.193	5185
840.33	5128
840.467	5121
840.604	5254
840.742	5444
840.879	5060
841.016	5136
841.153	5212
841.29	5372
841.427	5360
841.564	5357
841.701	5383
841.838	5341
841.975	5261
842.112	5326
842.249	5124
842.385	5193
842.522	5368
842.659	5204
842.796	5132
842.933	5227
843.069	5151
843.206	5174
843.343	5349
843.479	5303
843.616	5311
843.752	5079
843.889	5105
844.025	5273
844.162	5029
844.298	5265
844.435	5094
844.571	5060
844.708	5261
844.844	5311
844.98	5341
845.117	5322
845.253	5155
845.389	5083
845.525	5170
845.661	5102
845.798	5140
845.934	5201
846.07	5079
846.206	5235
846.342	5296
846.478	5166
846.614	5029
846.75	5003
846.886	4980
847.022	5181
847.158	5052
847.294	5086
847.429	5147
847.565	5060
847.701	5299
847.837	4892
847.972	4843
848.108	5003
848.244	5014
848.379	4801
848.515	4755
848.65	4729
848.786	4797
848.921	4843
849.057	4866
849.192	4927
849.328	4824
849.463	4915
849.598	4820
849.734	4793
849.869	4752
850.004	4664
850.14	4679
850.275	4664
850.41	4542
850.545	4596
850.68	4641
850.815	4698
850.95	4687
851.085	4801
851.22	4828
851.355	4744
851.49	4634
851.625	4634
851.76	4679
851.895	4592
852.03	4531
852.165	4698
852.299	4729
852.434	4763
852.569	4793
852.703	4816
852.838	4938
852.973	4972
853.107	4934
853.242	4786
853.376	4679
853.511	4599
853.645	4668
853.78	4828
853.914	4797
854.048	4694
854.183	4698
854.317	4702
854.451	4870
854.585	4694
854.72	4637
854.854	4797
854.988	4637
855.122	4637
855.256	4588
855.39	4706
855.524	4786
855.658	4752
855.792	4752
855.926	4714
856.06	4759
856.194	4793
856.327	4759
856.461	4611
856.595	4637
856.729	4634
856.862	4816
856.996	4687
857.13	4721
857.263	4782
857.397	4835
857.53	4706
857.664	4790
857.797	4782
857.931	4854
858.064	4733
858.197	4767
858.331	4683
858.464	4694
858.597	4577
858.731	4641
858.864	4668
858.997	4637
859.13	4660
859.263	4664
859.396	4744
859.529	4626
859.662	4538
859.795	4603
859.928	4641
860.061	4729
860.194	4771
860.327	4588
860.46	4622
860.592	4763
860.725	4721
860.858	4725
860.99	4603
861.123	4523
861.256	4558
861.388	4596
861.521	5486
861.653	4523
861.786	4459
861.918	4497
862.05	4531
862.183	4554
862.315	4672
862.447	4721
862.58	4565
862.712	4447
862.844	4379
862.976	4516
863.108	4466
863.24	4908
863.372	4371
863.504	4421
863.636	4447
863.768	4516
863.9	4485
864.032	4386
864.164	4413
864.296	4497
864.428	4596
864.559	4569
864.691	4561
864.823	4531
864.954	4561
865.086	4485
865.217	4470
865.349	4443
865.48	4447
865.612	4542
865.743	4691
865.875	4493
866.006	4470
866.137	4538
866.269	4478
866.4	4394
866.531	4436
866.662	4440
866.793	4428
866.924	4428
867.055	4508
867.186	4424
867.317	4440
867.448	4424
867.579	4402
867.71	4440
867.841	4367
867.972	4481
868.103	4508
868.233	4462
868.364	4519
868.495	4512
868.625	4656
868.756	4801
868.886	4622
869.017	4645
869.147	4835
869.278	4805
869.408	4656
869.539	4630
869.669	4748
869.799	4706
869.929	4801
870.06	4778
870.19	4980
870.32	4911
870.45	4949
870.58	5048
870.71	5102
870.84	5083
870.97	4984
871.1	4911
871.23	5166
871.36	5220
871.489	5079
871.619	5079
871.749	5067
871.879	5162
872.008	5208
872.138	5098
872.267	4972
872.397	4843
872.526	4805
872.656	4744
872.785	4831
872.915	4976
873.044	4995
873.173	4934
873.303	4972
873.432	4980
873.561	4987
873.69	4923
873.819	4862
873.948	4949
874.077	4854
874.206	4774
874.335	4858
874.464	4911
874.593	5052
874.722	4976
874.851	5098
874.979	5094
875.108	5033
875.237	4892
875.365	4904
875.494	4980
875.623	4984
875.751	4843
875.88	4908
876.008	4987
876.136	5090
876.265	5204
876.393	5349
876.521	5212
876.65	5258
876.778	5136
876.906	5071
877.034	5045
877.162	5094
877.29	5022
877.418	5041
877.546	5037
877.674	5045
877.802	5064
877.93	5029
878.058	4953
878.185	4847
878.313	4946
878.441	4999
878.568	4816
878.696	4839
878.824	4953
878.951	5010
879.079	5124
879.206	5284
879.333	5155
879.461	5014
879.588	4972
879.715	5151
879.842	5242
879.97	4987
880.097	4816
880.224	4793
880.351	4812
880.478	4839
880.605	4805
880.732	4828
880.859	5102
880.986	4946
881.112	4968
881.239	4767
881.366	4717
881.493	4660
881.619	4622
881.746	4656
881.872	4634
881.999	4656
882.125	4755
882.252	4866
882.378	4786
882.505	5003
882.631	4801
882.757	4694
882.883	4736
883.01	4778
883.136	4748
883.262	4603
883.388	4645
883.514	4801
883.64	4881
883.766	4771
883.892	4645
884.018	4706
884.143	4942
884.269	5025
884.395	4683
884.52	4649
884.646	4672
884.772	4565
884.897	4596
885.023	4687
885.148	4771
885.274	4870
885.399	4847
885.524	4748
885.65	4706
885.775	4763
885.9	4759
886.025	4900
886.15	4812
886.275	4774
886.4	4672
886.525	4721
886.65	4706
886.775	4717
886.9	4889
887.025	5052
887.149	4824
887.274	4668
887.399	4615
887.523	4626
887.648	4618
887.773	4592
887.897	4759
888.021	4786
888.146	4672
888.27	4858
888.395	4946
888.519	4866
888.643	4790
888.767	4812
888.891	4672
889.015	4626
889.139	4641
889.263	4584
889.387	4801
889.511	4866
889.635	4862
889.759	4687
889.883	4672
890.006	4767
890.13	4839
890.254	4637
890.377	4656
890.501	4577
890.624	4527
890.748	4656
890.871	4523
890.995	4447
891.118	4356
891.241	4535
891.364	4554
891.488	4634
891.611	4466
891.734	4588
891.857	4645
891.98	4569
892.103	4706
892.226	4641
892.349	4554
892.471	4481
892.594	4645
892.717	4622
892.839	4603
892.962	4607
893.085	4637
893.207	4641
893.33	4478
893.452	4535
893.575	4675
893.697	4603
893.819	4809
893.941	4828
894.064	4729
894.186	4599
894.308	4580
894.43	4740
894.552	4862
894.674	4759
894.796	4561
894.918	4630
895.04	4558
895.161	4752
895.283	4691
895.405	4550
895.526	4626
895.648	4626
895.769	4683
895.891	4725
896.012	4740
896.134	4748
896.255	4683
896.376	4641
896.498	4611
896.619	4698
896.74	4603
896.861	4660
896.982	4946
897.103	5067
897.224	4835
897.345	4771
897.466	4687
897.587	4748
897.708	4858
897.828	4778
897.949	4675
898.07	4527
898.19	4656
898.311	4896
898.431	4721
898.552	4752
898.672	4831
898.792	4809
898.913	4782
899.033	4649
899.153	4508
899.273	4428
899.393	4554
899.513	4504
899.633	4523
899.753	4561
899.873	4500
899.993	4626
900.113	4550
900.232	4615
900.352	4535
900.472	4531
900.591	4455
900.711	4459
900.83	4451
900.95	4615
901.069	4694
901.189	4538
901.308	4383
901.427	4314
901.546	4390
901.665	4455
901.784	4500
901.904	4371
902.023	4325
902.141	4192
902.26	4192
902.379	4280
902.498	4257
902.617	4227
902.735	4413
902.854	4485
902.973	4337
903.091	4211
903.21	4253
903.328	4287
903.446	4284
903.565	4268
903.683	4310
903.801	4306
903.919	4455
904.038	4424
904.156	4360
904.274	4390
904.392	4386
904.51	4459
904.627	4462
904.745	4565
904.863	4641
904.981	4432
905.098	4310
905.216	4379
905.334	4466
905.451	4447
905.569	4455
905.686	4573
905.803	4538
905.921	4409
906.038	4531
906.155	4485
906.272	4394
906.389	4478
906.506	4451
906.623	4398
906.74	4383
906.857	4287
906.974	4402
907.091	4546
907.208	4675
907.324	4588
907.441	4535
907.557	4360
907.674	4333
907.79	4344
907.907	4325
908.023	4512
908.139	4519
908.256	4405
908.372	4459
908.488	4504
908.604	4352
908.72	4314
908.836	4390
908.952	4398
909.068	4417
909.184	4577
909.3	4485
909.415	4538
909.531	4580
909.647	4337
909.762	4356
909.878	4329
909.993	4440
910.108	4386
910.224	4398
910.339	4470
910.454	4436
910.57	4348
910.685	4352
910.8	4679
910.915	4626
911.03	4519
911.145	4375
911.259	4329
911.374	4386
911.489	4265
911.604	4291
911.718	4219
911.833	4207
911.947	4101
912.062	4006
912.176	4230
912.291	4276
912.405	4219
912.519	4478
912.633	4538
912.748	4390
912.862	4299
912.976	4181
913.09	4067
913.204	4169
913.318	4257
913.431	4360
913.545	4360
913.659	4459
913.772	4322
913.886	4246
914	4257
914.113	4367
914.226	4421
914.34	4405
914.453	4280
914.566	4440
914.68	4341
914.793	4341
914.906	4204
915.019	4109
915.132	4116
915.245	4211
915.358	4173
915.47	4253
915.583	4230
915.696	4322
915.809	4409
915.921	4462
916.034	4284
916.146	4238
916.259	4215
916.371	4371
916.483	4333
916.595	4291
916.708	4329
916.82	4352
916.932	4280
917.044	4303
917.156	4360
917.268	4219
917.38	4303
917.491	4291
917.603	4363
917.715	4424
917.826	4428
917.938	4341
918.049	4196
918.161	4405
918.272	4523
918.384	4588
918.495	4455
918.606	4344
918.717	4238
918.828	4329
918.939	4379
919.05	4268
919.161	4322
919.272	4166
919.383	4284
919.494	4474
919.604	4550
919.715	4409
919.826	4333
919.936	4436
920.047	4519
920.157	4504
920.267	4702
920.378	4527
920.488	4508
920.598	4748
920.708	4908
920.818	4740
920.928	4744
921.038	4904
921.148	4915
921.258	4603
921.368	4531
921.477	4504
921.587	4497
921.697	4413
921.806	4546
921.916	4402
922.025	4272
922.134	4310
922.244	4238
922.353	4341
922.462	4154
922.571	4097
922.68	3964
922.789	3968
922.898	4029
923.007	3987
923.116	4078
923.224	4063
923.333	4082
923.442	4025
923.55	3998
923.659	4006
923.767	4158
923.876	4029
923.984	4097
924.092	4006
924.201	4097
924.309	4109
924.417	4093
924.525	4086
924.633	4150
924.741	5075
924.849	3918
924.956	4120
925.064	3960
925.172	3876
925.279	3972
925.387	4093
925.494	4082
925.602	4211
925.709	4246
925.816	4048
925.924	4093
926.031	4227
926.138	4177
926.245	4196
926.352	4086
926.459	4223
926.566	4276
926.673	4181
926.779	4078
926.886	4131
926.993	3979
927.099	3975
927.206	3960
927.312	3930
927.419	4040
927.525	4044
927.631	4086
927.737	3964
927.843	3972
927.95	3880
928.056	3968
928.162	3956
928.267	4048
928.373	4683
928.479	4143
928.585	3899
928.69	4006
928.796	4112
928.901	3975
929.007	3816
929.112	4017
929.218	3994
929.323	3968
929.428	3991
929.533	4128
929.638	3934
929.743	3968
929.848	4044
929.953	4013
930.058	3884
930.163	3831
930.267	3823
930.372	3987
930.477	3804
930.581	4059
930.685	3922
930.79	3762
930.894	3869
930.998	3857
931.103	4036
931.207	3720
931.311	3705
931.415	3682
931.519	3492
931.623	3542
