Data from test_V78500241_1765.txt Node
Date: Fri Mar 25 17:01:16 CST 2022
User: usil
Spectrometer: V785-0024
Trigger mode: 0
Integration Time (sec): 4.000000E-1
Scans to average: 1
Nonlinearity correction enabled: false
Boxcar width: 0
Storing dark spectrum: false
XAxis mode: Wavelengths
Number of Pixels in Spectrum: 1024
>>>>>Begin Spectral Data<<<<<
801.071	8020
801.214	8008
801.356	7879
801.499	7921
801.641	7818
801.783	7822
801.926	8008
802.068	7921
802.211	8035
802.353	7944
802.496	7887
802.638	7913
802.78	7913
802.923	7921
803.065	7917
803.208	7860
803.35	7951
803.492	8069
803.635	8183
803.777	7993
803.919	8183
804.061	8450
804.204	8130
804.346	8035
804.488	8012
804.63	8130
804.773	8050
804.915	8142
805.057	8290
805.199	8168
805.341	8229
805.483	8248
805.626	8183
805.768	8088
805.91	8218
806.052	8218
806.194	8145
806.336	8305
806.478	8084
806.62	8111
806.762	8138
806.904	8347
807.046	8530
807.188	8434
807.33	8339
807.472	8244
807.614	8248
807.756	8157
807.898	7986
808.04	7913
808.182	7894
808.324	7902
808.465	7879
808.607	7997
808.749	8081
808.891	8153
809.033	8267
809.174	8279
809.316	8138
809.458	8142
809.6	8001
809.741	8046
809.883	8008
810.025	8081
810.166	8119
810.308	8039
810.45	8005
810.591	7902
810.733	7723
810.875	7681
811.016	7521
811.158	7472
811.299	7605
811.441	7689
811.582	7670
811.724	7601
811.865	7521
812.007	7582
812.148	7643
812.29	7624
812.431	7704
812.573	7890
812.714	8001
812.855	8103
812.997	8168
813.138	8305
813.279	8180
813.421	8100
813.562	7982
813.703	7913
813.845	7685
813.986	7400
814.127	7285
814.268	7168
814.41	7187
814.551	7213
814.692	7289
814.833	7118
814.974	7110
815.115	7076
815.256	6970
815.397	6939
815.539	6981
815.68	6814
815.821	6772
815.962	6837
816.103	6783
816.244	6696
816.385	6604
816.526	6627
816.666	6506
816.807	6361
816.948	6357
817.089	6418
817.23	6410
817.371	6410
817.512	6388
817.653	6433
817.793	6357
817.934	6410
818.075	6403
818.216	6437
818.356	6426
818.497	6232
818.638	6125
818.778	6175
818.919	6125
819.06	6133
819.2	6342
819.341	6304
819.481	6388
819.622	6551
819.762	6806
819.903	6741
820.043	6589
820.184	6559
820.324	6665
820.465	6669
820.605	6722
820.746	6604
820.886	6464
821.026	6669
821.167	6631
821.307	6692
821.447	6715
821.588	6692
821.728	6563
821.868	6494
822.008	6292
822.149	6350
822.289	6365
822.429	6102
822.569	6098
822.709	6087
822.849	5946
822.99	5931
823.13	5950
823.27	5920
823.41	5786
823.55	5783
823.69	5741
823.83	5771
823.97	5615
824.11	5505
824.25	5471
824.389	5581
824.529	5547
824.669	5512
824.809	5630
824.949	5718
825.089	5619
825.228	5512
825.368	5387
825.508	5345
825.648	5395
825.787	5379
825.927	5387
826.067	5337
826.206	5372
826.346	5421
826.485	5414
826.625	5337
826.765	5558
826.904	5471
827.044	5254
827.183	5208
827.323	5083
827.462	5227
827.601	5212
827.741	5223
827.88	5277
828.02	5098
828.159	5273
828.298	5326
828.437	5349
828.577	5303
828.716	5516
828.855	5299
828.994	5185
829.134	5109
829.273	5216
829.412	5147
829.551	5132
829.69	5174
829.829	5258
829.968	5364
830.107	5220
830.246	5288
830.385	5174
830.524	5204
830.663	5041
830.802	5033
830.941	4877
831.08	4854
831.219	4961
831.357	5018
831.496	5204
831.635	4946
831.774	4866
831.913	4847
832.051	4744
832.19	4736
832.329	4854
832.467	4748
832.606	4611
832.744	4721
832.883	4717
833.022	4740
833.16	4786
833.299	4835
833.437	4824
833.576	4843
833.714	4850
833.852	4908
833.991	4892
834.129	4896
834.267	4946
834.406	4873
834.544	4961
834.682	5010
834.821	4946
834.959	5128
835.097	4976
835.235	5174
835.373	5075
835.511	5121
835.65	5098
835.788	5029
835.926	4873
836.064	4934
836.202	4908
836.34	5174
836.478	5155
836.615	5117
836.753	5246
836.891	5250
837.029	5212
837.167	5201
837.305	5212
837.443	5178
837.58	5079
837.718	5273
837.856	5189
837.993	5132
838.131	5216
838.269	5155
838.406	5208
838.544	5170
838.681	5025
838.819	4991
838.956	4870
839.094	4938
839.231	4949
839.369	5064
839.506	5364
839.643	5239
839.781	5048
839.918	5014
840.055	5064
840.193	5109
840.33	5117
840.467	5140
840.604	5159
840.742	5372
840.879	5124
841.016	5121
841.153	5170
841.29	5364
841.427	5349
841.564	5357
841.701	5337
841.838	5315
841.975	5277
842.112	5254
842.249	5166
842.385	5098
842.522	5337
842.659	5189
842.796	5132
842.933	5181
843.069	5151
843.206	5136
843.343	5269
843.479	5254
843.616	5254
843.752	5033
843.889	5048
844.025	5181
844.162	5033
844.298	5212
844.435	5060
844.571	5094
844.708	5212
844.844	5307
844.98	5372
845.117	5277
845.253	5143
845.389	5121
845.525	5159
845.661	5113
845.798	5064
845.934	5128
846.07	5083
846.206	5174
846.342	5284
846.478	5181
846.614	5003
846.75	4976
846.886	4946
847.022	5151
847.158	5014
847.294	5056
847.429	5041
847.565	5037
847.701	5326
847.837	4839
847.972	4748
848.108	4946
848.244	4930
848.379	4752
848.515	4744
848.65	4660
848.786	4710
848.921	4790
849.057	4835
849.192	4911
849.328	4782
849.463	4850
849.598	4790
849.734	4698
849.869	4698
850.004	4573
850.14	4637
850.275	4630
850.41	4497
850.545	4580
850.68	4584
850.815	4603
850.95	4603
851.085	4854
851.22	4778
851.355	4630
851.49	4615
851.625	4649
851.76	4634
851.895	4569
852.03	4546
852.165	4660
852.299	4698
852.434	4763
852.569	4736
852.703	4740
852.838	4805
852.973	4915
853.107	4942
853.242	4755
853.376	4649
853.511	4577
853.645	4596
853.78	4797
853.914	4645
854.048	4687
854.183	4626
854.317	4706
854.451	4858
854.585	4675
854.72	4717
854.854	4717
854.988	4588
855.122	4698
855.256	4554
855.39	4599
855.524	4740
855.658	4656
855.792	4740
855.926	4733
856.06	4721
856.194	4786
856.327	4733
856.461	4653
856.595	4618
856.729	4615
856.862	4725
856.996	4683
857.13	4710
857.263	4771
857.397	4790
857.53	4664
857.664	4706
857.797	4797
857.931	4755
858.064	4675
858.197	4717
858.331	4641
858.464	4611
858.597	4546
858.731	4630
858.864	4599
858.997	4599
859.13	4626
859.263	4698
859.396	4679
859.529	4603
859.662	4588
859.795	4554
859.928	4641
860.061	4725
860.194	4744
860.327	4577
860.46	4561
860.592	4721
860.725	4702
860.858	4721
860.99	4516
861.123	4519
861.256	4569
861.388	4577
861.521	5292
861.653	4459
861.786	4436
861.918	4440
862.05	4481
862.183	4546
862.315	4618
862.447	4679
862.58	4565
862.712	4413
862.844	4348
862.976	4485
863.108	4413
863.24	4877
863.372	4348
863.504	4394
863.636	4413
863.768	4470
863.9	4383
864.032	4379
864.164	4390
864.296	4462
864.428	4512
864.559	4538
864.691	4542
864.823	4527
864.954	4481
865.086	4451
865.217	4466
865.349	4443
865.48	4497
865.612	4481
865.743	4607
865.875	4466
866.006	4440
866.137	4413
866.269	4436
866.4	4455
866.531	4440
866.662	4394
866.793	4390
866.924	4436
867.055	4485
867.186	4481
867.317	4417
867.448	4386
867.579	4379
867.71	4421
867.841	4394
867.972	4462
868.103	4470
868.233	4421
868.364	4451
868.495	4485
868.625	4653
868.756	4744
868.886	4561
869.017	4664
869.147	4782
869.278	4725
869.408	4702
869.539	4668
869.669	4694
869.799	4714
869.929	4793
870.06	4733
870.19	4915
870.32	4942
870.45	4927
870.58	4995
870.71	5121
870.84	5056
870.97	4938
871.1	4919
871.23	5128
871.36	5140
871.489	5022
871.619	5067
871.749	5109
871.879	5086
872.008	5162
872.138	5064
872.267	4919
872.397	4858
872.526	4835
872.656	4694
872.785	4812
872.915	4968
873.044	5060
873.173	4927
873.303	4949
873.432	4961
873.561	4949
873.69	4862
873.819	4828
873.948	4892
874.077	4820
874.206	4725
874.335	4740
874.464	4961
874.593	5041
874.722	4957
874.851	5086
874.979	5071
875.108	5010
875.237	4896
875.365	4877
875.494	4877
875.623	4930
875.751	4797
875.88	4938
876.008	4968
876.136	5033
876.265	5143
876.393	5341
876.521	5303
876.65	5204
876.778	5181
876.906	5067
877.034	5048
877.162	4984
877.29	4942
877.418	5045
877.546	4991
877.674	5033
877.802	5014
877.93	5010
878.058	4908
878.185	4885
878.313	4995
878.441	4972
878.568	4816
878.696	4866
878.824	4892
878.951	5018
879.079	5147
879.206	5330
879.333	5006
879.461	5010
879.588	5048
879.715	5083
879.842	5181
879.97	5037
880.097	4771
880.224	4755
880.351	4790
880.478	4790
880.605	4839
880.732	4831
880.859	5094
880.986	4919
881.112	4930
881.239	4755
881.366	4615
881.493	4618
881.619	4584
881.746	4694
881.872	4660
881.999	4637
882.125	4672
882.252	4744
882.378	4805
882.505	4942
882.631	4786
882.757	4653
882.883	4733
883.01	4736
883.136	4615
883.262	4588
883.388	4573
883.514	4824
883.64	4866
883.766	4831
883.892	4656
884.018	4702
884.143	4919
884.269	4976
884.395	4668
884.52	4611
884.646	4626
884.772	4573
884.897	4535
885.023	4694
885.148	4786
885.274	4843
885.399	4812
885.524	4702
885.65	4744
885.775	4763
885.9	4698
886.025	4805
886.15	4736
886.275	4691
886.4	4653
886.525	4748
886.65	4679
886.775	4717
886.9	4896
887.025	5018
887.149	4831
887.274	4637
887.399	4561
887.523	4603
887.648	4558
887.773	4592
887.897	4782
888.021	4797
888.146	4675
888.27	4820
888.395	4927
888.519	4793
888.643	4771
888.767	4835
888.891	4710
889.015	4573
889.139	4592
889.263	4607
889.387	4740
889.511	4858
889.635	4778
889.759	4611
889.883	4672
890.006	4771
890.13	4843
890.254	4550
890.377	4675
890.501	4561
890.624	4516
890.748	4626
890.871	4565
890.995	4424
891.118	4379
891.241	4512
891.364	4550
891.488	4550
891.611	4535
891.734	4577
891.857	4565
891.98	4599
892.103	4653
892.226	4569
892.349	4558
892.471	4459
892.594	4573
892.717	4599
892.839	4516
892.962	4573
893.085	4641
893.207	4660
893.33	4466
893.452	4531
893.575	4683
893.697	4596
893.819	4782
893.941	4812
894.064	4748
894.186	4603
894.308	4573
894.43	4714
894.552	4854
894.674	4736
894.796	4538
894.918	4569
895.04	4577
895.161	4694
895.283	4668
895.405	4554
895.526	4584
895.648	4660
895.769	4694
895.891	4702
896.012	4736
896.134	4736
896.255	4733
896.376	4637
896.498	4592
896.619	4668
896.74	4607
896.861	4698
896.982	4904
897.103	5071
897.224	4778
897.345	4714
897.466	4687
897.587	4763
897.708	4835
897.828	4771
897.949	4645
898.07	4561
898.19	4641
898.311	4839
898.431	4618
898.552	4740
898.672	4824
898.792	4759
898.913	4714
899.033	4618
899.153	4516
899.273	4405
899.393	4519
899.513	4500
899.633	4508
899.753	4542
899.873	4538
899.993	4558
900.113	4531
900.232	4592
900.352	4519
900.472	4497
900.591	4329
900.711	4527
900.83	4432
900.95	4603
901.069	4702
901.189	4565
901.308	4329
901.427	4303
901.546	4367
901.665	4447
901.784	4508
901.904	4432
902.023	4318
902.141	4154
902.26	4169
902.379	4268
902.498	4230
902.617	4219
902.735	4394
902.854	4379
902.973	4424
903.091	4238
903.21	4223
903.328	4268
903.446	4242
903.565	4246
903.683	4352
903.801	4325
903.919	4379
904.038	4447
904.156	4276
904.274	4455
904.392	4379
904.51	4474
904.627	4447
904.745	4599
904.863	4653
904.981	4390
905.098	4333
905.216	4367
905.334	4428
905.451	4428
905.569	4436
905.686	4546
905.803	4580
905.921	4398
906.038	4565
906.155	4451
906.272	4375
906.389	4481
906.506	4306
906.623	4363
906.74	4402
906.857	4268
906.974	4329
907.091	4615
907.208	4691
907.324	4615
907.441	4535
907.557	4352
907.674	4329
907.79	4295
907.907	4394
908.023	4470
908.139	4485
908.256	4421
908.372	4455
908.488	4489
908.604	4352
908.72	4295
908.836	4341
908.952	4352
909.068	4424
909.184	4565
909.3	4485
909.415	4584
909.531	4565
909.647	4352
909.762	4375
909.878	4344
909.993	4421
910.108	4440
910.224	4398
910.339	4443
910.454	4375
910.57	4341
910.685	4299
910.8	4603
910.915	4561
911.03	4519
911.145	4299
911.259	4333
911.374	4371
911.489	4348
911.604	4253
911.718	4204
911.833	4188
911.947	4059
912.062	4013
912.176	4204
912.291	4246
912.405	4246
912.519	4459
912.633	4546
912.748	4379
912.862	4322
912.976	4204
913.09	4067
913.204	4196
913.318	4219
913.431	4318
913.545	4436
913.659	4455
913.772	4352
913.886	4238
914	4200
914.113	4352
914.226	4428
914.34	4405
914.453	4261
914.566	4402
914.68	4314
914.793	4375
914.906	4139
915.019	4166
915.132	4093
915.245	4147
915.358	4181
915.47	4223
915.583	4211
915.696	4284
915.809	4390
915.921	4436
916.034	4287
916.146	4238
916.259	4223
916.371	4352
916.483	4383
916.595	4207
916.708	4329
916.82	4314
916.932	4344
917.044	4329
917.156	4356
917.268	4261
917.38	4268
917.491	4249
917.603	4348
917.715	4409
917.826	4421
917.938	4371
918.049	4257
918.161	4409
918.272	4527
918.384	4531
918.495	4489
918.606	4337
918.717	4238
918.828	4329
918.939	4360
919.05	4303
919.161	4329
919.272	4131
919.383	4246
919.494	4417
919.604	4618
919.715	4413
919.826	4333
919.936	4371
920.047	4508
920.157	4504
920.267	4679
920.378	4535
920.488	4554
920.598	4706
920.708	4904
920.818	4790
920.928	4759
921.038	4946
921.148	4965
921.258	4615
921.368	4558
921.477	4474
921.587	4440
921.697	4314
921.806	4554
921.916	4398
922.025	4257
922.134	4280
922.244	4215
922.353	4322
922.462	4169
922.571	4150
922.68	4002
922.789	3991
922.898	4067
923.007	3968
923.116	4097
923.224	4036
923.333	4063
923.442	3945
923.55	3975
923.659	4002
923.767	4109
923.876	4010
923.984	4101
924.092	3991
924.201	4082
924.309	4128
924.417	4128
924.525	4071
924.633	4109
924.741	5045
924.849	3941
924.956	4101
925.064	3956
925.172	3911
925.279	3960
925.387	4040
925.494	4074
925.602	4154
925.709	4185
925.816	4032
925.924	4169
926.031	4234
926.138	4211
926.245	4207
926.352	4109
926.459	4234
926.566	4306
926.673	4166
926.779	4067
926.886	4082
926.993	3983
927.099	3930
927.206	3918
927.312	3949
927.419	4025
927.525	3994
927.631	4101
927.737	3896
927.843	3937
927.95	3838
928.056	3915
928.162	3968
928.267	4021
928.373	4577
928.479	4105
928.585	3892
928.69	4006
928.796	4059
928.901	3994
929.007	3857
929.112	3991
929.218	3975
929.323	3937
929.428	3911
929.533	4124
929.638	3899
929.743	4006
929.848	4067
929.953	3968
930.058	3960
930.163	3778
930.267	3823
930.372	3975
930.477	3804
930.581	4101
930.685	3941
930.79	3873
930.894	3899
930.998	3880
931.103	4051
931.207	3694
931.311	3675
931.415	3686
931.519	3507
931.623	3553
