Data from test_V78500241_386.txt Node
Date: Fri Mar 25 16:51:41 CST 2022
User: usil
Spectrometer: V785-0024
Trigger mode: 0
Integration Time (sec): 4.000000E-1
Scans to average: 1
Nonlinearity correction enabled: false
Boxcar width: 0
Storing dark spectrum: false
XAxis mode: Wavelengths
Number of Pixels in Spectrum: 1024
>>>>>Begin Spectral Data<<<<<
801.071	8065
801.214	8043
801.356	7928
801.499	7898
801.641	7803
801.783	7875
801.926	7936
802.068	7986
802.211	7970
802.353	7982
802.496	7860
802.638	7875
802.78	7986
802.923	8020
803.065	7788
803.208	7921
803.35	7928
803.492	8100
803.635	8107
803.777	8008
803.919	8115
804.061	8446
804.204	8202
804.346	8096
804.488	8027
804.63	8050
804.773	8046
804.915	8058
805.057	8332
805.199	8233
805.341	8164
805.483	8267
805.626	8183
805.768	8130
805.91	8153
806.052	8180
806.194	8050
806.336	8389
806.478	8206
806.62	8157
806.762	8218
806.904	8275
807.046	8438
807.188	8320
807.33	8248
807.472	8339
807.614	8138
807.756	8248
807.898	8054
808.04	7921
808.182	7940
808.324	7963
808.465	7906
808.607	8092
808.749	8138
808.891	8252
809.033	8286
809.174	8172
809.316	8084
809.458	8062
809.6	8058
809.741	8016
809.883	7989
810.025	8054
810.166	8084
810.308	8054
810.45	8058
810.591	7894
810.733	7765
810.875	7715
811.016	7567
811.158	7521
811.299	7693
811.441	7799
811.582	7776
811.724	7597
811.865	7597
812.007	7620
812.148	7540
812.29	7636
812.431	7822
812.573	7932
812.714	7967
812.855	8100
812.997	8191
813.138	8328
813.279	8218
813.421	8100
813.562	8020
813.703	7898
813.845	7864
813.986	7533
814.127	7354
814.268	7274
814.41	7213
814.551	7175
814.692	7278
814.833	7080
814.974	7080
815.115	7061
815.256	6932
815.397	6871
815.539	6920
815.68	6833
815.821	6791
815.962	6897
816.103	6814
816.244	6783
816.385	6642
816.526	6684
816.666	6464
816.807	6304
816.948	6437
817.089	6506
817.23	6460
817.371	6422
817.512	6372
817.653	6479
817.793	6384
817.934	6448
818.075	6464
818.216	6429
818.356	6467
818.497	6251
818.638	6178
818.778	6155
818.919	6216
819.06	6186
819.2	6380
819.341	6311
819.481	6410
819.622	6555
819.762	6749
819.903	6730
820.043	6612
820.184	6601
820.324	6612
820.465	6726
820.605	6707
820.746	6635
820.886	6582
821.026	6662
821.167	6779
821.307	6863
821.447	6856
821.588	6688
821.728	6620
821.868	6593
822.008	6357
822.149	6361
822.289	6448
822.429	6205
822.569	6136
822.709	6201
822.849	5988
822.99	5973
823.13	5958
823.27	5916
823.41	5866
823.55	5809
823.69	5824
823.83	5832
823.97	5703
824.11	5611
824.25	5608
824.389	5581
824.529	5608
824.669	5566
824.809	5691
824.949	5707
825.089	5672
825.228	5615
825.368	5463
825.508	5414
825.648	5410
825.787	5455
825.927	5421
826.067	5357
826.206	5364
826.346	5444
826.485	5425
826.625	5482
826.765	5585
826.904	5551
827.044	5322
827.183	5242
827.323	5143
827.462	5292
827.601	5227
827.741	5227
827.88	5208
828.02	5170
828.159	5280
828.298	5284
828.437	5417
828.577	5303
828.716	5524
828.855	5391
828.994	5220
829.134	5178
829.273	5223
829.412	5227
829.551	5155
829.69	5174
829.829	5261
829.968	5448
830.107	5345
830.246	5307
830.385	5242
830.524	5201
830.663	5155
830.802	5022
830.941	4946
831.08	4877
831.219	5033
831.357	5041
831.496	5193
831.635	4957
831.774	4896
831.913	4908
832.051	4755
832.19	4820
832.329	4934
832.467	4755
832.606	4721
832.744	4797
832.883	4786
833.022	4763
833.16	4816
833.299	4942
833.437	4892
833.576	4866
833.714	4911
833.852	4900
833.991	4911
834.129	5037
834.267	5006
834.406	4980
834.544	5014
834.682	5086
834.821	5003
834.959	5208
835.097	5018
835.235	5254
835.373	5155
835.511	5159
835.65	5113
835.788	5056
835.926	4900
836.064	4900
836.202	4965
836.34	5216
836.478	5258
836.615	5155
836.753	5269
836.891	5330
837.029	5307
837.167	5273
837.305	5250
837.443	5212
837.58	5132
837.718	5284
837.856	5223
837.993	5258
838.131	5307
838.269	5273
838.406	5258
838.544	5208
838.681	5079
838.819	5048
838.956	4911
839.094	4946
839.231	5060
839.369	5098
839.506	5444
839.643	5303
839.781	5136
839.918	5060
840.055	5162
840.193	5124
840.33	5193
840.467	5170
840.604	5208
840.742	5497
840.879	5159
841.016	5121
841.153	5159
841.29	5368
841.427	5433
841.564	5421
841.701	5425
841.838	5254
841.975	5254
842.112	5280
842.249	5151
842.385	5181
842.522	5379
842.659	5227
842.796	5170
842.933	5223
843.069	5170
843.206	5201
843.343	5353
843.479	5261
843.616	5288
843.752	5041
843.889	5079
844.025	5258
844.162	5014
844.298	5273
844.435	5151
844.571	5052
844.708	5204
844.844	5357
844.98	5353
845.117	5345
845.253	5201
845.389	5064
845.525	5208
845.661	5185
845.798	5086
845.934	5166
846.07	5086
846.206	5204
846.342	5311
846.478	5193
846.614	5121
846.75	4961
846.886	4953
847.022	5197
847.158	5052
847.294	5098
847.429	5151
847.565	5117
847.701	5349
847.837	4873
847.972	4843
848.108	4961
848.244	4980
848.379	4816
848.515	4759
848.65	4717
848.786	4824
848.921	4801
849.057	4934
849.192	4961
849.328	4831
849.463	4938
849.598	4854
849.734	4805
849.869	4767
850.004	4691
850.14	4717
850.275	4626
850.41	4573
850.545	4618
850.68	4668
850.815	4691
850.95	4622
851.085	4839
851.22	4740
851.355	4664
851.49	4634
851.625	4653
851.76	4714
851.895	4592
852.03	4550
852.165	4675
852.299	4786
852.434	4824
852.569	4797
852.703	4744
852.838	4919
852.973	4942
853.107	4953
853.242	4778
853.376	4679
853.511	4588
853.645	4645
853.78	4843
853.914	4706
854.048	4694
854.183	4683
854.317	4748
854.451	4923
854.585	4714
854.72	4679
854.854	4774
854.988	4630
855.122	4672
855.256	4577
855.39	4679
855.524	4809
855.658	4771
855.792	4725
855.926	4767
856.06	4793
856.194	4824
856.327	4736
856.461	4615
856.595	4653
856.729	4679
856.862	4748
856.996	4706
857.13	4793
857.263	4752
857.397	4862
857.53	4683
857.664	4797
857.797	4801
857.931	4782
858.064	4702
858.197	4778
858.331	4694
858.464	4668
858.597	4497
858.731	4641
858.864	4687
858.997	4626
859.13	4771
859.263	4698
859.396	4752
859.529	4599
859.662	4634
859.795	4565
859.928	4668
860.061	4812
860.194	4755
860.327	4653
860.46	4596
860.592	4767
860.725	4664
860.858	4740
860.99	4607
861.123	4554
861.256	4535
861.388	4664
861.521	5357
861.653	4542
861.786	4481
861.918	4542
862.05	4546
862.183	4542
862.315	4634
862.447	4694
862.58	4596
862.712	4402
862.844	4325
862.976	4531
863.108	4489
863.24	4831
863.372	4356
863.504	4466
863.636	4432
863.768	4519
863.9	4474
864.032	4390
864.164	4466
864.296	4561
864.428	4596
864.559	4630
864.691	4554
864.823	4580
864.954	4519
865.086	4531
865.217	4512
865.349	4466
865.48	4485
865.612	4550
865.743	4622
865.875	4500
866.006	4497
866.137	4455
866.269	4504
866.4	4538
866.531	4478
866.662	4428
866.793	4455
866.924	4451
867.055	4523
867.186	4455
867.317	4440
867.448	4390
867.579	4428
867.71	4538
867.841	4383
867.972	4489
868.103	4497
868.233	4481
868.364	4474
868.495	4538
868.625	4691
868.756	4805
868.886	4626
869.017	4660
869.147	4839
869.278	4797
869.408	4653
869.539	4694
869.669	4790
869.799	4721
869.929	4797
870.06	4778
870.19	4972
870.32	4949
870.45	4991
870.58	5102
870.71	5124
870.84	5143
870.97	4949
871.1	4968
871.23	5155
871.36	5109
871.489	5010
871.619	5064
871.749	5128
871.879	5208
872.008	5212
872.138	5083
872.267	5045
872.397	4881
872.526	4850
872.656	4774
872.785	4801
872.915	4961
873.044	5113
873.173	4934
873.303	4995
873.432	5010
873.561	4999
873.69	4927
873.819	4885
873.948	4908
874.077	4854
874.206	4778
874.335	4816
874.464	4934
874.593	5029
874.722	4965
874.851	5166
874.979	5117
875.108	5041
875.237	4980
875.365	4873
875.494	4919
875.623	5025
875.751	4908
875.88	4923
876.008	5014
876.136	5025
876.265	5231
876.393	5372
876.521	5261
876.65	5265
876.778	5227
876.906	5105
877.034	5003
877.162	5102
877.29	4995
877.418	5159
877.546	5113
877.674	5041
877.802	5113
877.93	5029
878.058	4927
878.185	4873
878.313	4965
878.441	5006
878.568	4805
878.696	4915
878.824	4942
878.951	5010
879.079	5181
879.206	5296
879.333	5151
879.461	5014
879.588	5071
879.715	5132
879.842	5269
879.97	5029
880.097	4812
880.224	4771
880.351	4828
880.478	4889
880.605	4828
880.732	4828
880.859	5086
880.986	4908
881.112	4889
881.239	4797
881.366	4721
881.493	4607
881.619	4599
881.746	4717
881.872	4645
881.999	4687
882.125	4672
882.252	4763
882.378	4839
882.505	5003
882.631	4828
882.757	4694
882.883	4729
883.01	4725
883.136	4687
883.262	4615
883.388	4660
883.514	4866
883.64	4881
883.766	4797
883.892	4714
884.018	4721
884.143	4927
884.269	5033
884.395	4740
884.52	4660
884.646	4672
884.772	4577
884.897	4569
885.023	4691
885.148	4847
885.274	4889
885.399	4790
885.524	4740
885.65	4744
885.775	4771
885.9	4710
886.025	4839
886.15	4835
886.275	4778
886.4	4672
886.525	4771
886.65	4698
886.775	4736
886.9	5003
887.025	5029
887.149	4854
887.274	4683
887.399	4603
887.523	4584
887.648	4649
887.773	4668
887.897	4843
888.021	4782
888.146	4733
888.27	4850
888.395	4976
888.519	4816
888.643	4839
888.767	4843
888.891	4736
889.015	4664
889.139	4618
889.263	4637
889.387	4740
889.511	4915
889.635	4797
889.759	4729
889.883	4683
890.006	4714
890.13	4892
890.254	4630
890.377	4714
890.501	4500
890.624	4550
890.748	4675
890.871	4519
890.995	4440
891.118	4424
891.241	4500
891.364	4588
891.488	4653
891.611	4497
891.734	4577
891.857	4611
891.98	4558
892.103	4694
892.226	4596
892.349	4573
892.471	4455
892.594	4577
892.717	4603
892.839	4584
892.962	4607
893.085	4672
893.207	4664
893.33	4470
893.452	4550
893.575	4706
893.697	4672
893.819	4805
893.941	4873
894.064	4748
894.186	4599
894.308	4607
894.43	4782
894.552	4835
894.674	4782
894.796	4588
894.918	4592
895.04	4592
895.161	4710
895.283	4710
895.405	4599
895.526	4672
895.648	4706
895.769	4744
895.891	4736
896.012	4793
896.134	4729
896.255	4748
896.376	4641
896.498	4630
896.619	4706
896.74	4653
896.861	4668
896.982	4946
897.103	5045
897.224	4828
897.345	4767
897.466	4702
897.587	4755
897.708	4862
897.828	4790
897.949	4679
898.07	4592
898.19	4649
898.311	4793
898.431	4714
898.552	4793
898.672	4805
898.792	4828
898.913	4706
899.033	4687
899.153	4569
899.273	4436
899.393	4512
899.513	4554
899.633	4535
899.753	4599
899.873	4497
899.993	4599
900.113	4550
900.232	4611
900.352	4554
900.472	4516
900.591	4436
900.711	4504
900.83	4474
900.95	4656
901.069	4714
901.189	4607
901.308	4356
901.427	4322
901.546	4375
901.665	4428
901.784	4527
901.904	4375
902.023	4352
902.141	4200
902.26	4135
902.379	4303
902.498	4272
902.617	4261
902.735	4394
902.854	4451
902.973	4352
903.091	4242
903.21	4211
903.328	4333
903.446	4268
903.565	4261
903.683	4363
903.801	4318
903.919	4409
904.038	4443
904.156	4322
904.274	4413
904.392	4421
904.51	4428
904.627	4481
904.745	4584
904.863	4615
904.981	4447
905.098	4341
905.216	4363
905.334	4485
905.451	4432
905.569	4436
905.686	4535
905.803	4584
905.921	4421
906.038	4554
906.155	4493
906.272	4432
906.389	4504
906.506	4333
906.623	4424
906.74	4398
906.857	4257
906.974	4402
907.091	4599
907.208	4706
907.324	4580
907.441	4508
907.557	4352
907.674	4394
907.79	4348
907.907	4459
908.023	4451
908.139	4504
908.256	4440
908.372	4516
908.488	4497
908.604	4314
908.72	4344
908.836	4356
908.952	4344
909.068	4428
909.184	4569
909.3	4478
909.415	4577
909.531	4577
909.647	4341
909.762	4394
909.878	4341
909.993	4459
910.108	4421
910.224	4436
910.339	4538
910.454	4360
910.57	4409
910.685	4337
910.8	4653
910.915	4622
911.03	4504
911.145	4363
911.259	4333
911.374	4371
911.489	4341
911.604	4291
911.718	4215
911.833	4223
911.947	4093
912.062	4025
912.176	4249
912.291	4322
912.405	4291
912.519	4481
912.633	4538
912.748	4386
912.862	4371
912.976	4280
913.09	4105
913.204	4196
913.318	4276
913.431	4375
913.545	4371
913.659	4474
913.772	4390
913.886	4215
914	4238
914.113	4424
914.226	4478
914.34	4394
914.453	4211
914.566	4440
914.68	4348
914.793	4329
914.906	4162
915.019	4139
915.132	4090
915.245	4223
915.358	4219
915.47	4246
915.583	4268
915.696	4280
915.809	4443
915.921	4436
916.034	4223
916.146	4268
916.259	4265
916.371	4375
916.483	4356
916.595	4299
916.708	4371
916.82	4322
916.932	4344
917.044	4341
917.156	4310
917.268	4246
917.38	4325
917.491	4280
917.603	4329
917.715	4398
917.826	4421
917.938	4322
918.049	4272
918.161	4402
918.272	4474
918.384	4516
918.495	4436
918.606	4303
918.717	4276
918.828	4383
918.939	4398
919.05	4272
919.161	4318
919.272	4173
919.383	4249
919.494	4497
919.604	4630
919.715	4413
919.826	4386
919.936	4432
920.047	4531
920.157	4538
920.267	4672
920.378	4523
920.488	4519
920.598	4721
920.708	4915
920.818	4771
920.928	4790
921.038	4976
921.148	4953
921.258	4653
921.368	4611
921.477	4512
921.587	4462
921.697	4405
921.806	4558
921.916	4485
922.025	4265
922.134	4234
922.244	4246
922.353	4314
922.462	4177
922.571	4139
922.68	4010
922.789	3991
922.898	4093
923.007	4002
923.116	4071
923.224	4086
923.333	4025
923.442	3998
923.55	4010
923.659	4071
923.767	4112
923.876	4044
923.984	4150
924.092	4021
924.201	4105
924.309	4063
924.417	4143
924.525	4086
924.633	4116
924.741	5128
924.849	3892
924.956	4192
925.064	3956
925.172	3983
925.279	3945
925.387	4078
925.494	4074
925.602	4215
925.709	4181
925.816	4086
925.924	4101
926.031	4303
926.138	4200
926.245	4204
926.352	4128
926.459	4287
926.566	4383
926.673	4109
926.779	4124
926.886	4078
926.993	3998
927.099	4006
927.206	3953
927.312	3964
927.419	4090
927.525	4040
927.631	4082
927.737	3964
927.843	3979
927.95	3880
928.056	3953
928.162	3945
928.267	4082
928.373	4736
928.479	4116
928.585	3907
928.69	4059
928.796	4093
928.901	3956
929.007	3819
929.112	4044
929.218	3975
929.323	3949
929.428	3941
929.533	4109
929.638	3918
929.743	3926
929.848	4029
929.953	4032
930.058	3953
930.163	3774
930.267	3842
930.372	4036
930.477	3838
930.581	4086
930.685	3956
930.79	3819
930.894	3869
930.998	3869
931.103	4017
931.207	3728
931.311	3694
931.415	3663
931.519	3530
931.623	3549
