Data from test_V78500241_1363.txt Node
Date: Fri Mar 25 16:58:28 CST 2022
User: usil
Spectrometer: V785-0024
Trigger mode: 0
Integration Time (sec): 4.000000E-1
Scans to average: 1
Nonlinearity correction enabled: false
Boxcar width: 0
Storing dark spectrum: false
XAxis mode: Wavelengths
Number of Pixels in Spectrum: 1024
>>>>>Begin Spectral Data<<<<<
801.071	8027
801.214	8001
801.356	7913
801.499	7807
801.641	7734
801.783	7849
801.926	7921
802.068	7928
802.211	8027
802.353	7967
802.496	7833
802.638	7818
802.78	7902
802.923	7951
803.065	7921
803.208	7868
803.35	7955
803.492	8050
803.635	8142
803.777	7970
803.919	8153
804.061	8457
804.204	8180
804.346	8035
804.488	7959
804.63	8153
804.773	8008
804.915	8088
805.057	8298
805.199	8195
805.341	8221
805.483	8256
805.626	8191
805.768	8123
805.91	8195
806.052	8164
806.194	8073
806.336	8328
806.478	8134
806.62	8035
806.762	8161
806.904	8324
807.046	8438
807.188	8286
807.33	8263
807.472	8317
807.614	8153
807.756	8123
807.898	8020
808.04	7917
808.182	7894
808.324	7936
808.465	7909
808.607	8096
808.749	8206
808.891	8138
809.033	8252
809.174	8256
809.316	8027
809.458	7986
809.6	7955
809.741	8062
809.883	8046
810.025	8115
810.166	8058
810.308	8008
810.45	7951
810.591	7822
810.733	7715
810.875	7575
811.016	7529
811.158	7533
811.299	7639
811.441	7704
811.582	7681
811.724	7556
811.865	7483
812.007	7647
812.148	7548
812.29	7639
812.431	7696
812.573	7868
812.714	7894
812.855	8149
812.997	8259
813.138	8423
813.279	8191
813.421	8092
813.562	7982
813.703	7845
813.845	7704
813.986	7419
814.127	7221
814.268	7255
814.41	7209
814.551	7095
814.692	7114
814.833	7065
814.974	7149
815.115	7008
815.256	6886
815.397	6886
815.539	6966
815.68	6787
815.821	6677
815.962	6871
816.103	6821
816.244	6650
816.385	6578
816.526	6642
816.666	6475
816.807	6315
816.948	6388
817.089	6486
817.23	6384
817.371	6273
817.512	6346
817.653	6395
817.793	6353
817.934	6346
818.075	6509
818.216	6441
818.356	6399
818.497	6300
818.638	6136
818.778	6140
818.919	6136
819.06	6140
819.2	6315
819.341	6266
819.481	6342
819.622	6502
819.762	6700
819.903	6700
820.043	6563
820.184	6597
820.324	6570
820.465	6760
820.605	6700
820.746	6623
820.886	6490
821.026	6684
821.167	6715
821.307	6745
821.447	6760
821.588	6593
821.728	6502
821.868	6486
822.008	6254
822.149	6460
822.289	6384
822.429	6159
822.569	6060
822.709	6110
822.849	5916
822.99	5855
823.13	5889
823.27	5885
823.41	5741
823.55	5798
823.69	5733
823.83	5767
823.97	5653
824.11	5463
824.25	5459
824.389	5524
824.529	5585
824.669	5493
824.809	5596
824.949	5619
825.089	5600
825.228	5501
825.368	5448
825.508	5315
825.648	5376
825.787	5414
825.927	5360
826.067	5353
826.206	5280
826.346	5372
826.485	5417
826.625	5387
826.765	5566
826.904	5493
827.044	5284
827.183	5201
827.323	5102
827.462	5239
827.601	5220
827.741	5170
827.88	5227
828.02	5124
828.159	5227
828.298	5273
828.437	5360
828.577	5296
828.716	5493
828.855	5296
828.994	5155
829.134	5147
829.273	5189
829.412	5109
829.551	5071
829.69	5121
829.829	5261
829.968	5345
830.107	5227
830.246	5250
830.385	5170
830.524	5105
830.663	5109
830.802	4976
830.941	4831
831.08	4812
831.219	4946
831.357	4915
831.496	5090
831.635	4896
831.774	4831
831.913	4793
832.051	4694
832.19	4790
832.329	4870
832.467	4710
832.606	4622
832.744	4710
832.883	4694
833.022	4755
833.16	4786
833.299	4831
833.437	4771
833.576	4809
833.714	4862
833.852	4824
833.991	4889
834.129	4930
834.267	4942
834.406	4889
834.544	4934
834.682	4923
834.821	4919
834.959	5105
835.097	5029
835.235	5105
835.373	5124
835.511	5102
835.65	4984
835.788	5025
835.926	4873
836.064	4881
836.202	4866
836.34	5124
836.478	5204
836.615	5128
836.753	5166
836.891	5235
837.029	5284
837.167	5193
837.305	5128
837.443	5113
837.58	5071
837.718	5254
837.856	5117
837.993	5079
838.131	5193
838.269	5166
838.406	5204
838.544	5151
838.681	5014
838.819	4995
838.956	4828
839.094	4942
839.231	4995
839.369	5083
839.506	5398
839.643	5216
839.781	5052
839.918	4957
840.055	5060
840.193	5083
840.33	5098
840.467	5098
840.604	5132
840.742	5402
840.879	5041
841.016	5056
841.153	5151
841.29	5372
841.427	5349
841.564	5265
841.701	5360
841.838	5277
841.975	5254
842.112	5250
842.249	5162
842.385	5102
842.522	5315
842.659	5159
842.796	5121
842.933	5143
843.069	5094
843.206	5113
843.343	5326
843.479	5273
843.616	5204
843.752	5014
843.889	4934
844.025	5181
844.162	5006
844.298	5201
844.435	5041
844.571	5006
844.708	5185
844.844	5250
844.98	5280
845.117	5288
845.253	5086
845.389	5041
845.525	5143
845.661	5151
845.798	5033
845.934	5170
846.07	5071
846.206	5166
846.342	5296
846.478	5178
846.614	5029
846.75	4965
846.886	4980
847.022	5060
847.158	4995
847.294	5083
847.429	5098
847.565	5045
847.701	5315
847.837	4923
847.972	4752
848.108	4987
848.244	4923
848.379	4771
848.515	4767
848.65	4660
848.786	4744
848.921	4793
849.057	4877
849.192	4919
849.328	4786
849.463	4885
849.598	4767
849.734	4729
849.869	4660
850.004	4649
850.14	4634
850.275	4573
850.41	4531
850.545	4588
850.68	4538
850.815	4618
850.95	4649
851.085	4790
851.22	4733
851.355	4664
851.49	4622
851.625	4615
851.76	4607
851.895	4523
852.03	4523
852.165	4561
852.299	4725
852.434	4790
852.569	4717
852.703	4767
852.838	4828
852.973	4904
853.107	4877
853.242	4683
853.376	4622
853.511	4538
853.645	4599
853.78	4782
853.914	4626
854.048	4626
854.183	4668
854.317	4660
854.451	4900
854.585	4641
854.72	4641
854.854	4778
854.988	4561
855.122	4622
855.256	4558
855.39	4675
855.524	4763
855.658	4729
855.792	4653
855.926	4706
856.06	4763
856.194	4774
856.327	4702
856.461	4649
856.595	4622
856.729	4611
856.862	4752
856.996	4679
857.13	4752
857.263	4725
857.397	4805
857.53	4679
857.664	4687
857.797	4763
857.931	4774
858.064	4672
858.197	4729
858.331	4599
858.464	4615
858.597	4500
858.731	4634
858.864	4626
858.997	4561
859.13	4641
859.263	4691
859.396	4630
859.529	4558
859.662	4554
859.795	4512
859.928	4599
860.061	4717
860.194	4740
860.327	4622
860.46	4561
860.592	4698
860.725	4683
860.858	4698
860.99	4573
861.123	4504
861.256	4527
861.388	4558
861.521	5284
861.653	4462
861.786	4440
861.918	4428
862.05	4523
862.183	4535
862.315	4584
862.447	4645
862.58	4519
862.712	4451
862.844	4329
862.976	4493
863.108	4466
863.24	4820
863.372	4348
863.504	4398
863.636	4390
863.768	4466
863.9	4440
864.032	4356
864.164	4390
864.296	4455
864.428	4558
864.559	4561
864.691	4542
864.823	4527
864.954	4481
865.086	4485
865.217	4421
865.349	4432
865.48	4451
865.612	4466
865.743	4645
865.875	4447
866.006	4356
866.137	4470
866.269	4421
866.4	4413
866.531	4398
866.662	4421
866.793	4405
866.924	4436
867.055	4462
867.186	4493
867.317	4402
867.448	4344
867.579	4352
867.71	4390
867.841	4383
867.972	4481
868.103	4462
868.233	4421
868.364	4481
868.495	4417
868.625	4672
868.756	4748
868.886	4626
869.017	4630
869.147	4740
869.278	4748
869.408	4664
869.539	4558
869.669	4729
869.799	4672
869.929	4698
870.06	4755
870.19	4949
870.32	4911
870.45	4908
870.58	5022
870.71	5094
870.84	5075
870.97	5006
871.1	4900
871.23	5132
871.36	5102
871.489	4987
871.619	5067
871.749	5124
871.879	5140
872.008	5162
872.138	5022
872.267	4976
872.397	4839
872.526	4797
872.656	4744
872.785	4774
872.915	4911
873.044	4968
873.173	4923
873.303	4889
873.432	4946
873.561	4904
873.69	4839
873.819	4839
873.948	4866
874.077	4831
874.206	4710
874.335	4793
874.464	4900
874.593	5025
874.722	4957
874.851	5147
874.979	5003
875.108	4995
875.237	4892
875.365	4908
875.494	4881
875.623	4961
875.751	4801
875.88	4862
876.008	4934
876.136	5018
876.265	5208
876.393	5334
876.521	5208
876.65	5216
876.778	5147
876.906	5067
877.034	5010
877.162	5018
877.29	4984
877.418	5083
877.546	4976
877.674	5014
877.802	5056
877.93	5079
878.058	4896
878.185	4850
878.313	4976
878.441	4949
878.568	4793
878.696	4866
878.824	4904
878.951	4957
879.079	5067
879.206	5299
879.333	5098
879.461	4961
879.588	5003
879.715	5102
879.842	5227
879.97	4991
880.097	4736
880.224	4771
880.351	4790
880.478	4793
880.605	4831
880.732	4797
880.859	5018
880.986	4885
881.112	4892
881.239	4710
881.366	4683
881.493	4607
881.619	4554
881.746	4645
881.872	4611
881.999	4679
882.125	4683
882.252	4809
882.378	4843
882.505	4900
882.631	4767
882.757	4615
882.883	4740
883.01	4729
883.136	4691
883.262	4618
883.388	4615
883.514	4797
883.64	4881
883.766	4774
883.892	4649
884.018	4698
884.143	4881
884.269	4980
884.395	4660
884.52	4603
884.646	4607
884.772	4622
884.897	4535
885.023	4683
885.148	4771
885.274	4885
885.399	4816
885.524	4691
885.65	4656
885.775	4706
885.9	4691
886.025	4839
886.15	4805
886.275	4694
886.4	4637
886.525	4710
886.65	4653
886.775	4664
886.9	4908
887.025	4968
887.149	4782
887.274	4687
887.399	4546
887.523	4561
887.648	4554
887.773	4592
887.897	4744
888.021	4740
888.146	4649
888.27	4763
888.395	4889
888.519	4824
888.643	4831
888.767	4805
888.891	4618
889.015	4580
889.139	4649
889.263	4531
889.387	4755
889.511	4786
889.635	4801
889.759	4611
889.883	4641
890.006	4714
890.13	4847
890.254	4634
890.377	4641
890.501	4523
890.624	4538
890.748	4618
890.871	4485
890.995	4443
891.118	4367
891.241	4497
891.364	4489
891.488	4634
891.611	4558
891.734	4516
891.857	4599
891.98	4535
892.103	4603
892.226	4542
892.349	4531
892.471	4462
892.594	4569
892.717	4531
892.839	4531
892.962	4592
893.085	4668
893.207	4592
893.33	4478
893.452	4489
893.575	4672
893.697	4550
893.819	4793
893.941	4809
894.064	4759
894.186	4554
894.308	4535
894.43	4698
894.552	4759
894.674	4675
894.796	4546
894.918	4584
895.04	4573
895.161	4694
895.283	4660
895.405	4523
895.526	4611
895.648	4714
895.769	4668
895.891	4706
896.012	4729
896.134	4717
896.255	4702
896.376	4596
896.498	4641
896.619	4668
896.74	4637
896.861	4607
896.982	4946
897.103	5064
897.224	4858
897.345	4748
897.466	4649
897.587	4698
897.708	4797
897.828	4767
897.949	4645
898.07	4535
898.19	4649
898.311	4793
898.431	4653
898.552	4740
898.672	4828
898.792	4812
898.913	4748
899.033	4580
899.153	4516
899.273	4409
899.393	4474
899.513	4478
899.633	4497
899.753	4546
899.873	4489
899.993	4561
900.113	4504
900.232	4615
900.352	4535
900.472	4462
900.591	4375
900.711	4466
900.83	4409
900.95	4607
901.069	4656
901.189	4554
901.308	4356
901.427	4344
901.546	4394
901.665	4455
901.784	4459
901.904	4405
902.023	4352
902.141	4143
902.26	4154
902.379	4287
902.498	4227
902.617	4188
902.735	4394
902.854	4394
902.973	4341
903.091	4215
903.21	4196
903.328	4322
903.446	4280
903.565	4246
903.683	4329
903.801	4249
903.919	4375
904.038	4455
904.156	4303
904.274	4398
904.392	4402
904.51	4455
904.627	4470
904.745	4558
904.863	4637
904.981	4398
905.098	4280
905.216	4360
905.334	4432
905.451	4383
905.569	4421
905.686	4497
905.803	4569
905.921	4398
906.038	4531
906.155	4474
906.272	4329
906.389	4432
906.506	4333
906.623	4325
906.74	4405
906.857	4291
906.974	4329
907.091	4554
907.208	4725
907.324	4565
907.441	4504
907.557	4295
907.674	4329
907.79	4352
907.907	4356
908.023	4462
908.139	4466
908.256	4447
908.372	4451
908.488	4443
908.604	4348
908.72	4314
908.836	4451
908.952	4344
909.068	4432
909.184	4523
909.3	4481
909.415	4577
909.531	4500
909.647	4348
909.762	4379
909.878	4303
909.993	4443
910.108	4413
910.224	4447
910.339	4493
910.454	4367
910.57	4363
910.685	4314
910.8	4710
910.915	4634
911.03	4478
911.145	4325
911.259	4310
911.374	4398
911.489	4272
911.604	4227
911.718	4181
911.833	4219
911.947	4109
912.062	4013
912.176	4219
912.291	4223
912.405	4219
912.519	4485
912.633	4504
912.748	4322
912.862	4337
912.976	4207
913.09	4059
913.204	4192
913.318	4249
913.431	4337
913.545	4314
913.659	4383
913.772	4348
913.886	4227
914	4234
914.113	4394
914.226	4417
914.34	4375
914.453	4196
914.566	4398
914.68	4310
914.793	4295
914.906	4154
915.019	4135
915.132	4112
915.245	4173
915.358	4150
915.47	4223
915.583	4261
915.696	4295
915.809	4322
915.921	4421
916.034	4230
916.146	4246
916.259	4234
916.371	4379
916.483	4341
916.595	4230
916.708	4287
916.82	4295
916.932	4261
917.044	4314
917.156	4249
917.268	4219
917.38	4284
917.491	4249
917.603	4390
917.715	4398
917.826	4455
917.938	4295
918.049	4204
918.161	4379
918.272	4512
918.384	4645
918.495	4424
918.606	4272
918.717	4223
918.828	4322
918.939	4383
919.05	4268
919.161	4341
919.272	4071
919.383	4219
919.494	4440
919.604	4630
919.715	4428
919.826	4367
919.936	4379
920.047	4538
920.157	4470
920.267	4717
920.378	4538
920.488	4462
920.598	4694
920.708	4908
920.818	4706
920.928	4725
921.038	4927
921.148	4923
921.258	4622
921.368	4615
921.477	4485
921.587	4459
921.697	4363
921.806	4577
921.916	4409
922.025	4306
922.134	4246
922.244	4166
922.353	4352
922.462	4185
922.571	4128
922.68	3998
922.789	3975
922.898	4010
923.007	4010
923.116	4120
923.224	4059
923.333	4093
923.442	3987
923.55	3937
923.659	3994
923.767	4093
923.876	3968
923.984	4135
924.092	3972
924.201	4097
924.309	4090
924.417	4082
924.525	4006
924.633	4086
924.741	5045
924.849	3869
924.956	4078
925.064	3922
925.172	3888
925.279	3941
925.387	4071
925.494	4055
925.602	4200
925.709	4173
925.816	4013
925.924	4143
926.031	4215
926.138	4169
926.245	4215
926.352	4032
926.459	4272
926.566	4253
926.673	4154
926.779	4074
926.886	4044
926.993	3975
927.099	3964
927.206	3918
927.312	3899
927.419	4067
927.525	4036
927.631	4116
927.737	3953
927.843	3930
927.95	3774
928.056	3953
928.162	3960
928.267	4051
928.373	4653
928.479	4105
928.585	3896
928.69	4021
928.796	4074
928.901	3998
929.007	3865
929.112	4017
929.218	3972
929.323	3926
929.428	3915
929.533	4101
929.638	3911
929.743	3953
929.848	4040
929.953	3991
930.058	3926
930.163	3743
930.267	3838
930.372	3968
930.477	3770
930.581	4078
930.685	3926
930.79	3793
930.894	3880
930.998	3816
931.103	4013
931.207	3667
931.311	3682
931.415	3698
931.519	3519
931.623	3549
