Data from test_V78500241_2414.txt Node
Date: Fri Mar 25 17:05:47 CST 2022
User: usil
Spectrometer: V785-0024
Trigger mode: 0
Integration Time (sec): 4.000000E-1
Scans to average: 1
Nonlinearity correction enabled: false
Boxcar width: 0
Storing dark spectrum: false
XAxis mode: Wavelengths
Number of Pixels in Spectrum: 1024
>>>>>Begin Spectral Data<<<<<
801.071	7982
801.214	7951
801.356	7833
801.499	7852
801.641	7833
801.783	7887
801.926	7932
802.068	7921
802.211	7993
802.353	7936
802.496	7890
802.638	7913
802.78	7925
802.923	7845
803.065	7860
803.208	7807
803.35	7940
803.492	8062
803.635	8119
803.777	8046
803.919	8081
804.061	8400
804.204	8172
804.346	8107
804.488	7902
804.63	8081
804.773	8039
804.915	8119
805.057	8271
805.199	8191
805.341	8199
805.483	8187
805.626	8252
805.768	8115
805.91	8282
806.052	8286
806.194	8058
806.336	8317
806.478	8058
806.62	8058
806.762	8092
806.904	8294
807.046	8385
807.188	8320
807.33	8282
807.472	8218
807.614	8138
807.756	8126
807.898	8035
808.04	7868
808.182	7890
808.324	7868
808.465	7887
808.607	8008
808.749	8157
808.891	8202
809.033	8313
809.174	8142
809.316	8065
809.458	8058
809.6	8020
809.741	7993
809.883	7993
810.025	8077
810.166	8081
810.308	7986
810.45	8043
810.591	7830
810.733	7712
810.875	7647
811.016	7521
811.158	7468
811.299	7620
811.441	7731
811.582	7651
811.724	7578
811.865	7457
812.007	7578
812.148	7582
812.29	7628
812.431	7681
812.573	7875
812.714	7993
812.855	8123
812.997	8218
813.138	8301
813.279	8168
813.421	8050
813.562	7940
813.703	7826
813.845	7738
813.986	7396
814.127	7270
814.268	7228
814.41	7217
814.551	7206
814.692	7179
814.833	7107
814.974	7050
815.115	7084
815.256	6958
815.397	6935
815.539	6913
815.68	6772
815.821	6837
815.962	6882
816.103	6867
816.244	6692
816.385	6665
816.526	6608
816.666	6517
816.807	6346
816.948	6422
817.089	6456
817.23	6483
817.371	6365
817.512	6365
817.653	6395
817.793	6372
817.934	6395
818.075	6429
818.216	6456
818.356	6418
818.497	6228
818.638	6205
818.778	6201
818.919	6163
819.06	6152
819.2	6300
819.341	6369
819.481	6346
819.622	6563
819.762	6688
819.903	6753
820.043	6623
820.184	6506
820.324	6578
820.465	6684
820.605	6669
820.746	6635
820.886	6551
821.026	6665
821.167	6722
821.307	6798
821.447	6776
821.588	6719
821.728	6612
821.868	6467
822.008	6296
822.149	6410
822.289	6350
822.429	6247
822.569	6148
822.709	6182
822.849	5980
822.99	5889
823.13	5904
823.27	5920
823.41	5836
823.55	5794
823.69	5790
823.83	5802
823.97	5710
824.11	5543
824.25	5524
824.389	5562
824.529	5619
824.669	5535
824.809	5619
824.949	5710
825.089	5604
825.228	5604
825.368	5406
825.508	5296
825.648	5429
825.787	5379
825.927	5326
826.067	5242
826.206	5292
826.346	5421
826.485	5402
826.625	5387
826.765	5581
826.904	5528
827.044	5239
827.183	5178
827.323	5098
827.462	5223
827.601	5193
827.741	5121
827.88	5212
828.02	5090
828.159	5223
828.298	5326
828.437	5387
828.577	5296
828.716	5501
828.855	5303
828.994	5166
829.134	5159
829.273	5208
829.412	5098
829.551	5048
829.69	5132
829.829	5280
829.968	5379
830.107	5227
830.246	5246
830.385	5159
830.524	5166
830.663	5098
830.802	4930
830.941	4873
831.08	4866
831.219	5029
831.357	4972
831.496	5102
831.635	4942
831.774	4850
831.913	4866
832.051	4694
832.19	4740
832.329	4862
832.467	4698
832.606	4622
832.744	4698
832.883	4752
833.022	4714
833.16	4797
833.299	4839
833.437	4839
833.576	4839
833.714	4877
833.852	4889
833.991	4911
834.129	4972
834.267	4911
834.406	4915
834.544	4961
834.682	4965
834.821	4946
834.959	5181
835.097	5052
835.235	5098
835.373	5086
835.511	5113
835.65	5045
835.788	5071
835.926	4873
836.064	4858
836.202	4889
836.34	5178
836.478	5246
836.615	5124
836.753	5162
836.891	5242
837.029	5250
837.167	5170
837.305	5189
837.443	5170
837.58	5071
837.718	5242
837.856	5155
837.993	5117
838.131	5250
838.269	5223
838.406	5174
838.544	5159
838.681	5025
838.819	5018
838.956	4896
839.094	4885
839.231	4987
839.369	5083
839.506	5417
839.643	5231
839.781	5060
839.918	5022
840.055	5109
840.193	5041
840.33	5124
840.467	5147
840.604	5170
840.742	5440
840.879	5022
841.016	5060
841.153	5128
841.29	5330
841.427	5353
841.564	5307
841.701	5376
841.838	5265
841.975	5208
842.112	5261
842.249	5113
842.385	5121
842.522	5353
842.659	5132
842.796	5105
842.933	5181
843.069	5143
843.206	5159
843.343	5288
843.479	5292
843.616	5284
843.752	5014
843.889	5003
844.025	5178
844.162	5071
844.298	5166
844.435	5083
844.571	5060
844.708	5174
844.844	5334
844.98	5277
845.117	5216
845.253	5162
845.389	5083
845.525	5113
845.661	5064
845.798	4991
845.934	5170
846.07	5060
846.206	5227
846.342	5311
846.478	5159
846.614	4942
846.75	4946
846.886	4908
847.022	5155
847.158	5014
847.294	5094
847.429	5117
847.565	5090
847.701	5269
847.837	4797
847.972	4805
848.108	4949
848.244	4911
848.379	4759
848.515	4782
848.65	4755
848.786	4736
848.921	4805
849.057	4896
849.192	4870
849.328	4793
849.463	4850
849.598	4816
849.734	4744
849.869	4717
850.004	4603
850.14	4710
850.275	4618
850.41	4508
850.545	4565
850.68	4580
850.815	4615
850.95	4630
851.085	4854
851.22	4782
851.355	4698
851.49	4626
851.625	4634
851.76	4664
851.895	4554
852.03	4538
852.165	4653
852.299	4675
852.434	4771
852.569	4786
852.703	4759
852.838	4828
852.973	4908
853.107	4885
853.242	4755
853.376	4649
853.511	4512
853.645	4622
853.78	4752
853.914	4687
854.048	4615
854.183	4584
854.317	4702
854.451	4911
854.585	4672
854.72	4637
854.854	4744
854.988	4599
855.122	4672
855.256	4504
855.39	4641
855.524	4790
855.658	4729
855.792	4698
855.926	4683
856.06	4698
856.194	4809
856.327	4714
856.461	4630
856.595	4596
856.729	4637
856.862	4790
856.996	4725
857.13	4725
857.263	4767
857.397	4805
857.53	4668
857.664	4706
857.797	4714
857.931	4763
858.064	4679
858.197	4752
858.331	4618
858.464	4577
858.597	4489
858.731	4672
858.864	4634
858.997	4565
859.13	4668
859.263	4645
859.396	4687
859.529	4607
859.662	4535
859.795	4512
859.928	4618
860.061	4733
860.194	4725
860.327	4615
860.46	4577
860.592	4694
860.725	4702
860.858	4714
860.99	4542
861.123	4481
861.256	4550
861.388	4615
861.521	5307
861.653	4470
861.786	4443
861.918	4466
862.05	4561
862.183	4531
862.315	4618
862.447	4630
862.58	4474
862.712	4413
862.844	4306
862.976	4459
863.108	4432
863.24	4755
863.372	4356
863.504	4455
863.636	4424
863.768	4466
863.9	4443
864.032	4383
864.164	4383
864.296	4462
864.428	4523
864.559	4523
864.691	4500
864.823	4523
864.954	4459
865.086	4512
865.217	4447
865.349	4466
865.48	4500
865.612	4470
865.743	4649
865.875	4428
866.006	4436
866.137	4462
866.269	4432
866.4	4489
866.531	4383
866.662	4451
866.793	4417
866.924	4409
867.055	4481
867.186	4459
867.317	4421
867.448	4398
867.579	4367
867.71	4390
867.841	4402
867.972	4440
868.103	4455
868.233	4451
868.364	4417
868.495	4462
868.625	4653
868.756	4744
868.886	4558
869.017	4615
869.147	4714
869.278	4797
869.408	4618
869.539	4618
869.669	4675
869.799	4683
869.929	4771
870.06	4740
870.19	4938
870.32	4900
870.45	4968
870.58	5037
870.71	5102
870.84	5105
870.97	4976
871.1	4866
871.23	5136
871.36	5045
871.489	5022
871.619	5075
871.749	5079
871.879	5136
872.008	5197
872.138	5060
872.267	4999
872.397	4862
872.526	4850
872.656	4721
872.785	4847
872.915	4923
873.044	5010
873.173	4972
873.303	4915
873.432	4934
873.561	4957
873.69	4896
873.819	4873
873.948	4915
874.077	4797
874.206	4714
874.335	4812
874.464	4946
874.593	5079
874.722	4930
874.851	5060
874.979	5025
875.108	5067
875.237	4843
875.365	4866
875.494	4934
875.623	4965
875.751	4828
875.88	4877
876.008	4999
876.136	5033
876.265	5189
876.393	5360
876.521	5239
876.65	5239
876.778	5166
876.906	5045
877.034	5022
877.162	5029
877.29	4995
877.418	5075
877.546	5067
877.674	4984
877.802	5056
877.93	5025
878.058	4911
878.185	4873
878.313	4923
878.441	4976
878.568	4805
878.696	4850
878.824	4949
878.951	5014
879.079	5083
879.206	5288
879.333	5098
879.461	4991
879.588	4946
879.715	5075
879.842	5197
879.97	4968
880.097	4797
880.224	4752
880.351	4767
880.478	4843
880.605	4755
880.732	4790
880.859	5071
880.986	4908
881.112	4923
881.239	4748
881.366	4694
881.493	4615
881.619	4554
881.746	4683
881.872	4615
881.999	4634
882.125	4717
882.252	4767
882.378	4847
882.505	4946
882.631	4858
882.757	4641
882.883	4733
883.01	4710
883.136	4645
883.262	4584
883.388	4611
883.514	4831
883.64	4805
883.766	4786
883.892	4698
884.018	4752
884.143	4892
884.269	5006
884.395	4672
884.52	4626
884.646	4618
884.772	4577
884.897	4569
885.023	4653
885.148	4759
885.274	4805
885.399	4835
885.524	4679
885.65	4725
885.775	4664
885.9	4660
886.025	4847
886.15	4755
886.275	4691
886.4	4641
886.525	4694
886.65	4694
886.775	4706
886.9	4900
887.025	5029
887.149	4767
887.274	4615
887.399	4558
887.523	4596
887.648	4558
887.773	4607
887.897	4774
888.021	4767
888.146	4664
888.27	4812
888.395	4862
888.519	4767
888.643	4748
888.767	4790
888.891	4725
889.015	4641
889.139	4664
889.263	4580
889.387	4763
889.511	4824
889.635	4805
889.759	4611
889.883	4653
890.006	4729
890.13	4805
890.254	4569
890.377	4641
890.501	4500
890.624	4481
890.748	4588
890.871	4519
890.995	4402
891.118	4413
891.241	4489
891.364	4493
891.488	4626
891.611	4500
891.734	4512
891.857	4599
891.98	4531
892.103	4645
892.226	4584
892.349	4550
892.471	4375
892.594	4531
892.717	4588
892.839	4592
892.962	4561
893.085	4679
893.207	4622
893.33	4421
893.452	4508
893.575	4668
893.697	4580
893.819	4805
893.941	4820
894.064	4793
894.186	4626
894.308	4573
894.43	4740
894.552	4774
894.674	4767
894.796	4565
894.918	4618
895.04	4573
895.161	4691
895.283	4683
895.405	4577
895.526	4645
895.648	4698
895.769	4725
895.891	4733
896.012	4748
896.134	4755
896.255	4698
896.376	4660
896.498	4668
896.619	4721
896.74	4672
896.861	4645
896.982	4953
897.103	5174
897.224	4812
897.345	4812
897.466	4691
897.587	4744
897.708	4824
897.828	4805
897.949	4729
898.07	4615
898.19	4660
898.311	4919
898.431	4691
898.552	4771
898.672	4885
898.792	4828
898.913	4763
899.033	4649
899.153	4516
899.273	4470
899.393	4519
899.513	4550
899.633	4569
899.753	4580
899.873	4512
899.993	4668
900.113	4580
900.232	4596
900.352	4603
900.472	4592
900.591	4363
900.711	4558
900.83	4500
900.95	4634
901.069	4725
901.189	4550
901.308	4436
901.427	4341
901.546	4367
901.665	4546
901.784	4523
901.904	4432
902.023	4356
902.141	4200
902.26	4219
902.379	4344
902.498	4272
902.617	4223
902.735	4409
902.854	4455
902.973	4402
903.091	4276
903.21	4246
903.328	4314
903.446	4272
903.565	4284
903.683	4371
903.801	4306
903.919	4459
904.038	4504
904.156	4344
904.274	4489
904.392	4440
904.51	4451
904.627	4485
904.745	4603
904.863	4698
904.981	4390
905.098	4318
905.216	4409
905.334	4466
905.451	4459
905.569	4451
905.686	4637
905.803	4577
905.921	4428
906.038	4611
906.155	4577
906.272	4440
906.389	4504
906.506	4402
906.623	4455
906.74	4413
906.857	4325
906.974	4398
907.091	4603
907.208	4706
907.324	4637
907.441	4512
907.557	4436
907.674	4409
907.79	4375
907.907	4421
908.023	4493
908.139	4519
908.256	4451
908.372	4523
908.488	4504
908.604	4394
908.72	4383
908.836	4409
908.952	4386
909.068	4512
909.184	4626
909.3	4493
909.415	4622
909.531	4546
909.647	4421
909.762	4367
909.878	4337
909.993	4474
910.108	4474
910.224	4462
910.339	4546
910.454	4413
910.57	4348
910.685	4363
910.8	4672
910.915	4592
911.03	4516
911.145	4379
911.259	4303
911.374	4383
911.489	4325
911.604	4360
911.718	4227
911.833	4230
911.947	4128
912.062	4055
912.176	4253
912.291	4249
912.405	4276
912.519	4512
912.633	4516
912.748	4394
912.862	4356
912.976	4242
913.09	4147
913.204	4223
913.318	4295
913.431	4394
913.545	4421
913.659	4466
913.772	4383
913.886	4276
914	4265
914.113	4440
914.226	4489
914.34	4409
914.453	4303
914.566	4466
914.68	4375
914.793	4363
914.906	4211
915.019	4177
915.132	4139
915.245	4192
915.358	4257
915.47	4276
915.583	4310
915.696	4341
915.809	4413
915.921	4455
916.034	4318
916.146	4287
916.259	4268
916.371	4383
916.483	4413
916.595	4318
916.708	4375
916.82	4386
916.932	4371
917.044	4344
917.156	4390
917.268	4291
917.38	4310
917.491	4337
917.603	4379
917.715	4470
917.826	4519
917.938	4394
918.049	4272
918.161	4443
918.272	4554
918.384	4542
918.495	4523
918.606	4363
918.717	4303
918.828	4325
918.939	4398
919.05	4310
919.161	4333
919.272	4135
919.383	4265
919.494	4455
919.604	4656
919.715	4436
919.826	4432
919.936	4398
920.047	4550
920.157	4542
920.267	4733
920.378	4569
920.488	4538
920.598	4752
920.708	4942
920.818	4790
920.928	4786
921.038	4946
921.148	4911
921.258	4626
921.368	4611
921.477	4512
921.587	4485
921.697	4379
921.806	4558
921.916	4485
922.025	4325
922.134	4318
922.244	4287
922.353	4333
922.462	4200
922.571	4124
922.68	4055
922.789	4006
922.898	4082
923.007	3979
923.116	4093
923.224	4105
923.333	4131
923.442	3972
923.55	4021
923.659	4036
923.767	4135
923.876	4063
923.984	4150
924.092	4010
924.201	4150
924.309	4131
924.417	4162
924.525	4082
924.633	4143
924.741	5060
924.849	3998
924.956	4131
925.064	3975
925.172	3926
925.279	3998
925.387	4082
925.494	4097
925.602	4234
925.709	4249
925.816	4059
925.924	4116
926.031	4242
926.138	4284
926.245	4257
926.352	4112
926.459	4276
926.566	4318
926.673	4196
926.779	4105
926.886	4109
926.993	4025
927.099	3964
927.206	3949
927.312	4002
927.419	4112
927.525	4013
927.631	4078
927.737	3983
927.843	3972
927.95	3861
928.056	3960
928.162	4010
928.267	4063
928.373	4714
928.479	4139
928.585	3892
928.69	4063
928.796	4086
928.901	4021
929.007	3911
929.112	3994
929.218	3998
929.323	3994
929.428	3960
929.533	4124
929.638	3934
929.743	4044
929.848	4086
929.953	4006
930.058	3953
930.163	3793
930.267	3827
930.372	4021
930.477	3816
930.581	4101
930.685	4013
930.79	3835
930.894	3968
930.998	3884
931.103	4048
931.207	3770
931.311	3743
931.415	3652
931.519	3564
931.623	3587
