Data from test_V78500241_1705.txt Node
Date: Fri Mar 25 17:00:51 CST 2022
User: usil
Spectrometer: V785-0024
Trigger mode: 0
Integration Time (sec): 4.000000E-1
Scans to average: 1
Nonlinearity correction enabled: false
Boxcar width: 0
Storing dark spectrum: false
XAxis mode: Wavelengths
Number of Pixels in Spectrum: 1024
>>>>>Begin Spectral Data<<<<<
801.071	8024
801.214	8012
801.356	7856
801.499	7818
801.641	7799
801.783	7795
801.926	8005
802.068	7906
802.211	7947
802.353	7963
802.496	7807
802.638	7807
802.78	7913
802.923	7925
803.065	7902
803.208	7792
803.35	7913
803.492	8062
803.635	8119
803.777	7974
803.919	8157
804.061	8442
804.204	8134
804.346	8046
804.488	7947
804.63	8065
804.773	8020
804.915	8065
805.057	8301
805.199	8149
805.341	8202
805.483	8210
805.626	8187
805.768	8126
805.91	8168
806.052	8225
806.194	8077
806.336	8286
806.478	8024
806.62	8046
806.762	8153
806.904	8263
807.046	8473
807.188	8370
807.33	8267
807.472	8324
807.614	8180
807.756	8164
807.898	7967
808.04	7875
808.182	7928
808.324	7902
808.465	7947
808.607	8058
808.749	8088
808.891	8153
809.033	8259
809.174	8210
809.316	8103
809.458	7989
809.6	8027
809.741	8020
809.883	8005
810.025	8050
810.166	8081
810.308	7982
810.45	7951
810.591	7841
810.733	7689
810.875	7639
811.016	7525
811.158	7483
811.299	7567
811.441	7696
811.582	7651
811.724	7628
811.865	7533
812.007	7537
812.148	7559
812.29	7578
812.431	7753
812.573	7871
812.714	8001
812.855	8138
812.997	8237
813.138	8347
813.279	8256
813.421	8058
813.562	7963
813.703	7833
813.845	7693
813.986	7441
814.127	7266
814.268	7190
814.41	7137
814.551	7183
814.692	7270
814.833	7065
814.974	7080
815.115	7103
815.256	6939
815.397	6924
815.539	7019
815.68	6768
815.821	6753
815.962	6856
816.103	6795
816.244	6696
816.385	6642
816.526	6570
816.666	6475
816.807	6289
816.948	6426
817.089	6448
817.23	6376
817.371	6376
817.512	6342
817.653	6369
817.793	6353
817.934	6418
818.075	6388
818.216	6369
818.356	6403
818.497	6254
818.638	6133
818.778	6140
818.919	6106
819.06	6155
819.2	6365
819.341	6308
819.481	6350
819.622	6517
819.762	6818
819.903	6711
820.043	6578
820.184	6623
820.324	6585
820.465	6608
820.605	6677
820.746	6601
820.886	6597
821.026	6662
821.167	6646
821.307	6719
821.447	6760
821.588	6642
821.728	6582
821.868	6486
822.008	6304
822.149	6338
822.289	6311
822.429	6110
822.569	6026
822.709	6114
822.849	5889
822.99	5923
823.13	5961
823.27	5893
823.41	5790
823.55	5805
823.69	5767
823.83	5756
823.97	5627
824.11	5486
824.25	5501
824.389	5558
824.529	5558
824.669	5524
824.809	5611
824.949	5707
825.089	5566
825.228	5532
825.368	5379
825.508	5299
825.648	5353
825.787	5330
825.927	5353
826.067	5277
826.206	5303
826.346	5353
826.485	5368
826.625	5341
826.765	5509
826.904	5486
827.044	5250
827.183	5181
827.323	5105
827.462	5193
827.601	5155
827.741	5235
827.88	5189
828.02	5143
828.159	5235
828.298	5254
828.437	5353
828.577	5254
828.716	5535
828.855	5269
828.994	5098
829.134	5159
829.273	5178
829.412	5132
829.551	5121
829.69	5098
829.829	5235
829.968	5368
830.107	5242
830.246	5254
830.385	5143
830.524	5136
830.663	5045
830.802	4965
830.941	4885
831.08	4877
831.219	4995
831.357	4957
831.496	5121
831.635	4885
831.774	4847
831.913	4843
832.051	4687
832.19	4755
832.329	4831
832.467	4664
832.606	4634
832.744	4717
832.883	4691
833.022	4694
833.16	4736
833.299	4850
833.437	4816
833.576	4782
833.714	4790
833.852	4782
833.991	4858
834.129	4953
834.267	4957
834.406	4892
834.544	4911
834.682	4972
834.821	4999
834.959	5151
835.097	4972
835.235	5113
835.373	5090
835.511	5083
835.65	5014
835.788	5018
835.926	4923
836.064	4801
836.202	4911
836.34	5162
836.478	5197
836.615	5071
836.753	5193
836.891	5250
837.029	5258
837.167	5208
837.305	5140
837.443	5117
837.58	5018
837.718	5239
837.856	5162
837.993	5083
838.131	5254
838.269	5239
838.406	5155
838.544	5155
838.681	5033
838.819	5022
838.956	4835
839.094	4839
839.231	4999
839.369	5086
839.506	5402
839.643	5239
839.781	4991
839.918	5003
840.055	5029
840.193	5052
840.33	5113
840.467	5170
840.604	5201
840.742	5440
840.879	5067
841.016	5052
841.153	5136
841.29	5402
841.427	5341
841.564	5303
841.701	5387
841.838	5208
841.975	5227
842.112	5284
842.249	5178
842.385	5102
842.522	5307
842.659	5159
842.796	5140
842.933	5178
843.069	5128
843.206	5117
843.343	5315
843.479	5223
843.616	5258
843.752	5025
843.889	4999
844.025	5231
844.162	5033
844.298	5174
844.435	5048
844.571	5086
844.708	5166
844.844	5254
844.98	5318
845.117	5269
845.253	5128
845.389	5064
845.525	5086
845.661	5159
845.798	5010
845.934	5105
846.07	5037
846.206	5162
846.342	5269
846.478	5189
846.614	5014
846.75	4911
846.886	4870
847.022	5094
847.158	5022
847.294	5064
847.429	5064
847.565	4995
847.701	5318
847.837	4862
847.972	4755
848.108	4892
848.244	4904
848.379	4740
848.515	4740
848.65	4694
848.786	4706
848.921	4759
849.057	4858
849.192	4873
849.328	4797
849.463	4862
849.598	4755
849.734	4733
849.869	4649
850.004	4615
850.14	4672
850.275	4558
850.41	4504
850.545	4561
850.68	4618
850.815	4637
850.95	4641
851.085	4805
851.22	4752
851.355	4649
851.49	4565
851.625	4679
851.76	4630
851.895	4577
852.03	4523
852.165	4626
852.299	4702
852.434	4805
852.569	4733
852.703	4752
852.838	4850
852.973	4927
853.107	4854
853.242	4683
853.376	4626
853.511	4538
853.645	4618
853.78	4771
853.914	4656
854.048	4683
854.183	4634
854.317	4679
854.451	4828
854.585	4653
854.72	4618
854.854	4763
854.988	4653
855.122	4607
855.256	4508
855.39	4653
855.524	4748
855.658	4725
855.792	4691
855.926	4714
856.06	4748
856.194	4771
856.327	4656
856.461	4618
856.595	4615
856.729	4599
856.862	4771
856.996	4717
857.13	4675
857.263	4740
857.397	4812
857.53	4641
857.664	4656
857.797	4694
857.931	4725
858.064	4622
858.197	4729
858.331	4649
858.464	4554
858.597	4485
858.731	4618
858.864	4592
858.997	4603
859.13	4634
859.263	4656
859.396	4687
859.529	4546
859.662	4519
859.795	4523
859.928	4656
860.061	4740
860.194	4782
860.327	4618
860.46	4531
860.592	4740
860.725	4706
860.858	4736
860.99	4588
861.123	4512
861.256	4542
861.388	4588
861.521	5204
861.653	4542
861.786	4428
861.918	4470
862.05	4462
862.183	4538
862.315	4546
862.447	4653
862.58	4527
862.712	4417
862.844	4352
862.976	4451
863.108	4417
863.24	4911
863.372	4303
863.504	4398
863.636	4363
863.768	4481
863.9	4466
864.032	4360
864.164	4360
864.296	4443
864.428	4512
864.559	4558
864.691	4519
864.823	4542
864.954	4500
865.086	4500
865.217	4481
865.349	4405
865.48	4466
865.612	4455
865.743	4653
865.875	4466
866.006	4432
866.137	4447
866.269	4405
866.4	4436
866.531	4367
866.662	4462
866.793	4421
866.924	4405
867.055	4493
867.186	4447
867.317	4436
867.448	4379
867.579	4398
867.71	4409
867.841	4356
867.972	4417
868.103	4440
868.233	4451
868.364	4455
868.495	4470
868.625	4645
868.756	4752
868.886	4538
869.017	4584
869.147	4752
869.278	4714
869.408	4656
869.539	4615
869.669	4729
869.799	4706
869.929	4786
870.06	4755
870.19	4965
870.32	4889
870.45	4957
870.58	5022
870.71	5102
870.84	5067
870.97	4881
871.1	4850
871.23	5102
871.36	5121
871.489	4999
871.619	5094
871.749	5067
871.879	5140
872.008	5178
872.138	5064
872.267	4999
872.397	4847
872.526	4854
872.656	4702
872.785	4805
872.915	4957
873.044	5025
873.173	4908
873.303	4995
873.432	4946
873.561	4904
873.69	4850
873.819	4896
873.948	4866
874.077	4831
874.206	4752
874.335	4774
874.464	4957
874.593	5071
874.722	4972
874.851	5086
874.979	5048
875.108	4961
875.237	4927
875.365	4915
875.494	4896
875.623	4934
875.751	4854
875.88	4858
876.008	4919
876.136	5022
876.265	5197
876.393	5353
876.521	5235
876.65	5235
876.778	5170
876.906	5067
877.034	5018
877.162	5079
877.29	4965
877.418	5064
877.546	5067
877.674	5022
877.802	5029
877.93	5006
878.058	4968
878.185	4862
878.313	5010
878.441	4953
878.568	4786
878.696	4866
878.824	4965
878.951	4949
879.079	5132
879.206	5254
879.333	5083
879.461	4976
879.588	4942
879.715	5132
879.842	5220
879.97	5052
880.097	4801
880.224	4752
880.351	4801
880.478	4850
880.605	4801
880.732	4797
880.859	5083
880.986	4892
881.112	4904
881.239	4809
881.366	4653
881.493	4611
881.619	4565
881.746	4664
881.872	4634
881.999	4687
882.125	4679
882.252	4782
882.378	4847
882.505	4999
882.631	4752
882.757	4672
882.883	4744
883.01	4748
883.136	4668
883.262	4622
883.388	4588
883.514	4774
883.64	4866
883.766	4771
883.892	4649
884.018	4717
884.143	4877
884.269	4999
884.395	4675
884.52	4626
884.646	4660
884.772	4584
884.897	4558
885.023	4664
885.148	4790
885.274	4873
885.399	4790
885.524	4702
885.65	4691
885.775	4736
885.9	4698
886.025	4889
886.15	4740
886.275	4710
886.4	4660
886.525	4736
886.65	4668
886.775	4668
886.9	4858
887.025	4965
887.149	4828
887.274	4664
887.399	4611
887.523	4584
887.648	4580
887.773	4561
887.897	4744
888.021	4679
888.146	4687
888.27	4801
888.395	4904
888.519	4870
888.643	4812
888.767	4790
888.891	4649
889.015	4615
889.139	4660
889.263	4588
889.387	4759
889.511	4881
889.635	4824
889.759	4618
889.883	4618
890.006	4702
890.13	4835
890.254	4588
890.377	4656
890.501	4531
890.624	4535
890.748	4660
890.871	4516
890.995	4440
891.118	4360
891.241	4474
891.364	4527
891.488	4626
891.611	4493
891.734	4558
891.857	4538
891.98	4512
892.103	4592
892.226	4641
892.349	4550
892.471	4394
892.594	4489
892.717	4580
892.839	4508
892.962	4588
893.085	4660
893.207	4584
893.33	4481
893.452	4554
893.575	4645
893.697	4531
893.819	4816
893.941	4786
894.064	4797
894.186	4519
894.308	4580
894.43	4733
894.552	4835
894.674	4740
894.796	4565
894.918	4561
895.04	4607
895.161	4702
895.283	4634
895.405	4523
895.526	4637
895.648	4672
895.769	4668
895.891	4679
896.012	4725
896.134	4694
896.255	4672
896.376	4649
896.498	4584
896.619	4687
896.74	4535
896.861	4675
896.982	4934
897.103	5143
897.224	4835
897.345	4740
897.466	4660
897.587	4698
897.708	4816
897.828	4744
897.949	4645
898.07	4565
898.19	4611
898.311	4828
898.431	4660
898.552	4736
898.672	4782
898.792	4820
898.913	4736
899.033	4573
899.153	4512
899.273	4394
899.393	4497
899.513	4497
899.633	4481
899.753	4535
899.873	4459
899.993	4580
900.113	4538
900.232	4561
900.352	4500
900.472	4500
900.591	4413
900.711	4500
900.83	4481
900.95	4577
901.069	4698
901.189	4535
901.308	4421
901.427	4303
901.546	4363
901.665	4481
901.784	4493
901.904	4398
902.023	4360
902.141	4169
902.26	4139
902.379	4337
902.498	4211
902.617	4223
902.735	4371
902.854	4394
902.973	4306
903.091	4242
903.21	4242
903.328	4322
903.446	4268
903.565	4265
903.683	4322
903.801	4287
903.919	4363
904.038	4402
904.156	4268
904.274	4440
904.392	4337
904.51	4421
904.627	4451
904.745	4538
904.863	4630
904.981	4379
905.098	4314
905.216	4375
905.334	4386
905.451	4447
905.569	4443
905.686	4554
905.803	4550
905.921	4386
906.038	4519
906.155	4447
906.272	4455
906.389	4443
906.506	4291
906.623	4356
906.74	4440
906.857	4333
906.974	4348
907.091	4546
907.208	4687
907.324	4580
907.441	4500
907.557	4383
907.674	4341
907.79	4272
907.907	4394
908.023	4493
908.139	4436
908.256	4440
908.372	4455
908.488	4436
908.604	4402
908.72	4268
908.836	4329
908.952	4360
909.068	4451
909.184	4565
909.3	4478
909.415	4538
909.531	4580
909.647	4379
909.762	4356
909.878	4333
909.993	4436
910.108	4386
910.224	4405
910.339	4474
910.454	4363
910.57	4371
910.685	4291
910.8	4615
910.915	4569
911.03	4481
911.145	4329
911.259	4333
911.374	4329
911.489	4322
911.604	4291
911.718	4154
911.833	4177
911.947	4097
912.062	4067
912.176	4192
912.291	4234
912.405	4238
912.519	4455
912.633	4447
912.748	4371
912.862	4333
912.976	4211
913.09	4116
913.204	4188
913.318	4261
913.431	4398
913.545	4371
913.659	4432
913.772	4383
913.886	4230
914	4204
914.113	4329
914.226	4428
914.34	4405
914.453	4219
914.566	4402
914.68	4314
914.793	4337
914.906	4131
915.019	4109
915.132	4086
915.245	4188
915.358	4196
915.47	4207
915.583	4272
915.696	4322
915.809	4383
915.921	4405
916.034	4272
916.146	4238
916.259	4238
916.371	4375
916.483	4348
916.595	4234
916.708	4322
916.82	4303
916.932	4322
917.044	4337
917.156	4333
917.268	4215
917.38	4287
917.491	4261
917.603	4325
917.715	4405
917.826	4428
917.938	4371
918.049	4284
918.161	4379
918.272	4538
918.384	4584
918.495	4436
918.606	4249
918.717	4238
918.828	4314
918.939	4352
919.05	4227
919.161	4306
919.272	4128
919.383	4207
919.494	4478
919.604	4637
919.715	4409
919.826	4363
919.936	4390
920.047	4504
920.157	4516
920.267	4691
920.378	4554
920.488	4500
920.598	4752
920.708	4831
920.818	4809
920.928	4782
921.038	4927
921.148	4896
921.258	4588
921.368	4580
921.477	4394
921.587	4462
921.697	4394
921.806	4561
921.916	4436
922.025	4310
922.134	4276
922.244	4276
922.353	4344
922.462	4158
922.571	4090
922.68	3991
922.789	3968
922.898	4029
923.007	3975
923.116	4074
923.224	4063
923.333	4067
923.442	4029
923.55	3991
923.659	4002
923.767	4135
923.876	3964
923.984	4139
924.092	4013
924.201	4029
924.309	4086
924.417	4143
924.525	4082
924.633	4109
924.741	4812
924.849	3873
924.956	4131
925.064	3975
925.172	3896
925.279	3945
925.387	4082
925.494	4071
925.602	4169
925.709	4204
925.816	4029
925.924	4139
926.031	4238
926.138	4188
926.245	4150
926.352	4112
926.459	4272
926.566	4284
926.673	4105
926.779	4082
926.886	4067
926.993	3968
927.099	3907
927.206	3918
927.312	3960
927.419	4059
927.525	4010
927.631	4090
927.737	3983
927.843	3922
927.95	3831
928.056	3907
928.162	3994
928.267	3983
928.373	4675
928.479	4120
928.585	3865
928.69	3987
928.796	4086
928.901	3953
929.007	3827
929.112	3968
929.218	3975
929.323	3960
929.428	3949
929.533	4093
929.638	3903
929.743	3956
929.848	4029
929.953	3983
930.058	3907
930.163	3804
930.267	3819
930.372	3991
930.477	3827
930.581	4112
930.685	3922
930.79	3789
930.894	3873
930.998	3869
931.103	4025
931.207	3720
931.311	3732
931.415	3709
931.519	3534
931.623	3557
