Data from test_V78500241_57.txt Node
Date: Fri Mar 25 16:49:24 CST 2022
User: usil
Spectrometer: V785-0024
Trigger mode: 0
Integration Time (sec): 4.000000E-1
Scans to average: 1
Nonlinearity correction enabled: false
Boxcar width: 0
Storing dark spectrum: false
XAxis mode: Wavelengths
Number of Pixels in Spectrum: 1024
>>>>>Begin Spectral Data<<<<<
801.071	8050
801.214	8046
801.356	7940
801.499	7875
801.641	7856
801.783	7887
801.926	7967
802.068	7902
802.211	8001
802.353	8111
802.496	7936
802.638	7986
802.78	7982
802.923	7993
803.065	7936
803.208	7974
803.35	8035
803.492	8081
803.635	8107
803.777	7986
803.919	8176
804.061	8454
804.204	8168
804.346	8058
804.488	7982
804.63	8096
804.773	8035
804.915	8035
805.057	8202
805.199	8210
805.341	8279
805.483	8282
805.626	8244
805.768	8221
805.91	8210
806.052	8282
806.194	8145
806.336	8396
806.478	8153
806.62	8088
806.762	8221
806.904	8294
807.046	8457
807.188	8358
807.33	8400
807.472	8427
807.614	8183
807.756	8202
807.898	8016
808.04	7959
808.182	7925
808.324	7902
808.465	7959
808.607	8062
808.749	8142
808.891	8225
809.033	8358
809.174	8199
809.316	7993
809.458	8096
809.6	7997
809.741	8035
809.883	8058
810.025	8142
810.166	8092
810.308	8107
810.45	8103
810.591	7917
810.733	7693
810.875	7708
811.016	7525
811.158	7559
811.299	7666
811.441	7769
811.582	7723
811.724	7597
811.865	7578
812.007	7685
812.148	7620
812.29	7704
812.431	7788
812.573	7959
812.714	8043
812.855	8168
812.997	8294
813.138	8339
813.279	8252
813.421	8161
813.562	8012
813.703	7894
813.845	7807
813.986	7510
814.127	7324
814.268	7209
814.41	7259
814.551	7209
814.692	7266
814.833	7171
814.974	7129
815.115	7183
815.256	6958
815.397	6973
815.539	6947
815.68	6852
815.821	6772
815.962	6859
816.103	6871
816.244	6722
816.385	6646
816.526	6662
816.666	6555
816.807	6331
816.948	6433
817.089	6486
817.23	6475
817.371	6399
817.512	6471
817.653	6471
817.793	6395
817.934	6494
818.075	6506
818.216	6437
818.356	6490
818.497	6346
818.638	6209
818.778	6182
818.919	6152
819.06	6175
819.2	6346
819.341	6319
819.481	6395
819.622	6559
819.762	6806
819.903	6760
820.043	6646
820.184	6589
820.324	6639
820.465	6757
820.605	6665
820.746	6681
820.886	6479
821.026	6677
821.167	6749
821.307	6859
821.447	6821
821.588	6711
821.728	6585
821.868	6551
822.008	6331
822.149	6391
822.289	6357
822.429	6152
822.569	6121
822.709	6133
822.849	5973
822.99	5931
823.13	5946
823.27	5942
823.41	5844
823.55	5760
823.69	5802
823.83	5821
823.97	5695
824.11	5577
824.25	5570
824.389	5619
824.529	5699
824.669	5547
824.809	5722
824.949	5657
825.089	5665
825.228	5611
825.368	5459
825.508	5330
825.648	5425
825.787	5410
825.927	5376
826.067	5334
826.206	5368
826.346	5406
826.485	5421
826.625	5425
826.765	5611
826.904	5516
827.044	5277
827.183	5212
827.323	5174
827.462	5261
827.601	5174
827.741	5208
827.88	5242
828.02	5132
828.159	5280
828.298	5337
828.437	5395
828.577	5284
828.716	5528
828.855	5337
828.994	5239
829.134	5166
829.273	5235
829.412	5174
829.551	5159
829.69	5181
829.829	5292
829.968	5406
830.107	5334
830.246	5334
830.385	5181
830.524	5136
830.663	5109
830.802	5003
830.941	4896
831.08	4911
831.219	5010
831.357	4980
831.496	5170
831.635	4953
831.774	4820
831.913	4870
832.051	4828
832.19	4771
832.329	4862
832.467	4782
832.606	4691
832.744	4744
832.883	4805
833.022	4763
833.16	4786
833.299	4858
833.437	4847
833.576	4881
833.714	4862
833.852	4923
833.991	4915
834.129	5022
834.267	5025
834.406	4972
834.544	5029
834.682	5064
834.821	5052
834.959	5201
835.097	5010
835.235	5223
835.373	5128
835.511	5136
835.65	5052
835.788	5064
835.926	4946
836.064	4923
836.202	4930
836.34	5204
836.478	5242
836.615	5143
836.753	5220
836.891	5303
837.029	5322
837.167	5220
837.305	5151
837.443	5155
837.58	5086
837.718	5330
837.856	5227
837.993	5189
838.131	5311
838.269	5280
838.406	5265
838.544	5250
838.681	5094
838.819	5029
838.956	4881
839.094	4927
839.231	5052
839.369	5128
839.506	5478
839.643	5307
839.781	5067
839.918	5064
840.055	5060
840.193	5132
840.33	5181
840.467	5189
840.604	5258
840.742	5459
840.879	5079
841.016	5162
841.153	5136
841.29	5326
841.427	5364
841.564	5326
841.701	5387
841.838	5364
841.975	5288
842.112	5345
842.249	5212
842.385	5090
842.522	5406
842.659	5220
842.796	5208
842.933	5246
843.069	5197
843.206	5155
843.343	5318
843.479	5307
843.616	5296
843.752	5090
843.889	5048
844.025	5303
844.162	5022
844.298	5235
844.435	5155
844.571	5033
844.708	5250
844.844	5334
844.98	5353
845.117	5315
845.253	5189
845.389	5117
845.525	5208
845.661	5212
845.798	5128
845.934	5155
846.07	5086
846.206	5269
846.342	5326
846.478	5299
846.614	5079
846.75	5041
846.886	4980
847.022	5181
847.158	5048
847.294	5132
847.429	5102
847.565	5121
847.701	5337
847.837	4930
847.972	4812
848.108	4987
848.244	4995
848.379	4778
848.515	4774
848.65	4714
848.786	4759
848.921	4805
849.057	4873
849.192	4911
849.328	4862
849.463	4904
849.598	4797
849.734	4835
849.869	4706
850.004	4668
850.14	4687
850.275	4710
850.41	4565
850.545	4607
850.68	4668
850.815	4596
850.95	4641
851.085	4847
851.22	4793
851.355	4668
851.49	4683
851.625	4668
851.76	4668
851.895	4592
852.03	4607
852.165	4725
852.299	4763
852.434	4812
852.569	4759
852.703	4812
852.838	4870
852.973	4946
853.107	4938
853.242	4763
853.376	4679
853.511	4596
853.645	4679
853.78	4900
853.914	4714
854.048	4683
854.183	4706
854.317	4767
854.451	4915
854.585	4694
854.72	4656
854.854	4801
854.988	4630
855.122	4660
855.256	4577
855.39	4710
855.524	4824
855.658	4694
855.792	4702
855.926	4793
856.06	4831
856.194	4797
856.327	4691
856.461	4634
856.595	4675
856.729	4580
856.862	4790
856.996	4744
857.13	4793
857.263	4752
857.397	4862
857.53	4691
857.664	4752
857.797	4763
857.931	4812
858.064	4675
858.197	4721
858.331	4683
858.464	4691
858.597	4550
858.731	4641
858.864	4691
858.997	4656
859.13	4691
859.263	4717
859.396	4755
859.529	4622
859.662	4588
859.795	4622
859.928	4645
860.061	4828
860.194	4774
860.327	4656
860.46	4615
860.592	4729
860.725	4778
860.858	4778
860.99	4592
861.123	4523
861.256	4599
861.388	4679
861.521	5216
861.653	4523
861.786	4474
861.918	4493
862.05	4573
862.183	4569
862.315	4607
862.447	4683
862.58	4645
862.712	4421
862.844	4348
862.976	4493
863.108	4489
863.24	4915
863.372	4398
863.504	4447
863.636	4443
863.768	4493
863.9	4443
864.032	4367
864.164	4440
864.296	4497
864.428	4626
864.559	4588
864.691	4531
864.823	4565
864.954	4611
865.086	4561
865.217	4489
865.349	4390
865.48	4474
865.612	4493
865.743	4733
865.875	4489
866.006	4462
866.137	4455
866.269	4489
866.4	4417
866.531	4478
866.662	4428
866.793	4451
866.924	4451
867.055	4512
867.186	4470
867.317	4447
867.448	4421
867.579	4413
867.71	4443
867.841	4367
867.972	4531
868.103	4519
868.233	4493
868.364	4481
868.495	4519
868.625	4683
868.756	4824
868.886	4592
869.017	4645
869.147	4778
869.278	4767
869.408	4683
869.539	4733
869.669	4736
869.799	4698
869.929	4755
870.06	4767
870.19	5003
870.32	4957
870.45	5018
870.58	5086
870.71	5143
870.84	5113
870.97	5003
871.1	4942
871.23	5147
871.36	5124
871.489	5102
871.619	5109
871.749	5143
871.879	5166
872.008	5193
872.138	5143
872.267	4991
872.397	4930
872.526	4831
872.656	4733
872.785	4824
872.915	4972
873.044	5098
873.173	4953
873.303	5029
873.432	5033
873.561	5003
873.69	4900
873.819	4896
873.948	4961
874.077	4904
874.206	4740
874.335	4831
874.464	4942
874.593	5067
874.722	5060
874.851	5128
874.979	5128
875.108	5045
875.237	4927
875.365	4900
875.494	4911
875.623	5014
875.751	4839
875.88	4919
876.008	5022
876.136	5086
876.265	5280
876.393	5357
876.521	5280
876.65	5242
876.778	5155
876.906	5075
877.034	5075
877.162	5109
877.29	4991
877.418	5140
877.546	5098
877.674	5067
877.802	5056
877.93	5025
878.058	4961
878.185	4900
878.313	4949
878.441	4961
878.568	4820
878.696	4911
878.824	4991
878.951	5045
879.079	5155
879.206	5360
879.333	5128
879.461	5067
879.588	5124
879.715	5132
879.842	5235
879.97	5064
880.097	4816
880.224	4831
880.351	4892
880.478	4900
880.605	4835
880.732	4801
880.859	5117
880.986	4987
881.112	4919
881.239	4786
881.366	4683
881.493	4653
881.619	4626
881.746	4664
881.872	4717
881.999	4691
882.125	4717
882.252	4831
882.378	4835
882.505	4968
882.631	4816
882.757	4736
882.883	4778
883.01	4763
883.136	4714
883.262	4698
883.388	4679
883.514	4835
883.64	4927
883.766	4854
883.892	4748
884.018	4782
884.143	4889
884.269	5045
884.395	4740
884.52	4691
884.646	4653
884.772	4618
884.897	4615
885.023	4721
885.148	4828
885.274	4908
885.399	4854
885.524	4752
885.65	4721
885.775	4767
885.9	4748
886.025	4896
886.15	4824
886.275	4778
886.4	4694
886.525	4740
886.65	4755
886.775	4771
886.9	4980
887.025	5045
887.149	4831
887.274	4687
887.399	4615
887.523	4611
887.648	4573
887.773	4622
887.897	4782
888.021	4904
888.146	4694
888.27	4843
888.395	4972
888.519	4854
888.643	4778
888.767	4873
888.891	4702
889.015	4630
889.139	4675
889.263	4641
889.387	4801
889.511	4870
889.635	4839
889.759	4683
889.883	4656
890.006	4744
890.13	4870
890.254	4618
890.377	4778
890.501	4588
890.624	4565
890.748	4672
890.871	4542
890.995	4455
891.118	4428
891.241	4554
891.364	4596
891.488	4630
891.611	4527
891.734	4569
891.857	4645
891.98	4611
892.103	4721
892.226	4599
892.349	4592
892.471	4462
892.594	4611
892.717	4599
892.839	4607
892.962	4641
893.085	4649
893.207	4637
893.33	4527
893.452	4531
893.575	4714
893.697	4622
893.819	4854
893.941	4866
894.064	4824
894.186	4618
894.308	4554
894.43	4797
894.552	4927
894.674	4748
894.796	4599
894.918	4596
895.04	4607
895.161	4725
895.283	4714
895.405	4645
895.526	4660
895.648	4763
895.769	4725
895.891	4801
896.012	4759
896.134	4797
896.255	4694
896.376	4634
896.498	4660
896.619	4698
896.74	4653
896.861	4702
896.982	4934
897.103	5109
897.224	4831
897.345	4801
897.466	4679
897.587	4755
897.708	4877
897.828	4820
897.949	4721
898.07	4588
898.19	4653
898.311	4850
898.431	4740
898.552	4755
898.672	4889
898.792	4835
898.913	4801
899.033	4634
899.153	4565
899.273	4459
899.393	4497
899.513	4565
899.633	4561
899.753	4569
899.873	4546
899.993	4630
900.113	4558
900.232	4622
900.352	4580
900.472	4497
900.591	4421
900.711	4550
900.83	4462
900.95	4630
901.069	4672
901.189	4535
901.308	4402
901.427	4344
901.546	4432
901.665	4497
901.784	4542
901.904	4436
902.023	4371
902.141	4211
902.26	4196
902.379	4344
902.498	4318
902.617	4291
902.735	4379
902.854	4383
902.973	4394
903.091	4215
903.21	4253
903.328	4352
903.446	4310
903.565	4280
903.683	4409
903.801	4333
903.919	4413
904.038	4455
904.156	4367
904.274	4485
904.392	4432
904.51	4432
904.627	4516
904.745	4592
904.863	4672
904.981	4451
905.098	4341
905.216	4409
905.334	4478
905.451	4447
905.569	4493
905.686	4615
905.803	4584
905.921	4478
906.038	4542
906.155	4538
906.272	4459
906.389	4481
906.506	4371
906.623	4405
906.74	4413
906.857	4322
906.974	4329
907.091	4599
907.208	4740
907.324	4622
907.441	4531
907.557	4360
907.674	4367
907.79	4333
907.907	4413
908.023	4493
908.139	4523
908.256	4459
908.372	4455
908.488	4497
908.604	4409
908.72	4356
908.836	4455
908.952	4436
909.068	4478
909.184	4622
909.3	4500
909.415	4615
909.531	4584
909.647	4394
909.762	4413
909.878	4344
909.993	4447
910.108	4421
910.224	4443
910.339	4527
910.454	4409
910.57	4402
910.685	4310
910.8	4660
910.915	4691
911.03	4527
911.145	4367
911.259	4314
911.374	4398
911.489	4341
911.604	4367
911.718	4204
911.833	4234
911.947	4150
912.062	4044
912.176	4246
912.291	4276
912.405	4280
912.519	4508
912.633	4527
912.748	4424
912.862	4333
912.976	4272
913.09	4128
913.204	4249
913.318	4291
913.431	4413
913.545	4386
913.659	4519
913.772	4363
913.886	4265
914	4287
914.113	4398
914.226	4466
914.34	4459
914.453	4299
914.566	4424
914.68	4390
914.793	4360
914.906	4162
915.019	4215
915.132	4097
915.245	4207
915.358	4242
915.47	4276
915.583	4242
915.696	4322
915.809	4474
915.921	4504
916.034	4253
916.146	4329
916.259	4246
916.371	4424
916.483	4367
916.595	4322
916.708	4329
916.82	4371
916.932	4348
917.044	4383
917.156	4363
917.268	4284
917.38	4341
917.491	4291
917.603	4390
917.715	4489
917.826	4436
917.938	4363
918.049	4295
918.161	4436
918.272	4554
918.384	4577
918.495	4500
918.606	4363
918.717	4306
918.828	4417
918.939	4383
919.05	4253
919.161	4363
919.272	4211
919.383	4276
919.494	4542
919.604	4687
919.715	4478
919.826	4402
919.936	4443
920.047	4573
920.157	4516
920.267	4714
920.378	4577
920.488	4500
920.598	4694
920.708	4930
920.818	4759
920.928	4816
921.038	5041
921.148	4980
921.258	4691
921.368	4584
921.477	4519
921.587	4512
921.697	4421
921.806	4550
921.916	4466
922.025	4261
922.134	4303
922.244	4261
922.353	4333
922.462	4207
922.571	4120
922.68	4078
922.789	4029
922.898	4093
923.007	4010
923.116	4177
923.224	4120
923.333	4139
923.442	3991
923.55	3975
923.659	4051
923.767	4181
923.876	4010
923.984	4196
924.092	4036
924.201	4109
924.309	4124
924.417	4128
924.525	4112
924.633	4147
924.741	5071
924.849	3968
924.956	4109
925.064	3949
925.172	3911
925.279	4002
925.387	4051
925.494	4124
925.602	4295
925.709	4242
925.816	4093
925.924	4166
926.031	4200
926.138	4230
926.245	4249
926.352	4147
926.459	4265
926.566	4383
926.673	4192
926.779	4128
926.886	4093
926.993	3956
927.099	3994
927.206	3975
927.312	3979
927.419	4063
927.525	4078
927.631	4120
927.737	3998
927.843	3975
927.95	3880
928.056	3972
928.162	4010
928.267	4082
928.373	4759
928.479	4139
928.585	3907
928.69	4090
928.796	4067
928.901	3972
929.007	3850
929.112	4067
929.218	4002
929.323	3975
929.428	3998
929.533	4154
929.638	3968
929.743	3979
929.848	4067
929.953	4059
930.058	3926
930.163	3778
930.267	3884
930.372	4017
930.477	3850
930.581	4128
930.685	3979
930.79	3816
930.894	3903
930.998	3899
931.103	4029
931.207	3751
931.311	3728
931.415	3720
931.519	3568
931.623	3572
