Data from test_V78500241_1808.txt Node
Date: Fri Mar 25 17:01:34 CST 2022
User: usil
Spectrometer: V785-0024
Trigger mode: 0
Integration Time (sec): 4.000000E-1
Scans to average: 1
Nonlinearity correction enabled: false
Boxcar width: 0
Storing dark spectrum: false
XAxis mode: Wavelengths
Number of Pixels in Spectrum: 1024
>>>>>Begin Spectral Data<<<<<
801.071	7989
801.214	7993
801.356	7917
801.499	7849
801.641	7757
801.783	7826
801.926	8001
802.068	7917
802.211	8016
802.353	7978
802.496	7902
802.638	7864
802.78	7871
802.923	7902
803.065	7845
803.208	7807
803.35	7986
803.492	8065
803.635	8115
803.777	7989
803.919	8115
804.061	8404
804.204	8237
804.346	7974
804.488	7963
804.63	8073
804.773	7978
804.915	8142
805.057	8351
805.199	8153
805.341	8157
805.483	8259
805.626	8176
805.768	8149
805.91	8248
806.052	8237
806.194	8115
806.336	8267
806.478	8073
806.62	8046
806.762	8142
806.904	8298
807.046	8522
807.188	8317
807.33	8259
807.472	8294
807.614	8206
807.756	8126
807.898	8016
808.04	7860
808.182	7883
808.324	7811
808.465	7906
808.607	8054
808.749	8130
808.891	8180
809.033	8328
809.174	8172
809.316	8115
809.458	8062
809.6	7974
809.741	8008
809.883	8035
810.025	8153
810.166	8065
810.308	8035
810.45	7963
810.591	7822
810.733	7712
810.875	7670
811.016	7510
811.158	7460
811.299	7548
811.441	7685
811.582	7662
811.724	7537
811.865	7567
812.007	7544
812.148	7582
812.29	7605
812.431	7750
812.573	7932
812.714	7959
812.855	8115
812.997	8180
813.138	8336
813.279	8221
813.421	7993
813.562	7932
813.703	7807
813.845	7734
813.986	7430
814.127	7293
814.268	7225
814.41	7263
814.551	7236
814.692	7179
814.833	7095
814.974	7091
815.115	7118
815.256	6954
815.397	6947
815.539	6970
815.68	6833
815.821	6802
815.962	6833
816.103	6859
816.244	6688
816.385	6631
816.526	6604
816.666	6490
816.807	6254
816.948	6452
817.089	6441
817.23	6399
817.371	6388
817.512	6357
817.653	6384
817.793	6365
817.934	6353
818.075	6464
818.216	6483
818.356	6445
818.497	6258
818.638	6155
818.778	6114
818.919	6144
819.06	6155
819.2	6334
819.341	6338
819.481	6414
819.622	6574
819.762	6745
819.903	6681
820.043	6616
820.184	6570
820.324	6570
820.465	6673
820.605	6650
820.746	6658
820.886	6456
821.026	6677
821.167	6662
821.307	6818
821.447	6795
821.588	6662
821.728	6536
821.868	6490
822.008	6331
822.149	6285
822.289	6357
822.429	6133
822.569	6060
822.709	6152
822.849	5901
822.99	5920
823.13	5901
823.27	5916
823.41	5771
823.55	5714
823.69	5771
823.83	5752
823.97	5668
824.11	5547
824.25	5562
824.389	5532
824.529	5547
824.669	5490
824.809	5649
824.949	5680
825.089	5600
825.228	5551
825.368	5410
825.508	5322
825.648	5357
825.787	5364
825.927	5322
826.067	5288
826.206	5254
826.346	5368
826.485	5448
826.625	5406
826.765	5585
826.904	5414
827.044	5239
827.183	5178
827.323	5094
827.462	5216
827.601	5204
827.741	5204
827.88	5223
828.02	5098
828.159	5231
828.298	5326
828.437	5360
828.577	5288
828.716	5543
828.855	5315
828.994	5185
829.134	5140
829.273	5162
829.412	5132
829.551	5083
829.69	5159
829.829	5254
829.968	5395
830.107	5246
830.246	5223
830.385	5159
830.524	5155
830.663	5079
830.802	4976
830.941	4904
831.08	4866
831.219	4946
831.357	4987
831.496	5128
831.635	4961
831.774	4805
831.913	4911
832.051	4744
832.19	4778
832.329	4858
832.467	4729
832.606	4679
832.744	4668
832.883	4694
833.022	4664
833.16	4717
833.299	4828
833.437	4793
833.576	4816
833.714	4839
833.852	4900
833.991	4889
834.129	4980
834.267	4938
834.406	4900
834.544	4957
834.682	5006
834.821	4999
834.959	5124
835.097	4987
835.235	5128
835.373	5094
835.511	5105
835.65	4999
835.788	4949
835.926	4881
836.064	4904
836.202	4862
836.34	5140
836.478	5197
836.615	5136
836.753	5185
836.891	5273
837.029	5208
837.167	5151
837.305	5166
837.443	5090
837.58	5079
837.718	5227
837.856	5136
837.993	5132
838.131	5254
838.269	5155
838.406	5201
838.544	5231
838.681	5010
838.819	5060
838.956	4870
839.094	4870
839.231	5033
839.369	5094
839.506	5417
839.643	5220
839.781	5022
839.918	5014
840.055	5128
840.193	5067
840.33	5064
840.467	5136
840.604	5140
840.742	5398
840.879	5052
841.016	5048
841.153	5124
841.29	5311
841.427	5334
841.564	5318
841.701	5349
841.838	5216
841.975	5220
842.112	5292
842.249	5098
842.385	5067
842.522	5334
842.659	5124
842.796	5151
842.933	5166
843.069	5140
843.206	5147
843.343	5261
843.479	5235
843.616	5216
843.752	5037
843.889	4965
844.025	5174
844.162	4919
844.298	5227
844.435	5079
844.571	5075
844.708	5193
844.844	5315
844.98	5353
845.117	5296
845.253	5098
845.389	5022
845.525	5185
845.661	5143
845.798	5041
845.934	5140
846.07	5014
846.206	5201
846.342	5334
846.478	5117
846.614	4984
846.75	4980
846.886	4934
847.022	5132
847.158	5052
847.294	5064
847.429	5113
847.565	5060
847.701	5368
847.837	4839
847.972	4809
848.108	4972
848.244	4930
848.379	4771
848.515	4733
848.65	4736
848.786	4736
848.921	4824
849.057	4828
849.192	4908
849.328	4820
849.463	4873
849.598	4771
849.734	4778
849.869	4698
850.004	4611
850.14	4683
850.275	4573
850.41	4500
850.545	4558
850.68	4626
850.815	4596
850.95	4641
851.085	4847
851.22	4755
851.355	4660
851.49	4622
851.625	4607
851.76	4660
851.895	4554
852.03	4519
852.165	4630
852.299	4752
852.434	4809
852.569	4759
852.703	4790
852.838	4854
852.973	4961
853.107	4866
853.242	4763
853.376	4691
853.511	4550
853.645	4584
853.78	4748
853.914	4698
854.048	4687
854.183	4679
854.317	4668
854.451	4790
854.585	4630
854.72	4641
854.854	4748
854.988	4596
855.122	4599
855.256	4527
855.39	4649
855.524	4725
855.658	4733
855.792	4679
855.926	4706
856.06	4763
856.194	4782
856.327	4675
856.461	4599
856.595	4607
856.729	4630
856.862	4748
856.996	4683
857.13	4755
857.263	4702
857.397	4786
857.53	4672
857.664	4725
857.797	4767
857.931	4744
858.064	4694
858.197	4790
858.331	4637
858.464	4596
858.597	4500
858.731	4618
858.864	4653
858.997	4554
859.13	4645
859.263	4615
859.396	4721
859.529	4580
859.662	4527
859.795	4561
859.928	4618
860.061	4774
860.194	4717
860.327	4630
860.46	4561
860.592	4672
860.725	4702
860.858	4729
860.99	4573
861.123	4531
861.256	4516
861.388	4611
861.521	5417
861.653	4531
861.786	4440
861.918	4428
862.05	4497
862.183	4538
862.315	4611
862.447	4668
862.58	4512
862.712	4398
862.844	4329
862.976	4447
863.108	4432
863.24	4889
863.372	4314
863.504	4440
863.636	4398
863.768	4493
863.9	4424
864.032	4371
864.164	4367
864.296	4485
864.428	4523
864.559	4531
864.691	4497
864.823	4523
864.954	4466
865.086	4489
865.217	4432
865.349	4413
865.48	4474
865.612	4462
865.743	4622
865.875	4485
866.006	4409
866.137	4455
866.269	4462
866.4	4432
866.531	4432
866.662	4413
866.793	4352
866.924	4436
867.055	4466
867.186	4436
867.317	4417
867.448	4375
867.579	4417
867.71	4421
867.841	4356
867.972	4519
868.103	4451
868.233	4440
868.364	4424
868.495	4508
868.625	4645
868.756	4759
868.886	4603
869.017	4592
869.147	4782
869.278	4755
869.408	4649
869.539	4607
869.669	4691
869.799	4672
869.929	4721
870.06	4702
870.19	4965
870.32	4900
870.45	4908
870.58	4984
870.71	5029
870.84	5022
870.97	4949
871.1	4889
871.23	5170
871.36	5067
871.489	4995
871.619	5029
871.749	5048
871.879	5113
872.008	5178
872.138	5071
872.267	4942
872.397	4843
872.526	4828
872.656	4744
872.785	4812
872.915	4942
873.044	5025
873.173	4915
873.303	4938
873.432	4965
873.561	4949
873.69	4866
873.819	4839
873.948	4957
874.077	4828
874.206	4744
874.335	4782
874.464	4911
874.593	5048
874.722	4972
874.851	5136
874.979	5029
875.108	4995
875.237	4927
875.365	4843
875.494	4889
875.623	4972
875.751	4847
875.88	4843
876.008	4999
876.136	5022
876.265	5162
876.393	5296
876.521	5273
876.65	5235
876.778	5189
876.906	5064
877.034	5041
877.162	5045
877.29	4999
877.418	5025
877.546	5045
877.674	5045
877.802	5045
877.93	5014
878.058	4911
878.185	4847
878.313	4965
878.441	4930
878.568	4847
878.696	4877
878.824	4953
878.951	5029
879.079	5128
879.206	5303
879.333	5102
879.461	5006
879.588	4999
879.715	5090
879.842	5212
879.97	4976
880.097	4767
880.224	4736
880.351	4782
880.478	4820
880.605	4790
880.732	4816
880.859	5067
880.986	4908
881.112	4881
881.239	4759
881.366	4656
881.493	4599
881.619	4599
881.746	4607
881.872	4626
881.999	4664
882.125	4664
882.252	4755
882.378	4828
882.505	4942
882.631	4831
882.757	4687
882.883	4717
883.01	4721
883.136	4672
883.262	4592
883.388	4630
883.514	4782
883.64	4862
883.766	4759
883.892	4721
884.018	4717
884.143	4854
884.269	5048
884.395	4645
884.52	4656
884.646	4672
884.772	4538
884.897	4481
885.023	4664
885.148	4767
885.274	4820
885.399	4828
885.524	4691
885.65	4702
885.775	4733
885.9	4687
886.025	4858
886.15	4782
886.275	4679
886.4	4668
886.525	4717
886.65	4668
886.775	4721
886.9	4900
887.025	5006
887.149	4831
887.274	4691
887.399	4577
887.523	4550
887.648	4603
887.773	4569
887.897	4725
888.021	4763
888.146	4645
888.27	4767
888.395	4927
888.519	4801
888.643	4824
888.767	4812
888.891	4637
889.015	4596
889.139	4626
889.263	4592
889.387	4755
889.511	4873
889.635	4797
889.759	4607
889.883	4634
890.006	4710
890.13	4831
890.254	4584
890.377	4634
890.501	4497
890.624	4546
890.748	4592
890.871	4493
890.995	4447
891.118	4363
891.241	4500
891.364	4558
891.488	4584
891.611	4474
891.734	4542
891.857	4596
891.98	4538
892.103	4660
892.226	4596
892.349	4584
892.471	4402
892.594	4500
892.717	4546
892.839	4569
892.962	4653
893.085	4675
893.207	4607
893.33	4436
893.452	4466
893.575	4649
893.697	4558
893.819	4805
893.941	4858
894.064	4710
894.186	4599
894.308	4538
894.43	4740
894.552	4816
894.674	4759
894.796	4554
894.918	4615
895.04	4573
895.161	4702
895.283	4679
895.405	4630
895.526	4607
895.648	4664
895.769	4683
895.891	4717
896.012	4736
896.134	4694
896.255	4668
896.376	4656
896.498	4596
896.619	4660
896.74	4603
896.861	4668
896.982	4942
897.103	5098
897.224	4778
897.345	4714
897.466	4679
897.587	4748
897.708	4866
897.828	4771
897.949	4679
898.07	4569
898.19	4622
898.311	4801
898.431	4687
898.552	4740
898.672	4824
898.792	4778
898.913	4725
899.033	4569
899.153	4489
899.273	4386
899.393	4500
899.513	4527
899.633	4531
899.753	4527
899.873	4527
899.993	4603
900.113	4519
900.232	4596
900.352	4497
900.472	4481
900.591	4356
900.711	4443
900.83	4394
900.95	4573
901.069	4668
901.189	4481
901.308	4352
901.427	4303
901.546	4356
901.665	4508
901.784	4466
901.904	4344
902.023	4322
902.141	4185
902.26	4112
902.379	4276
902.498	4246
902.617	4215
902.735	4295
902.854	4375
902.973	4379
903.091	4204
903.21	4223
903.328	4310
903.446	4265
903.565	4211
903.683	4371
903.801	4272
903.919	4367
904.038	4409
904.156	4367
904.274	4462
904.392	4390
904.51	4500
904.627	4470
904.745	4588
904.863	4615
904.981	4371
905.098	4333
905.216	4356
905.334	4390
905.451	4405
905.569	4462
905.686	4573
905.803	4512
905.921	4428
906.038	4599
906.155	4424
906.272	4367
906.389	4466
906.506	4375
906.623	4322
906.74	4386
906.857	4310
906.974	4383
907.091	4561
907.208	4691
907.324	4561
907.441	4474
907.557	4310
907.674	4360
907.79	4333
907.907	4344
908.023	4485
908.139	4451
908.256	4409
908.372	4474
908.488	4436
908.604	4341
908.72	4356
908.836	4394
908.952	4371
909.068	4455
909.184	4596
909.3	4470
909.415	4592
909.531	4565
909.647	4344
909.762	4386
909.878	4367
909.993	4394
910.108	4398
910.224	4405
910.339	4481
910.454	4402
910.57	4375
910.685	4303
910.8	4660
910.915	4558
911.03	4478
911.145	4344
911.259	4341
911.374	4383
911.489	4295
911.604	4284
911.718	4166
911.833	4188
911.947	4097
912.062	4036
912.176	4227
912.291	4306
912.405	4234
912.519	4504
912.633	4519
912.748	4352
912.862	4291
912.976	4185
913.09	4124
913.204	4135
913.318	4249
913.431	4333
913.545	4413
913.659	4428
913.772	4371
913.886	4306
914	4238
914.113	4409
914.226	4459
914.34	4390
914.453	4196
914.566	4402
914.68	4306
914.793	4333
914.906	4135
915.019	4105
915.132	4063
915.245	4223
915.358	4223
915.47	4207
915.583	4276
915.696	4306
915.809	4398
915.921	4466
916.034	4272
916.146	4276
916.259	4242
916.371	4386
916.483	4386
916.595	4299
916.708	4291
916.82	4329
916.932	4333
917.044	4280
917.156	4299
917.268	4242
917.38	4284
917.491	4291
917.603	4337
917.715	4383
917.826	4409
917.938	4306
918.049	4230
918.161	4424
918.272	4531
918.384	4489
918.495	4443
918.606	4318
918.717	4192
918.828	4356
918.939	4363
919.05	4310
919.161	4341
919.272	4158
919.383	4234
919.494	4455
919.604	4611
919.715	4459
919.826	4341
919.936	4409
920.047	4481
920.157	4500
920.267	4710
920.378	4523
920.488	4470
920.598	4664
920.708	4866
920.818	4752
920.928	4801
921.038	4927
921.148	4908
921.258	4596
921.368	4508
921.477	4512
921.587	4421
921.697	4363
921.806	4527
921.916	4455
922.025	4238
922.134	4249
922.244	4181
922.353	4371
922.462	4173
922.571	4154
922.68	4025
922.789	3979
922.898	4055
923.007	3972
923.116	4150
923.224	4051
923.333	4044
923.442	3987
923.55	3907
923.659	4051
923.767	4112
923.876	4040
923.984	4124
924.092	3983
924.201	4078
924.309	4109
924.417	4093
924.525	4017
924.633	4131
924.741	5071
924.849	3926
924.956	4139
925.064	4010
925.172	3861
925.279	3960
925.387	4029
925.494	4078
925.602	4227
925.709	4181
925.816	4036
925.924	4128
926.031	4234
926.138	4143
926.245	4207
926.352	4097
926.459	4257
926.566	4337
926.673	4177
926.779	4048
926.886	4055
926.993	3922
927.099	3941
927.206	3941
927.312	3964
927.419	4032
927.525	4063
927.631	4082
927.737	3968
927.843	3918
927.95	3835
928.056	3918
928.162	3964
928.267	4063
928.373	4584
928.479	4097
928.585	3850
928.69	3983
928.796	4074
928.901	3953
929.007	3838
929.112	3994
929.218	3987
929.323	3945
929.428	3983
929.533	4128
929.638	3934
929.743	3892
929.848	4025
929.953	3983
930.058	3930
930.163	3778
930.267	3835
930.372	3953
930.477	3800
930.581	4059
930.685	3884
930.79	3819
930.894	3861
930.998	3831
931.103	4040
931.207	3686
931.311	3682
931.415	3622
931.519	3549
931.623	3549
