Data from test_V78500241_2593.txt Node
Date: Fri Mar 25 17:07:01 CST 2022
User: usil
Spectrometer: V785-0024
Trigger mode: 0
Integration Time (sec): 4.000000E-1
Scans to average: 1
Nonlinearity correction enabled: false
Boxcar width: 0
Storing dark spectrum: false
XAxis mode: Wavelengths
Number of Pixels in Spectrum: 1024
>>>>>Begin Spectral Data<<<<<
801.071	7982
801.214	7955
801.356	7879
801.499	7856
801.641	7792
801.783	7822
801.926	7978
802.068	7875
802.211	7921
802.353	8043
802.496	7890
802.638	7837
802.78	7917
802.923	7898
803.065	7852
803.208	7875
803.35	7970
803.492	8024
803.635	8142
803.777	8005
803.919	8073
804.061	8419
804.204	8168
804.346	7967
804.488	7944
804.63	8126
804.773	8035
804.915	8103
805.057	8313
805.199	8157
805.341	8214
805.483	8252
805.626	8256
805.768	8100
805.91	8142
806.052	8187
806.194	8134
806.336	8252
806.478	8077
806.62	8058
806.762	8145
806.904	8199
807.046	8408
807.188	8332
807.33	8214
807.472	8290
807.614	8115
807.756	8161
807.898	7967
808.04	7852
808.182	7887
808.324	7906
808.465	7917
808.607	8092
808.749	8077
808.891	8240
809.033	8294
809.174	8199
809.316	8092
809.458	8016
809.6	7909
809.741	8077
809.883	8073
810.025	8096
810.166	8119
810.308	8024
810.45	7970
810.591	7822
810.733	7681
810.875	7601
811.016	7483
811.158	7483
811.299	7529
811.441	7761
811.582	7643
811.724	7548
811.865	7537
812.007	7624
812.148	7559
812.29	7647
812.431	7708
812.573	7852
812.714	7951
812.855	8119
812.997	8225
813.138	8271
813.279	8191
813.421	8043
813.562	7970
813.703	7894
813.845	7757
813.986	7445
814.127	7278
814.268	7187
814.41	7168
814.551	7168
814.692	7137
814.833	7065
814.974	7103
815.115	7133
815.256	6970
815.397	6989
815.539	6916
815.68	6844
815.821	6798
815.962	6859
816.103	6802
816.244	6722
816.385	6627
816.526	6650
816.666	6464
816.807	6311
816.948	6437
817.089	6410
817.23	6414
817.371	6403
817.512	6327
817.653	6380
817.793	6300
817.934	6395
818.075	6456
818.216	6429
818.356	6410
818.497	6270
818.638	6095
818.778	6102
818.919	6121
819.06	6167
819.2	6277
819.341	6342
819.481	6391
819.622	6551
819.762	6703
819.903	6696
820.043	6612
820.184	6585
820.324	6623
820.465	6707
820.605	6646
820.746	6692
820.886	6532
821.026	6677
821.167	6688
821.307	6776
821.447	6856
821.588	6677
821.728	6574
821.868	6498
822.008	6258
822.149	6414
822.289	6410
822.429	6110
822.569	6087
822.709	6140
822.849	5923
822.99	5908
823.13	5946
823.27	5942
823.41	5836
823.55	5836
823.69	5764
823.83	5821
823.97	5668
824.11	5600
824.25	5532
824.389	5585
824.529	5604
824.669	5535
824.809	5627
824.949	5691
825.089	5661
825.228	5577
825.368	5402
825.508	5421
825.648	5334
825.787	5402
825.927	5398
826.067	5353
826.206	5311
826.346	5349
826.485	5455
826.625	5455
826.765	5581
826.904	5512
827.044	5288
827.183	5185
827.323	5193
827.462	5288
827.601	5197
827.741	5212
827.88	5239
828.02	5155
828.159	5288
828.298	5337
828.437	5410
828.577	5239
828.716	5520
828.855	5406
828.994	5227
829.134	5201
829.273	5235
829.412	5181
829.551	5254
829.69	5181
829.829	5273
829.968	5395
830.107	5288
830.246	5334
830.385	5201
830.524	5185
830.663	5109
830.802	5045
830.941	4896
831.08	4900
831.219	4984
831.357	4991
831.496	5197
831.635	4957
831.774	4881
831.913	4908
832.051	4733
832.19	4771
832.329	4866
832.467	4771
832.606	4660
832.744	4801
832.883	4763
833.022	4717
833.16	4862
833.299	4862
833.437	4866
833.576	4892
833.714	4881
833.852	4904
833.991	4908
834.129	5014
834.267	5014
834.406	4938
834.544	5029
834.682	5041
834.821	4995
834.959	5189
835.097	4999
835.235	5216
835.373	5064
835.511	5136
835.65	5075
835.788	5090
835.926	4915
836.064	4927
836.202	4923
836.34	5235
836.478	5307
836.615	5220
836.753	5231
836.891	5334
837.029	5261
837.167	5277
837.305	5174
837.443	5174
837.58	5109
837.718	5280
837.856	5197
837.993	5140
838.131	5284
838.269	5303
838.406	5197
838.544	5273
838.681	5037
838.819	5067
838.956	4938
839.094	4953
839.231	5045
839.369	5090
839.506	5414
839.643	5307
839.781	5117
839.918	5105
840.055	5109
840.193	5151
840.33	5121
840.467	5178
840.604	5269
840.742	5463
840.879	5128
841.016	5117
841.153	5174
841.29	5421
841.427	5379
841.564	5364
841.701	5349
841.838	5273
841.975	5223
842.112	5265
842.249	5242
842.385	5140
842.522	5357
842.659	5239
842.796	5181
842.933	5216
843.069	5204
843.206	5197
843.343	5353
843.479	5250
843.616	5204
843.752	5071
843.889	5056
844.025	5261
844.162	5056
844.298	5220
844.435	5136
844.571	5109
844.708	5216
844.844	5311
844.98	5334
845.117	5292
845.253	5128
845.389	5079
845.525	5227
845.661	5162
845.798	5094
845.934	5162
846.07	5128
846.206	5235
846.342	5288
846.478	5204
846.614	5033
846.75	5018
846.886	4995
847.022	5204
847.158	5083
847.294	5105
847.429	5174
847.565	5090
847.701	5337
847.837	4885
847.972	4870
848.108	4987
848.244	4930
848.379	4809
848.515	4729
848.65	4771
848.786	4763
848.921	4793
849.057	4881
849.192	4930
849.328	4839
849.463	4873
849.598	4824
849.734	4843
849.869	4729
850.004	4630
850.14	4679
850.275	4653
850.41	4580
850.545	4641
850.68	4641
850.815	4660
850.95	4691
851.085	4839
851.22	4755
851.355	4706
851.49	4668
851.625	4653
851.76	4683
851.895	4584
852.03	4637
852.165	4656
852.299	4744
852.434	4831
852.569	4767
852.703	4790
852.838	4858
852.973	4957
853.107	4938
853.242	4717
853.376	4725
853.511	4588
853.645	4615
853.78	4862
853.914	4725
854.048	4664
854.183	4706
854.317	4744
854.451	4889
854.585	4702
854.72	4694
854.854	4824
854.988	4641
855.122	4664
855.256	4565
855.39	4717
855.524	4820
855.658	4748
855.792	4675
855.926	4763
856.06	4771
856.194	4839
856.327	4694
856.461	4679
856.595	4622
856.729	4630
856.862	4786
856.996	4729
857.13	4797
857.263	4812
857.397	4862
857.53	4653
857.664	4763
857.797	4843
857.931	4885
858.064	4679
858.197	4759
858.331	4694
858.464	4668
858.597	4558
858.731	4668
858.864	4679
858.997	4645
859.13	4634
859.263	4675
859.396	4729
859.529	4641
859.662	4596
859.795	4573
859.928	4706
860.061	4759
860.194	4820
860.327	4660
860.46	4588
860.592	4721
860.725	4763
860.858	4729
860.99	4584
861.123	4535
861.256	4584
861.388	4653
861.521	5417
861.653	4466
861.786	4485
861.918	4504
862.05	4550
862.183	4580
862.315	4641
862.447	4725
862.58	4592
862.712	4440
862.844	4375
862.976	4516
863.108	4478
863.24	4786
863.372	4371
863.504	4447
863.636	4383
863.768	4474
863.9	4470
864.032	4386
864.164	4383
864.296	4481
864.428	4584
864.559	4546
864.691	4561
864.823	4573
864.954	4558
865.086	4538
865.217	4527
865.349	4421
865.48	4478
865.612	4485
865.743	4660
865.875	4478
866.006	4409
866.137	4508
866.269	4493
866.4	4447
866.531	4428
866.662	4443
866.793	4436
866.924	4440
867.055	4531
867.186	4455
867.317	4417
867.448	4379
867.579	4367
867.71	4417
867.841	4413
867.972	4485
868.103	4497
868.233	4485
868.364	4481
868.495	4478
868.625	4702
868.756	4816
868.886	4611
869.017	4630
869.147	4820
869.278	4793
869.408	4694
869.539	4664
869.669	4778
869.799	4653
869.929	4790
870.06	4759
870.19	4984
870.32	4965
870.45	4961
870.58	5056
870.71	5151
870.84	5124
870.97	5045
871.1	4934
871.23	5128
871.36	5151
871.489	5045
871.619	5094
871.749	5098
871.879	5140
872.008	5155
872.138	5052
872.267	5014
872.397	4881
872.526	4854
872.656	4755
872.785	4828
872.915	4980
873.044	5018
873.173	4961
873.303	4961
873.432	5052
873.561	4908
873.69	4900
873.819	4896
873.948	4934
874.077	4831
874.206	4752
874.335	4824
874.464	4957
874.593	5083
874.722	5014
874.851	5105
874.979	5102
875.108	5056
875.237	4949
875.365	4877
875.494	4934
875.623	4987
875.751	4862
875.88	4908
876.008	4938
876.136	5083
876.265	5250
876.393	5349
876.521	5311
876.65	5303
876.778	5201
876.906	5098
877.034	5064
877.162	5075
877.29	4984
877.418	5113
877.546	5083
877.674	5075
877.802	5041
877.93	5022
878.058	4980
878.185	4900
878.313	5010
878.441	4980
878.568	4771
878.696	4881
878.824	4949
878.951	5022
879.079	5132
879.206	5273
879.333	5086
879.461	4961
879.588	5029
879.715	5155
879.842	5223
879.97	5041
880.097	4782
880.224	4736
880.351	4850
880.478	4858
880.605	4854
880.732	4854
880.859	5121
880.986	4911
881.112	4942
881.239	4839
881.366	4710
881.493	4607
881.619	4626
881.746	4630
881.872	4687
881.999	4664
882.125	4694
882.252	4843
882.378	4858
882.505	5003
882.631	4816
882.757	4725
882.883	4782
883.01	4740
883.136	4702
883.262	4584
883.388	4599
883.514	4850
883.64	4904
883.766	4831
883.892	4698
884.018	4763
884.143	4934
884.269	5067
884.395	4694
884.52	4618
884.646	4694
884.772	4580
884.897	4611
885.023	4702
885.148	4824
885.274	4896
885.399	4801
885.524	4714
885.65	4672
885.775	4790
885.9	4683
886.025	4911
886.15	4809
886.275	4668
886.4	4687
886.525	4748
886.65	4706
886.775	4752
886.9	4930
887.025	5075
887.149	4812
887.274	4641
887.399	4596
887.523	4611
887.648	4637
887.773	4592
887.897	4809
888.021	4740
888.146	4740
888.27	4831
888.395	4919
888.519	4828
888.643	4877
888.767	4854
888.891	4668
889.015	4584
889.139	4615
889.263	4611
889.387	4755
889.511	4870
889.635	4809
889.759	4683
889.883	4675
890.006	4717
890.13	4835
890.254	4615
890.377	4717
890.501	4573
890.624	4527
890.748	4664
890.871	4512
890.995	4481
891.118	4413
891.241	4481
891.364	4546
891.488	4653
891.611	4531
891.734	4558
891.857	4649
891.98	4546
892.103	4634
892.226	4626
892.349	4550
892.471	4436
892.594	4599
892.717	4584
892.839	4611
892.962	4664
893.085	4645
893.207	4546
893.33	4462
893.452	4577
893.575	4664
893.697	4596
893.819	4809
893.941	4866
894.064	4771
894.186	4546
894.308	4592
894.43	4748
894.552	4847
894.674	4717
894.796	4538
894.918	4565
895.04	4569
895.161	4721
895.283	4656
895.405	4599
895.526	4649
895.648	4748
895.769	4694
895.891	4759
896.012	4767
896.134	4725
896.255	4714
896.376	4668
896.498	4596
896.619	4702
896.74	4626
896.861	4641
896.982	4953
897.103	5064
897.224	4843
897.345	4740
897.466	4710
897.587	4725
897.708	4854
897.828	4820
897.949	4687
898.07	4550
898.19	4637
898.311	4873
898.431	4675
898.552	4736
898.672	4831
898.792	4828
898.913	4790
899.033	4611
899.153	4527
899.273	4447
899.393	4485
899.513	4500
899.633	4523
899.753	4538
899.873	4474
899.993	4618
900.113	4516
900.232	4603
900.352	4565
900.472	4489
900.591	4386
900.711	4485
900.83	4409
900.95	4603
901.069	4679
901.189	4478
901.308	4386
901.427	4295
901.546	4379
901.665	4538
901.784	4519
901.904	4383
902.023	4295
902.141	4207
902.26	4150
902.379	4310
902.498	4246
902.617	4242
902.735	4375
902.854	4398
902.973	4329
903.091	4257
903.21	4261
903.328	4291
903.446	4303
903.565	4249
903.683	4348
903.801	4257
903.919	4470
904.038	4432
904.156	4303
904.274	4447
904.392	4402
904.51	4432
904.627	4447
904.745	4569
904.863	4641
904.981	4405
905.098	4295
905.216	4348
905.334	4474
905.451	4440
905.569	4417
905.686	4561
905.803	4596
905.921	4413
906.038	4565
906.155	4493
906.272	4375
906.389	4550
906.506	4383
906.623	4379
906.74	4455
906.857	4344
906.974	4417
907.091	4565
907.208	4675
907.324	4546
907.441	4565
907.557	4322
907.674	4352
907.79	4291
907.907	4402
908.023	4455
908.139	4512
908.256	4455
908.372	4470
908.488	4474
908.604	4333
908.72	4341
908.836	4367
908.952	4337
909.068	4344
909.184	4573
909.3	4447
909.415	4584
909.531	4516
909.647	4322
909.762	4333
909.878	4318
909.993	4443
910.108	4424
910.224	4379
910.339	4478
910.454	4386
910.57	4360
910.685	4329
910.8	4675
910.915	4607
911.03	4558
911.145	4329
911.259	4363
911.374	4352
911.489	4306
911.604	4230
911.718	4196
911.833	4238
911.947	4120
912.062	4040
912.176	4188
912.291	4234
912.405	4261
912.519	4470
912.633	4523
912.748	4383
912.862	4341
912.976	4211
913.09	4112
913.204	4173
913.318	4242
913.431	4379
913.545	4344
913.659	4424
913.772	4390
913.886	4238
914	4211
914.113	4409
914.226	4402
914.34	4379
914.453	4211
914.566	4421
914.68	4295
914.793	4363
914.906	4143
915.019	4124
915.132	4097
915.245	4204
915.358	4230
915.47	4211
915.583	4265
915.696	4341
915.809	4394
915.921	4440
916.034	4253
916.146	4249
916.259	4291
916.371	4371
916.483	4356
916.595	4238
916.708	4322
916.82	4280
916.932	4348
917.044	4348
917.156	4322
917.268	4284
917.38	4276
917.491	4280
917.603	4314
917.715	4462
917.826	4432
917.938	4325
918.049	4242
918.161	4360
918.272	4531
918.384	4607
918.495	4432
918.606	4276
918.717	4272
918.828	4341
918.939	4390
919.05	4257
919.161	4295
919.272	4150
919.383	4249
919.494	4417
919.604	4622
919.715	4455
919.826	4383
919.936	4371
920.047	4599
920.157	4440
920.267	4634
920.378	4531
920.488	4462
920.598	4702
920.708	4896
920.818	4733
920.928	4774
921.038	4942
921.148	4930
921.258	4645
921.368	4538
921.477	4485
921.587	4421
921.697	4383
921.806	4561
921.916	4421
922.025	4291
922.134	4257
922.244	4287
922.353	4352
922.462	4169
922.571	4131
922.68	4002
922.789	3975
922.898	4021
923.007	3987
923.116	4135
923.224	4048
923.333	4093
923.442	4013
923.55	3998
923.659	4017
923.767	4124
923.876	4013
923.984	4112
924.092	3983
924.201	4082
924.309	4105
924.417	4105
924.525	4101
924.633	4025
924.741	5060
924.849	3915
924.956	4124
925.064	3956
925.172	3918
925.279	3949
925.387	4063
925.494	4051
925.602	4181
925.709	4188
925.816	4010
925.924	4105
926.031	4223
926.138	4166
926.245	4230
926.352	4105
926.459	4223
926.566	4280
926.673	4166
926.779	4074
926.886	4101
926.993	3983
927.099	3953
927.206	3918
927.312	3945
927.419	4048
927.525	3998
927.631	4059
927.737	3987
927.843	3968
927.95	3869
928.056	3979
928.162	3934
928.267	4036
928.373	4615
928.479	4090
928.585	3850
928.69	4040
928.796	4109
928.901	3983
929.007	3846
929.112	4006
929.218	3945
929.323	3968
929.428	3941
929.533	4112
929.638	3892
929.743	3991
929.848	4044
929.953	3994
930.058	3945
930.163	3812
930.267	3835
930.372	3964
930.477	3808
930.581	4120
930.685	3960
930.79	3827
930.894	3865
930.998	3846
931.103	4006
931.207	3701
931.311	3709
931.415	3644
931.519	3549
931.623	3572
