Data from test_V78500241_983.txt Node
Date: Fri Mar 25 16:55:50 CST 2022
User: usil
Spectrometer: V785-0024
Trigger mode: 0
Integration Time (sec): 4.000000E-1
Scans to average: 1
Nonlinearity correction enabled: false
Boxcar width: 0
Storing dark spectrum: false
XAxis mode: Wavelengths
Number of Pixels in Spectrum: 1024
>>>>>Begin Spectral Data<<<<<
801.071	8142
801.214	7955
801.356	7849
801.499	7841
801.641	7845
801.783	7769
801.926	7947
802.068	7909
802.211	7928
802.353	7951
802.496	7811
802.638	7837
802.78	7868
802.923	7909
803.065	7894
803.208	7871
803.35	7989
803.492	8107
803.635	8206
803.777	8043
803.919	8100
804.061	8427
804.204	8107
804.346	7982
804.488	7909
804.63	8077
804.773	7989
804.915	8130
805.057	8259
805.199	8115
805.341	8172
805.483	8225
805.626	8172
805.768	8065
805.91	8202
806.052	8214
806.194	8069
806.336	8221
806.478	8126
806.62	8046
806.762	8119
806.904	8259
807.046	8473
807.188	8347
807.33	8282
807.472	8320
807.614	8180
807.756	8115
807.898	7909
808.04	7837
808.182	7898
808.324	7890
808.465	7871
808.607	7947
808.749	8100
808.891	8218
809.033	8290
809.174	8115
809.316	8016
809.458	8043
809.6	7997
809.741	8020
809.883	8035
810.025	8081
810.166	8096
810.308	8031
810.45	7967
810.591	7932
810.733	7704
810.875	7632
811.016	7544
811.158	7480
811.299	7556
811.441	7613
811.582	7708
811.724	7548
811.865	7460
812.007	7575
812.148	7624
812.29	7609
812.431	7727
812.573	7818
812.714	7894
812.855	8130
812.997	8218
813.138	8347
813.279	8153
813.421	8103
813.562	7940
813.703	7871
813.845	7795
813.986	7472
814.127	7251
814.268	7236
814.41	7129
814.551	7114
814.692	7099
814.833	6958
814.974	7080
815.115	7065
815.256	7000
815.397	6916
815.539	6924
815.68	6760
815.821	6738
815.962	6821
816.103	6859
816.244	6722
816.385	6707
816.526	6597
816.666	6494
816.807	6296
816.948	6395
817.089	6410
817.23	6403
817.371	6308
817.512	6414
817.653	6426
817.793	6350
817.934	6395
818.075	6452
818.216	6437
818.356	6429
818.497	6197
818.638	6117
818.778	6095
818.919	6110
819.06	6129
819.2	6319
819.341	6292
819.481	6308
819.622	6486
819.762	6772
819.903	6703
820.043	6544
820.184	6574
820.324	6471
820.465	6677
820.605	6681
820.746	6627
820.886	6494
821.026	6616
821.167	6715
821.307	6711
821.447	6738
821.588	6688
821.728	6540
821.868	6517
822.008	6331
822.149	6342
822.289	6331
822.429	6152
822.569	6053
822.709	6072
822.849	5889
822.99	5908
823.13	5889
823.27	5844
823.41	5760
823.55	5790
823.69	5745
823.83	5790
823.97	5695
824.11	5509
824.25	5524
824.389	5539
824.529	5577
824.669	5493
824.809	5589
824.949	5627
825.089	5558
825.228	5493
825.368	5410
825.508	5383
825.648	5334
825.787	5322
825.927	5395
826.067	5296
826.206	5296
826.346	5368
826.485	5383
826.625	5364
826.765	5535
826.904	5402
827.044	5223
827.183	5159
827.323	5083
827.462	5239
827.601	5151
827.741	5185
827.88	5189
828.02	5132
828.159	5201
828.298	5258
828.437	5296
828.577	5280
828.716	5512
828.855	5357
828.994	5174
829.134	5105
829.273	5143
829.412	5201
829.551	5155
829.69	5117
829.829	5201
829.968	5349
830.107	5235
830.246	5227
830.385	5151
830.524	5132
830.663	5064
830.802	4930
830.941	4877
831.08	4858
831.219	4953
831.357	5010
831.496	5102
831.635	4934
831.774	4854
831.913	4828
832.051	4702
832.19	4717
832.329	4831
832.467	4668
832.606	4615
832.744	4672
832.883	4740
833.022	4744
833.16	4805
833.299	4801
833.437	4816
833.576	4812
833.714	4892
833.852	4835
833.991	4870
834.129	4968
834.267	4938
834.406	4854
834.544	4953
834.682	4942
834.821	4942
834.959	5162
835.097	4976
835.235	5174
835.373	5143
835.511	5105
835.65	4987
835.788	5033
835.926	4885
836.064	4911
836.202	4934
836.34	5117
836.478	5193
836.615	5071
836.753	5204
836.891	5277
837.029	5151
837.167	5212
837.305	5159
837.443	5155
837.58	5083
837.718	5220
837.856	5204
837.993	5075
838.131	5197
838.269	5174
838.406	5189
838.544	5227
838.681	5033
838.819	5003
838.956	4870
839.094	4911
839.231	4953
839.369	5094
839.506	5425
839.643	5208
839.781	5033
839.918	5037
840.055	5075
840.193	5109
840.33	5105
840.467	5098
840.604	5121
840.742	5452
840.879	5064
841.016	5102
841.153	5102
841.29	5379
841.427	5315
841.564	5326
841.701	5341
841.838	5296
841.975	5231
842.112	5212
842.249	5102
842.385	5124
842.522	5330
842.659	5189
842.796	5151
842.933	5140
843.069	5136
843.206	5181
843.343	5258
843.479	5242
843.616	5280
843.752	5022
843.889	4923
844.025	5193
844.162	5022
844.298	5159
844.435	5117
844.571	5048
844.708	5102
844.844	5296
844.98	5307
845.117	5345
845.253	5109
845.389	5052
845.525	5128
845.661	5098
845.798	4995
845.934	5109
846.07	5037
846.206	5223
846.342	5204
846.478	5181
846.614	4984
846.75	4949
846.886	4915
847.022	5117
847.158	5014
847.294	5117
847.429	5094
847.565	5083
847.701	5269
847.837	4858
847.972	4771
848.108	4965
848.244	4892
848.379	4793
848.515	4672
848.65	4710
848.786	4725
848.921	4759
849.057	4904
849.192	4881
849.328	4755
849.463	4801
849.598	4786
849.734	4759
849.869	4645
850.004	4569
850.14	4706
850.275	4611
850.41	4512
850.545	4577
850.68	4599
850.815	4573
850.95	4641
851.085	4778
851.22	4736
851.355	4668
851.49	4599
851.625	4618
851.76	4603
851.895	4554
852.03	4542
852.165	4637
852.299	4721
852.434	4767
852.569	4786
852.703	4752
852.838	4801
852.973	4858
853.107	4911
853.242	4702
853.376	4694
853.511	4550
853.645	4580
853.78	4816
853.914	4649
854.048	4668
854.183	4660
854.317	4702
854.451	4790
854.585	4660
854.72	4622
854.854	4767
854.988	4565
855.122	4656
855.256	4561
855.39	4687
855.524	4771
855.658	4752
855.792	4714
855.926	4725
856.06	4736
856.194	4793
856.327	4691
856.461	4569
856.595	4622
856.729	4649
856.862	4759
856.996	4660
857.13	4714
857.263	4740
857.397	4820
857.53	4675
857.664	4649
857.797	4786
857.931	4733
858.064	4691
858.197	4771
858.331	4603
858.464	4615
858.597	4542
858.731	4542
858.864	4626
858.997	4611
859.13	4660
859.263	4622
859.396	4706
859.529	4554
859.662	4565
859.795	4531
859.928	4596
860.061	4752
860.194	4767
860.327	4641
860.46	4588
860.592	4679
860.725	4691
860.858	4710
860.99	4580
861.123	4493
861.256	4493
861.388	4592
861.521	5250
861.653	4497
861.786	4470
861.918	4436
862.05	4535
862.183	4523
862.315	4603
862.447	4603
862.58	4546
862.712	4394
862.844	4333
862.976	4436
863.108	4413
863.24	4877
863.372	4337
863.504	4409
863.636	4428
863.768	4489
863.9	4447
864.032	4375
864.164	4379
864.296	4459
864.428	4500
864.559	4558
864.691	4485
864.823	4519
864.954	4519
865.086	4535
865.217	4421
865.349	4394
865.48	4421
865.612	4428
865.743	4607
865.875	4440
866.006	4424
866.137	4417
866.269	4451
866.4	4451
866.531	4417
866.662	4390
866.793	4383
866.924	4398
867.055	4489
867.186	4447
867.317	4443
867.448	4409
867.579	4363
867.71	4379
867.841	4386
867.972	4474
868.103	4451
868.233	4447
868.364	4489
868.495	4504
868.625	4649
868.756	4759
868.886	4527
869.017	4554
869.147	4748
869.278	4714
869.408	4660
869.539	4656
869.669	4691
869.799	4653
869.929	4721
870.06	4717
870.19	4957
870.32	4934
870.45	4892
870.58	4949
870.71	5102
870.84	5090
870.97	4927
871.1	4911
871.23	5109
871.36	5105
871.489	5018
871.619	5033
871.749	5079
871.879	5113
872.008	5155
872.138	5033
872.267	4957
872.397	4839
872.526	4744
872.656	4714
872.785	4771
872.915	4904
873.044	5018
873.173	4934
873.303	4961
873.432	4919
873.561	4946
873.69	4889
873.819	4889
873.948	4885
874.077	4793
874.206	4736
874.335	4793
874.464	4877
874.593	5052
874.722	4915
874.851	5105
874.979	5071
875.108	5018
875.237	4896
875.365	4892
875.494	4930
875.623	4995
875.751	4839
875.88	4889
876.008	4953
876.136	5033
876.265	5185
876.393	5318
876.521	5250
876.65	5178
876.778	5128
876.906	5033
877.034	4991
877.162	5045
877.29	4968
877.418	4972
877.546	5075
877.674	5029
877.802	5006
877.93	5045
878.058	4889
878.185	4862
878.313	4961
878.441	4915
878.568	4729
878.696	4889
878.824	4957
878.951	4991
879.079	5109
879.206	5318
879.333	5060
879.461	4984
879.588	5006
879.715	5140
879.842	5223
879.97	5029
880.097	4755
880.224	4786
880.351	4793
880.478	4812
880.605	4778
880.732	4820
880.859	5064
880.986	4904
881.112	4900
881.239	4759
881.366	4714
881.493	4588
881.619	4569
881.746	4664
881.872	4626
881.999	4603
882.125	4668
882.252	4809
882.378	4809
882.505	4980
882.631	4771
882.757	4599
882.883	4725
883.01	4717
883.136	4637
883.262	4653
883.388	4660
883.514	4820
883.64	4877
883.766	4816
883.892	4664
884.018	4698
884.143	4877
884.269	4968
884.395	4634
884.52	4615
884.646	4634
884.772	4569
884.897	4573
885.023	4649
885.148	4786
885.274	4843
885.399	4805
885.524	4733
885.65	4725
885.775	4733
885.9	4702
886.025	4786
886.15	4755
886.275	4691
886.4	4634
886.525	4763
886.65	4679
886.775	4721
886.9	4900
887.025	5056
887.149	4839
887.274	4645
887.399	4577
887.523	4626
887.648	4561
887.773	4527
887.897	4698
888.021	4778
888.146	4714
888.27	4828
888.395	4904
888.519	4790
888.643	4801
888.767	4854
888.891	4706
889.015	4618
889.139	4626
889.263	4550
889.387	4710
889.511	4835
889.635	4774
889.759	4611
889.883	4653
890.006	4759
890.13	4820
890.254	4607
890.377	4714
890.501	4565
890.624	4546
890.748	4603
890.871	4455
890.995	4398
891.118	4341
891.241	4481
891.364	4519
891.488	4630
891.611	4493
891.734	4527
891.857	4584
891.98	4577
892.103	4611
892.226	4584
892.349	4527
892.471	4447
892.594	4554
892.717	4618
892.839	4561
892.962	4580
893.085	4653
893.207	4592
893.33	4421
893.452	4519
893.575	4675
893.697	4588
893.819	4797
893.941	4839
894.064	4744
894.186	4580
894.308	4535
894.43	4736
894.552	4797
894.674	4752
894.796	4580
894.918	4603
895.04	4584
895.161	4702
895.283	4618
895.405	4603
895.526	4615
895.648	4668
895.769	4714
895.891	4733
896.012	4675
896.134	4744
896.255	4645
896.376	4565
896.498	4546
896.619	4664
896.74	4603
896.861	4596
896.982	4900
897.103	5025
897.224	4824
897.345	4755
897.466	4687
897.587	4702
897.708	4812
897.828	4771
897.949	4634
898.07	4561
898.19	4599
898.311	4843
898.431	4653
898.552	4740
898.672	4774
898.792	4812
898.913	4778
899.033	4599
899.153	4478
899.273	4432
899.393	4451
899.513	4550
899.633	4516
899.753	4531
899.873	4493
899.993	4603
900.113	4497
900.232	4596
900.352	4531
900.472	4485
900.591	4417
900.711	4459
900.83	4436
900.95	4577
901.069	4694
901.189	4546
901.308	4363
901.427	4322
901.546	4352
901.665	4428
901.784	4535
901.904	4360
902.023	4287
902.141	4177
902.26	4124
902.379	4329
902.498	4265
902.617	4257
902.735	4398
902.854	4383
902.973	4348
903.091	4177
903.21	4215
903.328	4325
903.446	4303
903.565	4265
903.683	4348
903.801	4306
903.919	4360
904.038	4421
904.156	4276
904.274	4451
904.392	4390
904.51	4459
904.627	4470
904.745	4611
904.863	4630
904.981	4421
905.098	4272
905.216	4421
905.334	4409
905.451	4421
905.569	4421
905.686	4527
905.803	4531
905.921	4363
906.038	4500
906.155	4466
906.272	4413
906.389	4497
906.506	4322
906.623	4363
906.74	4383
906.857	4272
906.974	4303
907.091	4542
907.208	4656
907.324	4580
907.441	4512
907.557	4329
907.674	4360
907.79	4329
907.907	4386
908.023	4455
908.139	4462
908.256	4440
908.372	4409
908.488	4455
908.604	4379
908.72	4352
908.836	4383
908.952	4337
909.068	4417
909.184	4554
909.3	4481
909.415	4542
909.531	4542
909.647	4341
909.762	4383
909.878	4413
909.993	4402
910.108	4440
910.224	4421
910.339	4409
910.454	4371
910.57	4341
910.685	4303
910.8	4672
910.915	4573
911.03	4466
911.145	4314
911.259	4310
911.374	4367
911.489	4276
911.604	4287
911.718	4181
911.833	4223
911.947	4082
912.062	4044
912.176	4219
912.291	4257
912.405	4207
912.519	4455
912.633	4443
912.748	4337
912.862	4322
912.976	4223
913.09	4109
913.204	4196
913.318	4265
913.431	4344
913.545	4402
913.659	4466
913.772	4344
913.886	4211
914	4196
914.113	4371
914.226	4379
914.34	4371
914.453	4204
914.566	4405
914.68	4287
914.793	4261
914.906	4147
915.019	4112
915.132	4059
915.245	4200
915.358	4204
915.47	4265
915.583	4242
915.696	4268
915.809	4474
915.921	4409
916.034	4204
916.146	4230
916.259	4246
916.371	4398
916.483	4363
916.595	4272
916.708	4310
916.82	4280
916.932	4295
917.044	4284
917.156	4344
917.268	4223
917.38	4268
917.491	4238
917.603	4333
917.715	4390
917.826	4440
917.938	4314
918.049	4223
918.161	4371
918.272	4504
918.384	4550
918.495	4451
918.606	4242
918.717	4219
918.828	4291
918.939	4348
919.05	4246
919.161	4367
919.272	4109
919.383	4215
919.494	4413
919.604	4618
919.715	4390
919.826	4306
919.936	4417
920.047	4542
920.157	4485
920.267	4725
920.378	4538
920.488	4447
920.598	4710
920.708	4847
920.818	4759
920.928	4763
921.038	4949
921.148	4908
921.258	4603
921.368	4588
921.477	4527
921.587	4466
921.697	4352
921.806	4535
921.916	4421
922.025	4272
922.134	4280
922.244	4192
922.353	4360
922.462	4185
922.571	4093
922.68	4017
922.789	3987
922.898	4051
923.007	3960
923.116	4116
923.224	4055
923.333	4029
923.442	3972
923.55	3979
923.659	3998
923.767	4147
923.876	3960
923.984	4147
924.092	4006
924.201	4071
924.309	4029
924.417	4101
924.525	4059
924.633	4086
924.741	5014
924.849	3880
924.956	4154
925.064	3972
925.172	3907
925.279	3918
925.387	4040
925.494	3991
925.602	4188
925.709	4181
925.816	4013
925.924	4139
926.031	4246
926.138	4166
926.245	4147
926.352	4082
926.459	4219
926.566	4310
926.673	4131
926.779	4105
926.886	4112
926.993	3956
927.099	3979
927.206	3926
927.312	3975
927.419	4074
927.525	4032
927.631	4082
927.737	3975
927.843	3968
927.95	3819
928.056	3896
928.162	3994
928.267	4067
928.373	4687
928.479	4124
928.585	3873
928.69	4010
928.796	4086
928.901	3922
929.007	3846
929.112	4021
929.218	4006
929.323	3892
929.428	3918
929.533	4082
929.638	3876
929.743	3953
929.848	4059
929.953	4036
930.058	3918
930.163	3789
930.267	3812
930.372	3930
930.477	3762
930.581	4067
930.685	3930
930.79	3781
930.894	3907
930.998	3854
931.103	4017
931.207	3705
931.311	3717
931.415	3686
931.519	3481
931.623	3576
