Data from test_V78500241_723.txt Node
Date: Fri Mar 25 16:54:01 CST 2022
User: usil
Spectrometer: V785-0024
Trigger mode: 0
Integration Time (sec): 4.000000E-1
Scans to average: 1
Nonlinearity correction enabled: false
Boxcar width: 0
Storing dark spectrum: false
XAxis mode: Wavelengths
Number of Pixels in Spectrum: 1024
>>>>>Begin Spectral Data<<<<<
801.071	8027
801.214	8027
801.356	7951
801.499	7932
801.641	7841
801.783	7917
801.926	8058
802.068	7955
802.211	7974
802.353	8024
802.496	7860
802.638	7925
802.78	7936
802.923	7890
803.065	7841
803.208	7849
803.35	7989
803.492	8134
803.635	8134
803.777	7993
803.919	8119
804.061	8377
804.204	8100
804.346	8031
804.488	8005
804.63	8134
804.773	8043
804.915	8088
805.057	8271
805.199	8214
805.341	8221
805.483	8313
805.626	8126
805.768	8092
805.91	8115
806.052	8206
806.194	8046
806.336	8256
806.478	8039
806.62	8073
806.762	8153
806.904	8282
807.046	8461
807.188	8248
807.33	8286
807.472	8256
807.614	8138
807.756	8107
807.898	7974
808.04	7871
808.182	7944
808.324	7887
808.465	7913
808.607	8005
808.749	8073
808.891	8191
809.033	8286
809.174	8153
809.316	7974
809.458	8012
809.6	8016
809.741	7989
809.883	8020
810.025	8084
810.166	8062
810.308	7932
810.45	8050
810.591	7932
810.733	7738
810.875	7742
811.016	7514
811.158	7464
811.299	7563
811.441	7727
811.582	7662
811.724	7548
811.865	7487
812.007	7533
812.148	7548
812.29	7594
812.431	7727
812.573	7913
812.714	7970
812.855	8142
812.997	8187
813.138	8317
813.279	8187
813.421	8077
813.562	7997
813.703	7890
813.845	7734
813.986	7434
814.127	7331
814.268	7270
814.41	7206
814.551	7129
814.692	7141
814.833	7046
814.974	7099
815.115	7076
815.256	6913
815.397	6958
815.539	6973
815.68	6875
815.821	6764
815.962	6886
816.103	6825
816.244	6703
816.385	6578
816.526	6669
816.666	6479
816.807	6327
816.948	6414
817.089	6483
817.23	6429
817.371	6407
817.512	6372
817.653	6376
817.793	6323
817.934	6399
818.075	6395
818.216	6426
818.356	6369
818.497	6216
818.638	6114
818.778	6163
818.919	6140
819.06	6140
819.2	6315
819.341	6334
819.481	6357
819.622	6490
819.762	6783
819.903	6646
820.043	6631
820.184	6544
820.324	6593
820.465	6669
820.605	6635
820.746	6654
820.886	6486
821.026	6635
821.167	6711
821.307	6795
821.447	6779
821.588	6627
821.728	6551
821.868	6506
822.008	6308
822.149	6369
822.289	6342
822.429	6152
822.569	6072
822.709	6148
822.849	5969
822.99	5939
823.13	5866
823.27	5882
823.41	5817
823.55	5786
823.69	5828
823.83	5786
823.97	5714
824.11	5558
824.25	5520
824.389	5551
824.529	5524
824.669	5566
824.809	5646
824.949	5646
825.089	5608
825.228	5539
825.368	5425
825.508	5292
825.648	5280
825.787	5417
825.927	5395
826.067	5311
826.206	5311
826.346	5364
826.485	5379
826.625	5398
826.765	5486
826.904	5474
827.044	5208
827.183	5208
827.323	5109
827.462	5201
827.601	5185
827.741	5151
827.88	5185
828.02	5132
828.159	5220
828.298	5277
828.437	5357
828.577	5261
828.716	5463
828.855	5383
828.994	5170
829.134	5159
829.273	5185
829.412	5185
829.551	5128
829.69	5143
829.829	5227
829.968	5383
830.107	5296
830.246	5254
830.385	5212
830.524	5151
830.663	5045
830.802	4984
830.941	4908
831.08	4896
831.219	5010
831.357	4927
831.496	5098
831.635	4870
831.774	4831
831.913	4904
832.051	4748
832.19	4706
832.329	4843
832.467	4706
832.606	4626
832.744	4721
832.883	4736
833.022	4767
833.16	4835
833.299	4824
833.437	4828
833.576	4839
833.714	4843
833.852	4854
833.991	4892
834.129	4927
834.267	4957
834.406	4892
834.544	4938
834.682	4972
834.821	4999
834.959	5121
835.097	4980
835.235	5136
835.373	5117
835.511	5083
835.65	5018
835.788	5022
835.926	4911
836.064	4885
836.202	4889
836.34	5109
836.478	5250
836.615	5056
836.753	5216
836.891	5311
837.029	5269
837.167	5223
837.305	5140
837.443	5132
837.58	5105
837.718	5239
837.856	5189
837.993	5151
838.131	5239
838.269	5212
838.406	5174
838.544	5204
838.681	5041
838.819	5037
838.956	4949
839.094	4919
839.231	4953
839.369	5060
839.506	5463
839.643	5246
839.781	5029
839.918	5003
840.055	5098
840.193	5117
840.33	5132
840.467	5102
840.604	5159
840.742	5425
840.879	5102
841.016	5102
841.153	5185
841.29	5372
841.427	5337
841.564	5337
841.701	5379
841.838	5303
841.975	5231
842.112	5239
842.249	5064
842.385	5094
842.522	5349
842.659	5166
842.796	5128
842.933	5197
843.069	5170
843.206	5193
843.343	5288
843.479	5250
843.616	5303
843.752	5041
843.889	5052
844.025	5212
844.162	5029
844.298	5208
844.435	5090
844.571	5056
844.708	5220
844.844	5273
844.98	5322
845.117	5273
845.253	5151
845.389	5113
845.525	5185
845.661	5159
845.798	5010
845.934	5136
846.07	5025
846.206	5193
846.342	5292
846.478	5220
846.614	5041
846.75	5006
846.886	4957
847.022	5140
847.158	4984
847.294	5105
847.429	5022
847.565	4995
847.701	5311
847.837	4873
847.972	4809
848.108	4953
848.244	4984
848.379	4797
848.515	4714
848.65	4721
848.786	4694
848.921	4759
849.057	4835
849.192	4873
849.328	4839
849.463	4828
849.598	4797
849.734	4714
849.869	4706
850.004	4645
850.14	4618
850.275	4603
850.41	4516
850.545	4565
850.68	4584
850.815	4592
850.95	4637
851.085	4824
851.22	4710
851.355	4664
851.49	4577
851.625	4611
851.76	4641
851.895	4538
852.03	4531
852.165	4618
852.299	4721
852.434	4721
852.569	4714
852.703	4744
852.838	4828
852.973	4881
853.107	4904
853.242	4710
853.376	4687
853.511	4535
853.645	4634
853.78	4744
853.914	4679
854.048	4645
854.183	4660
854.317	4687
854.451	4835
854.585	4660
854.72	4641
854.854	4740
854.988	4618
855.122	4687
855.256	4523
855.39	4672
855.524	4767
855.658	4683
855.792	4675
855.926	4733
856.06	4771
856.194	4782
856.327	4725
856.461	4622
856.595	4637
856.729	4603
856.862	4721
856.996	4664
857.13	4759
857.263	4771
857.397	4824
857.53	4630
857.664	4733
857.797	4763
857.931	4820
858.064	4672
858.197	4740
858.331	4672
858.464	4637
858.597	4481
858.731	4641
858.864	4580
858.997	4550
859.13	4618
859.263	4679
859.396	4710
859.529	4565
859.662	4569
859.795	4573
859.928	4634
860.061	4744
860.194	4805
860.327	4626
860.46	4603
860.592	4714
860.725	4759
860.858	4698
860.99	4561
861.123	4493
861.256	4497
861.388	4637
861.521	5421
861.653	4531
861.786	4478
861.918	4466
862.05	4489
862.183	4573
862.315	4622
862.447	4615
862.58	4531
862.712	4405
862.844	4329
862.976	4489
863.108	4447
863.24	4873
863.372	4352
863.504	4447
863.636	4402
863.768	4516
863.9	4428
864.032	4398
864.164	4402
864.296	4481
864.428	4531
864.559	4561
864.691	4531
864.823	4542
864.954	4455
865.086	4504
865.217	4459
865.349	4459
865.48	4440
865.612	4489
865.743	4626
865.875	4459
866.006	4455
866.137	4504
866.269	4436
866.4	4451
866.531	4379
866.662	4417
866.793	4405
866.924	4405
867.055	4493
867.186	4508
867.317	4428
867.448	4363
867.579	4344
867.71	4413
867.841	4341
867.972	4455
868.103	4485
868.233	4440
868.364	4436
868.495	4485
868.625	4664
868.756	4725
868.886	4527
869.017	4596
869.147	4736
869.278	4740
869.408	4645
869.539	4675
869.669	4729
869.799	4618
869.929	4733
870.06	4736
870.19	4930
870.32	4866
870.45	4911
870.58	5022
870.71	5071
870.84	5079
870.97	4953
871.1	4896
871.23	5121
871.36	5136
871.489	5060
871.619	5056
871.749	5079
871.879	5067
872.008	5170
872.138	5079
872.267	4980
872.397	4774
872.526	4736
872.656	4679
872.785	4805
872.915	4946
873.044	5022
873.173	4930
873.303	4961
873.432	4965
873.561	4965
873.69	4892
873.819	4873
873.948	4923
874.077	4793
874.206	4767
874.335	4797
874.464	4911
874.593	5075
874.722	5006
874.851	5151
874.979	5060
875.108	5052
875.237	4881
875.365	4850
875.494	4881
875.623	4965
875.751	4820
875.88	4843
876.008	5025
876.136	4995
876.265	5208
876.393	5322
876.521	5208
876.65	5208
876.778	5159
876.906	5071
877.034	4991
877.162	5086
877.29	4957
877.418	5029
877.546	5045
877.674	5006
877.802	4980
877.93	4984
878.058	4927
878.185	4889
878.313	4972
878.441	4919
878.568	4820
878.696	4885
878.824	4930
878.951	5010
879.079	5128
879.206	5288
879.333	5098
879.461	4953
879.588	5003
879.715	5083
879.842	5216
879.97	5052
880.097	4835
880.224	4771
880.351	4797
880.478	4725
880.605	4801
880.732	4816
880.859	5136
880.986	4858
881.112	4938
881.239	4736
881.366	4618
881.493	4569
881.619	4565
881.746	4622
881.872	4634
881.999	4637
882.125	4668
882.252	4774
882.378	4809
882.505	4942
882.631	4816
882.757	4717
882.883	4691
883.01	4694
883.136	4649
883.262	4569
883.388	4637
883.514	4843
883.64	4862
883.766	4801
883.892	4626
884.018	4725
884.143	4949
884.269	4946
884.395	4641
884.52	4634
884.646	4660
884.772	4573
884.897	4554
885.023	4664
885.148	4805
885.274	4870
885.399	4816
885.524	4679
885.65	4698
885.775	4694
885.9	4752
886.025	4847
886.15	4828
886.275	4710
886.4	4679
886.525	4771
886.65	4717
886.775	4679
886.9	4896
887.025	5022
887.149	4866
887.274	4637
887.399	4527
887.523	4569
887.648	4573
887.773	4565
887.897	4774
888.021	4733
888.146	4672
888.27	4805
888.395	4866
888.519	4824
888.643	4812
888.767	4835
888.891	4664
889.015	4558
889.139	4679
889.263	4596
889.387	4771
889.511	4854
889.635	4805
889.759	4630
889.883	4626
890.006	4729
890.13	4831
890.254	4596
890.377	4660
890.501	4584
890.624	4546
890.748	4645
890.871	4516
890.995	4421
891.118	4390
891.241	4542
891.364	4500
891.488	4603
891.611	4516
891.734	4531
891.857	4611
891.98	4565
892.103	4653
892.226	4565
892.349	4497
892.471	4421
892.594	4542
892.717	4618
892.839	4554
892.962	4542
893.085	4653
893.207	4630
893.33	4466
893.452	4523
893.575	4672
893.697	4554
893.819	4748
893.941	4748
894.064	4755
894.186	4573
894.308	4580
894.43	4755
894.552	4797
894.674	4767
894.796	4573
894.918	4584
895.04	4618
895.161	4668
895.283	4679
895.405	4592
895.526	4641
895.648	4710
895.769	4687
895.891	4717
896.012	4717
896.134	4702
896.255	4702
896.376	4656
896.498	4626
896.619	4641
896.74	4561
896.861	4656
896.982	4862
897.103	5090
897.224	4843
897.345	4752
897.466	4649
897.587	4767
897.708	4839
897.828	4763
897.949	4645
898.07	4573
898.19	4630
898.311	4805
898.431	4691
898.552	4721
898.672	4782
898.792	4778
898.913	4744
899.033	4626
899.153	4493
899.273	4462
899.393	4493
899.513	4531
899.633	4538
899.753	4516
899.873	4546
899.993	4588
900.113	4542
900.232	4596
900.352	4573
900.472	4542
900.591	4375
900.711	4493
900.83	4489
900.95	4622
901.069	4672
901.189	4554
901.308	4413
901.427	4310
901.546	4386
901.665	4489
901.784	4508
901.904	4409
902.023	4303
902.141	4219
902.26	4131
902.379	4341
902.498	4234
902.617	4211
902.735	4344
902.854	4405
902.973	4379
903.091	4177
903.21	4200
903.328	4310
903.446	4276
903.565	4211
903.683	4379
903.801	4265
903.919	4371
904.038	4440
904.156	4287
904.274	4432
904.392	4432
904.51	4500
904.627	4440
904.745	4577
904.863	4611
904.981	4409
905.098	4310
905.216	4360
905.334	4455
905.451	4489
905.569	4421
905.686	4550
905.803	4542
905.921	4390
906.038	4535
906.155	4474
906.272	4398
906.389	4455
906.506	4325
906.623	4390
906.74	4386
906.857	4299
906.974	4360
907.091	4546
907.208	4641
907.324	4561
907.441	4504
907.557	4341
907.674	4322
907.79	4287
907.907	4348
908.023	4516
908.139	4447
908.256	4466
908.372	4421
908.488	4455
908.604	4329
908.72	4295
908.836	4341
908.952	4341
909.068	4417
909.184	4565
909.3	4478
909.415	4573
909.531	4497
909.647	4360
909.762	4314
909.878	4322
909.993	4390
910.108	4436
910.224	4375
910.339	4466
910.454	4383
910.57	4352
910.685	4337
910.8	4656
910.915	4573
911.03	4470
911.145	4333
911.259	4329
911.374	4344
911.489	4314
911.604	4291
911.718	4162
911.833	4169
911.947	4093
912.062	4032
912.176	4181
912.291	4280
912.405	4234
912.519	4478
912.633	4466
912.748	4356
912.862	4299
912.976	4188
913.09	4048
913.204	4139
913.318	4265
913.431	4371
913.545	4379
913.659	4398
913.772	4371
913.886	4196
914	4249
914.113	4371
914.226	4443
914.34	4337
914.453	4219
914.566	4421
914.68	4253
914.793	4333
914.906	4143
915.019	4147
915.132	4105
915.245	4135
915.358	4158
915.47	4253
915.583	4272
915.696	4272
915.809	4398
915.921	4383
916.034	4276
916.146	4265
916.259	4204
916.371	4325
916.483	4363
916.595	4280
916.708	4295
916.82	4348
916.932	4295
917.044	4360
917.156	4337
917.268	4257
917.38	4284
917.491	4257
917.603	4337
917.715	4394
917.826	4443
917.938	4367
918.049	4257
918.161	4337
918.272	4523
918.384	4523
918.495	4421
918.606	4310
918.717	4219
918.828	4314
918.939	4356
919.05	4234
919.161	4341
919.272	4116
919.383	4230
919.494	4428
919.604	4618
919.715	4440
919.826	4409
919.936	4375
920.047	4516
920.157	4523
920.267	4679
920.378	4577
920.488	4470
920.598	4710
920.708	4908
920.818	4752
920.928	4729
921.038	4923
921.148	4847
921.258	4577
921.368	4573
921.477	4527
921.587	4459
921.697	4402
921.806	4558
921.916	4424
922.025	4253
922.134	4257
922.244	4204
922.353	4329
922.462	4143
922.571	4158
922.68	4044
922.789	3964
922.898	4063
923.007	3994
923.116	4090
923.224	4124
923.333	4105
923.442	3991
923.55	3991
923.659	4032
923.767	4067
923.876	4017
923.984	4082
924.092	3941
924.201	4044
924.309	4051
924.417	4147
924.525	4055
924.633	4147
924.741	5071
924.849	3922
924.956	4181
925.064	3937
925.172	3937
925.279	3949
925.387	4101
925.494	4044
925.602	4230
925.709	4120
925.816	4048
925.924	4116
926.031	4238
926.138	4147
926.245	4230
926.352	4097
926.459	4287
926.566	4284
926.673	4169
926.779	4048
926.886	4082
926.993	3987
927.099	3941
927.206	3953
927.312	3956
927.419	4032
927.525	3998
927.631	4051
927.737	3930
927.843	3994
927.95	3896
928.056	3972
928.162	4006
928.267	4055
928.373	4706
928.479	4173
928.585	3869
928.69	4029
928.796	4074
928.901	3949
929.007	3869
929.112	3979
929.218	3960
929.323	3926
929.428	3964
929.533	4093
929.638	3869
929.743	3975
929.848	4051
929.953	4010
930.058	3884
930.163	3766
930.267	3823
930.372	3968
930.477	3823
930.581	4109
930.685	3991
930.79	3789
930.894	3869
930.998	3854
931.103	4017
931.207	3743
931.311	3690
931.415	3679
931.519	3523
931.623	3572
