Data from test_V78500241_707.txt Node
Date: Fri Mar 25 16:53:55 CST 2022
User: usil
Spectrometer: V785-0024
Trigger mode: 0
Integration Time (sec): 4.000000E-1
Scans to average: 1
Nonlinearity correction enabled: false
Boxcar width: 0
Storing dark spectrum: false
XAxis mode: Wavelengths
Number of Pixels in Spectrum: 1024
>>>>>Begin Spectral Data<<<<<
801.071	8043
801.214	7940
801.356	7826
801.499	7890
801.641	7761
801.783	7795
801.926	7967
802.068	7974
802.211	7978
802.353	8065
802.496	7864
802.638	7852
802.78	7906
802.923	7868
803.065	7875
803.208	7837
803.35	8008
803.492	8073
803.635	8164
803.777	8005
803.919	8084
804.061	8301
804.204	8161
804.346	8058
804.488	7986
804.63	8115
804.773	8012
804.915	8100
805.057	8313
805.199	8115
805.341	8214
805.483	8263
805.626	8183
805.768	8142
805.91	8103
806.052	8142
806.194	8103
806.336	8286
806.478	8119
806.62	8031
806.762	8111
806.904	8237
807.046	8438
807.188	8370
807.33	8355
807.472	8298
807.614	8111
807.756	8058
807.898	7921
808.04	7879
808.182	7921
808.324	7875
808.465	7894
808.607	8031
808.749	8031
808.891	8187
809.033	8275
809.174	8168
809.316	8050
809.458	8054
809.6	7898
809.741	8050
809.883	7967
810.025	8100
810.166	8081
810.308	7993
810.45	7997
810.591	7947
810.733	7651
810.875	7708
811.016	7472
811.158	7514
811.299	7609
811.441	7689
811.582	7693
811.724	7575
811.865	7468
812.007	7518
812.148	7544
812.29	7651
812.431	7636
812.573	7837
812.714	7921
812.855	8069
812.997	8233
813.138	8290
813.279	8161
813.421	8115
813.562	8065
813.703	7833
813.845	7712
813.986	7419
814.127	7236
814.268	7266
814.41	7152
814.551	7137
814.692	7118
814.833	7015
814.974	7057
815.115	7095
815.256	6981
815.397	6928
815.539	6962
815.68	6886
815.821	6798
815.962	6848
816.103	6798
816.244	6734
816.385	6623
816.526	6574
816.666	6490
816.807	6285
816.948	6490
817.089	6429
817.23	6403
817.371	6369
817.512	6410
817.653	6399
817.793	6327
817.934	6418
818.075	6471
818.216	6403
818.356	6300
818.497	6247
818.638	6152
818.778	6121
818.919	6125
819.06	6159
819.2	6300
819.341	6281
819.481	6357
819.622	6521
819.762	6650
819.903	6658
820.043	6574
820.184	6509
820.324	6498
820.465	6646
820.605	6658
820.746	6585
820.886	6509
821.026	6608
821.167	6658
821.307	6700
821.447	6741
821.588	6585
821.728	6502
821.868	6483
822.008	6285
822.149	6331
822.289	6353
822.429	6144
822.569	6045
822.709	6095
822.849	5946
822.99	5882
823.13	5904
823.27	5908
823.41	5802
823.55	5745
823.69	5733
823.83	5775
823.97	5634
824.11	5501
824.25	5471
824.389	5528
824.529	5558
824.669	5497
824.809	5611
824.949	5653
825.089	5589
825.228	5554
825.368	5417
825.508	5307
825.648	5357
825.787	5360
825.927	5368
826.067	5299
826.206	5265
826.346	5330
826.485	5421
826.625	5368
826.765	5558
826.904	5414
827.044	5201
827.183	5151
827.323	5136
827.462	5208
827.601	5140
827.741	5216
827.88	5178
828.02	5109
828.159	5174
828.298	5303
828.437	5357
828.577	5231
828.716	5482
828.855	5292
828.994	5136
829.134	5098
829.273	5159
829.412	5083
829.551	5075
829.69	5166
829.829	5223
829.968	5402
830.107	5239
830.246	5254
830.385	5136
830.524	5113
830.663	5079
830.802	4942
830.941	4850
831.08	4873
831.219	4976
831.357	4968
831.496	5109
831.635	4919
831.774	4831
831.913	4816
832.051	4725
832.19	4672
832.329	4820
832.467	4706
832.606	4622
832.744	4660
832.883	4698
833.022	4710
833.16	4797
833.299	4805
833.437	4778
833.576	4786
833.714	4824
833.852	4862
833.991	4900
834.129	4961
834.267	4885
834.406	4843
834.544	4972
834.682	4938
834.821	4938
834.959	5174
835.097	4980
835.235	5105
835.373	5094
835.511	5094
835.65	5045
835.788	4965
835.926	4881
836.064	4828
836.202	4915
836.34	5136
836.478	5216
836.615	5136
836.753	5185
836.891	5280
837.029	5174
837.167	5208
837.305	5185
837.443	5178
837.58	5132
837.718	5178
837.856	5181
837.993	5147
838.131	5223
838.269	5208
838.406	5220
838.544	5155
838.681	5048
838.819	4927
838.956	4862
839.094	4892
839.231	5037
839.369	5060
839.506	5433
839.643	5273
839.781	5083
839.918	5006
840.055	5094
840.193	5056
840.33	5075
840.467	5170
840.604	5132
840.742	5505
840.879	5037
841.016	5086
841.153	5197
841.29	5345
841.427	5349
841.564	5292
841.701	5330
841.838	5242
841.975	5201
842.112	5204
842.249	5117
842.385	5094
842.522	5284
842.659	5170
842.796	5151
842.933	5197
843.069	5136
843.206	5155
843.343	5307
843.479	5178
843.616	5242
843.752	4999
843.889	5010
844.025	5208
844.162	4968
844.298	5193
844.435	5056
844.571	5056
844.708	5132
844.844	5280
844.98	5299
845.117	5292
845.253	5170
845.389	5128
845.525	5117
845.661	5162
845.798	5064
845.934	5098
846.07	5029
846.206	5212
846.342	5254
846.478	5155
846.614	4995
846.75	4946
846.886	4915
847.022	5208
847.158	4991
847.294	5075
847.429	5121
847.565	5113
847.701	5277
847.837	4809
847.972	4793
848.108	4900
848.244	4919
848.379	4752
848.515	4744
848.65	4710
848.786	4763
848.921	4725
849.057	4915
849.192	4877
849.328	4801
849.463	4866
849.598	4710
849.734	4755
849.869	4679
850.004	4611
850.14	4694
850.275	4603
850.41	4554
850.545	4577
850.68	4580
850.815	4603
850.95	4615
851.085	4805
851.22	4668
851.355	4641
851.49	4561
851.625	4607
851.76	4691
851.895	4538
852.03	4512
852.165	4599
852.299	4725
852.434	4740
852.569	4733
852.703	4778
852.838	4820
852.973	4923
853.107	4927
853.242	4736
853.376	4672
853.511	4497
853.645	4596
853.78	4767
853.914	4691
854.048	4637
854.183	4664
854.317	4702
854.451	4797
854.585	4675
854.72	4596
854.854	4740
854.988	4580
855.122	4660
855.256	4523
855.39	4645
855.524	4767
855.658	4733
855.792	4649
855.926	4721
856.06	4725
856.194	4752
856.327	4656
856.461	4637
856.595	4634
856.729	4577
856.862	4725
856.996	4668
857.13	4733
857.263	4748
857.397	4812
857.53	4626
857.664	4717
857.797	4733
857.931	4729
858.064	4687
858.197	4740
858.331	4668
858.464	4637
858.597	4497
858.731	4656
858.864	4596
858.997	4588
859.13	4626
859.263	4634
859.396	4702
859.529	4573
859.662	4561
859.795	4558
859.928	4641
860.061	4740
860.194	4736
860.327	4607
860.46	4577
860.592	4710
860.725	4725
860.858	4710
860.99	4546
861.123	4497
861.256	4481
861.388	4611
861.521	5414
861.653	4481
861.786	4436
861.918	4421
862.05	4512
862.183	4497
862.315	4546
862.447	4615
862.58	4531
862.712	4363
862.844	4344
862.976	4489
863.108	4390
863.24	4862
863.372	4379
863.504	4344
863.636	4424
863.768	4459
863.9	4398
864.032	4303
864.164	4383
864.296	4455
864.428	4519
864.559	4512
864.691	4523
864.823	4516
864.954	4466
865.086	4512
865.217	4466
865.349	4424
865.48	4474
865.612	4504
865.743	4668
865.875	4421
866.006	4428
866.137	4497
866.269	4443
866.4	4390
866.531	4417
866.662	4363
866.793	4383
866.924	4383
867.055	4508
867.186	4394
867.317	4466
867.448	4375
867.579	4390
867.71	4386
867.841	4371
867.972	4440
868.103	4474
868.233	4447
868.364	4455
868.495	4478
868.625	4672
868.756	4736
868.886	4554
869.017	4599
869.147	4748
869.278	4763
869.408	4664
869.539	4634
869.669	4710
869.799	4634
869.929	4748
870.06	4759
870.19	4953
870.32	4839
870.45	4938
870.58	4972
870.71	5071
870.84	5079
870.97	4949
871.1	4896
871.23	5098
871.36	5136
871.489	5056
871.619	5086
871.749	5037
871.879	5086
872.008	5185
872.138	5029
872.267	4972
872.397	4854
872.526	4782
872.656	4717
872.785	4786
872.915	4968
873.044	5022
873.173	4881
873.303	4946
873.432	4953
873.561	4953
873.69	4911
873.819	4812
873.948	4927
874.077	4828
874.206	4767
874.335	4828
874.464	4900
874.593	5037
874.722	5003
874.851	5071
874.979	5033
875.108	5048
875.237	4911
875.365	4831
875.494	4877
875.623	4938
875.751	4774
875.88	4900
876.008	4949
876.136	5010
876.265	5208
876.393	5330
876.521	5208
876.65	5242
876.778	5166
876.906	5018
877.034	5033
877.162	5060
877.29	4957
877.418	5037
877.546	5014
877.674	5060
877.802	5006
877.93	5010
878.058	4927
878.185	4904
878.313	4949
878.441	4923
878.568	4801
878.696	4843
878.824	4942
878.951	5022
879.079	5124
879.206	5322
879.333	5048
879.461	4972
879.588	4930
879.715	5079
879.842	5220
879.97	5041
880.097	4790
880.224	4729
880.351	4752
880.478	4828
880.605	4797
880.732	4767
880.859	5048
880.986	4843
881.112	4885
881.239	4740
881.366	4660
881.493	4611
881.619	4550
881.746	4618
881.872	4653
881.999	4622
882.125	4626
882.252	4797
882.378	4782
882.505	4934
882.631	4763
882.757	4664
882.883	4729
883.01	4717
883.136	4637
883.262	4634
883.388	4584
883.514	4843
883.64	4862
883.766	4797
883.892	4694
884.018	4702
884.143	4885
884.269	4957
884.395	4649
884.52	4656
884.646	4615
884.772	4569
884.897	4538
885.023	4687
885.148	4767
885.274	4873
885.399	4771
885.524	4641
885.65	4672
885.775	4755
885.9	4729
886.025	4839
886.15	4771
886.275	4698
886.4	4672
886.525	4740
886.65	4672
886.775	4717
886.9	4885
887.025	5048
887.149	4816
887.274	4637
887.399	4542
887.523	4561
887.648	4569
887.773	4565
887.897	4790
888.021	4748
888.146	4668
888.27	4767
888.395	4915
888.519	4790
888.643	4835
888.767	4816
888.891	4618
889.015	4565
889.139	4672
889.263	4577
889.387	4752
889.511	4889
889.635	4812
889.759	4615
889.883	4565
890.006	4721
890.13	4870
890.254	4592
890.377	4622
890.501	4542
890.624	4485
890.748	4584
890.871	4497
890.995	4428
891.118	4325
891.241	4459
891.364	4527
891.488	4584
891.611	4409
891.734	4554
891.857	4603
891.98	4588
892.103	4592
892.226	4573
892.349	4516
892.471	4386
892.594	4577
892.717	4580
892.839	4561
892.962	4569
893.085	4675
893.207	4622
893.33	4386
893.452	4504
893.575	4615
893.697	4561
893.819	4778
893.941	4812
894.064	4733
894.186	4596
894.308	4550
894.43	4679
894.552	4812
894.674	4740
894.796	4466
894.918	4561
895.04	4569
895.161	4675
895.283	4634
895.405	4607
895.526	4637
895.648	4664
895.769	4702
895.891	4717
896.012	4744
896.134	4717
896.255	4675
896.376	4569
896.498	4573
896.619	4656
896.74	4607
896.861	4626
896.982	4847
897.103	5052
897.224	4809
897.345	4748
897.466	4691
897.587	4725
897.708	4824
897.828	4748
897.949	4702
898.07	4573
898.19	4672
898.311	4839
898.431	4729
898.552	4740
898.672	4824
898.792	4801
898.913	4752
899.033	4634
899.153	4546
899.273	4455
899.393	4500
899.513	4573
899.633	4554
899.753	4580
899.873	4538
899.993	4584
900.113	4584
900.232	4599
900.352	4512
900.472	4535
900.591	4421
900.711	4527
900.83	4421
900.95	4630
901.069	4687
901.189	4546
901.308	4367
901.427	4337
901.546	4440
901.665	4519
901.784	4508
901.904	4424
902.023	4325
902.141	4230
902.26	4223
902.379	4360
902.498	4303
902.617	4261
902.735	4424
902.854	4481
902.973	4386
903.091	4204
903.21	4227
903.328	4291
903.446	4322
903.565	4249
903.683	4386
903.801	4363
903.919	4421
904.038	4493
904.156	4360
904.274	4466
904.392	4432
904.51	4451
904.627	4462
904.745	4558
904.863	4672
904.981	4455
905.098	4318
905.216	4417
905.334	4470
905.451	4455
905.569	4485
905.686	4569
905.803	4599
905.921	4447
906.038	4603
906.155	4542
906.272	4440
906.389	4447
906.506	4383
906.623	4360
906.74	4417
906.857	4367
906.974	4440
907.091	4584
907.208	4717
907.324	4618
907.441	4512
907.557	4390
907.674	4413
907.79	4367
907.907	4428
908.023	4504
908.139	4500
908.256	4459
908.372	4523
908.488	4497
908.604	4402
908.72	4390
908.836	4470
908.952	4440
909.068	4485
909.184	4622
909.3	4466
909.415	4592
909.531	4592
909.647	4367
909.762	4443
909.878	4367
909.993	4440
910.108	4447
910.224	4489
910.339	4531
910.454	4440
910.57	4402
910.685	4375
910.8	4679
910.915	4653
911.03	4508
911.145	4390
911.259	4329
911.374	4455
911.489	4314
911.604	4303
911.718	4188
911.833	4242
911.947	4128
912.062	4051
912.176	4268
912.291	4272
912.405	4261
912.519	4504
912.633	4538
912.748	4424
912.862	4325
912.976	4253
913.09	4116
913.204	4196
913.318	4284
913.431	4405
913.545	4409
913.659	4436
913.772	4405
913.886	4272
914	4276
914.113	4440
914.226	4481
914.34	4440
914.453	4284
914.566	4455
914.68	4325
914.793	4386
914.906	4219
915.019	4147
915.132	4150
915.245	4185
915.358	4246
915.47	4303
915.583	4291
915.696	4341
915.809	4386
915.921	4421
916.034	4318
916.146	4268
916.259	4234
916.371	4402
916.483	4379
916.595	4291
916.708	4405
916.82	4352
916.932	4405
917.044	4356
917.156	4314
917.268	4261
917.38	4314
917.491	4299
917.603	4356
917.715	4504
917.826	4455
917.938	4398
918.049	4253
918.161	4462
918.272	4519
918.384	4577
918.495	4489
918.606	4329
918.717	4284
918.828	4402
918.939	4436
919.05	4268
919.161	4367
919.272	4112
919.383	4303
919.494	4485
919.604	4675
919.715	4470
919.826	4402
919.936	4443
920.047	4554
920.157	4531
920.267	4702
920.378	4565
920.488	4500
920.598	4736
920.708	4938
920.818	4725
920.928	4774
921.038	4991
921.148	4942
921.258	4683
921.368	4584
921.477	4531
921.587	4519
921.697	4398
921.806	4538
921.916	4447
922.025	4280
922.134	4306
922.244	4242
922.353	4402
922.462	4200
922.571	4150
922.68	4051
922.789	4013
922.898	4078
923.007	4017
923.116	4166
923.224	4093
923.333	4071
923.442	4006
923.55	4006
923.659	4082
923.767	4131
923.876	4032
923.984	4200
924.092	3956
924.201	4093
924.309	4097
924.417	4173
924.525	4078
924.633	4124
924.741	5083
924.849	3960
924.956	4166
925.064	3956
925.172	3934
925.279	3968
925.387	4086
925.494	4063
925.602	4211
925.709	4196
925.816	4143
925.924	4131
926.031	4246
926.138	4211
926.245	4223
926.352	4120
926.459	4303
926.566	4306
926.673	4158
926.779	4135
926.886	4086
926.993	3994
927.099	3991
927.206	3960
927.312	3983
927.419	4051
927.525	4048
927.631	4097
927.737	3964
927.843	3972
927.95	3873
928.056	3964
928.162	3983
928.267	4101
928.373	4645
928.479	4124
928.585	3869
928.69	4059
928.796	4063
928.901	4010
929.007	3899
929.112	4036
929.218	4010
929.323	3960
929.428	3934
929.533	4177
929.638	3926
929.743	3983
929.848	4071
929.953	4002
930.058	3945
930.163	3774
930.267	3835
930.372	3987
930.477	3854
930.581	4101
930.685	3994
930.79	3842
930.894	3907
930.998	3884
931.103	4055
931.207	3762
931.311	3736
931.415	3698
931.519	3542
931.623	3587
