Data from test_V78500241_2333.txt Node
Date: Fri Mar 25 17:05:13 CST 2022
User: usil
Spectrometer: V785-0024
Trigger mode: 0
Integration Time (sec): 4.000000E-1
Scans to average: 1
Nonlinearity correction enabled: false
Boxcar width: 0
Storing dark spectrum: false
XAxis mode: Wavelengths
Number of Pixels in Spectrum: 1024
>>>>>Begin Spectral Data<<<<<
801.071	8016
801.214	7959
801.356	7883
801.499	7742
801.641	7757
801.783	7841
801.926	7940
802.068	7940
802.211	7967
802.353	8020
802.496	7940
802.638	7830
802.78	7909
802.923	7936
803.065	7807
803.208	7860
803.35	7936
803.492	8096
803.635	8134
803.777	7997
803.919	8092
804.061	8446
804.204	8168
804.346	8081
804.488	7963
804.63	8069
804.773	8065
804.915	8062
805.057	8313
805.199	8149
805.341	8225
805.483	8259
805.626	8191
805.768	8161
805.91	8313
806.052	8195
806.194	8092
806.336	8267
806.478	8081
806.62	8012
806.762	8107
806.904	8313
807.046	8442
807.188	8339
807.33	8339
807.472	8343
807.614	8195
807.756	8229
807.898	8031
808.04	7879
808.182	7852
808.324	7837
808.465	7830
808.607	8081
808.749	8107
808.891	8229
809.033	8400
809.174	8149
809.316	8024
809.458	8027
809.6	8050
809.741	8100
809.883	8027
810.025	8096
810.166	8134
810.308	8035
810.45	7951
810.591	7856
810.733	7807
810.875	7647
811.016	7518
811.158	7468
811.299	7582
811.441	7734
811.582	7677
811.724	7533
811.865	7540
812.007	7628
812.148	7601
812.29	7613
812.431	7681
812.573	7921
812.714	7970
812.855	8115
812.997	8202
813.138	8377
813.279	8134
813.421	8058
813.562	7978
813.703	7772
813.845	7803
813.986	7468
814.127	7236
814.268	7266
814.41	7232
814.551	7198
814.692	7198
814.833	7118
814.974	7088
815.115	7152
815.256	6989
815.397	6905
815.539	6935
815.68	6848
815.821	6791
815.962	6928
816.103	6852
816.244	6749
816.385	6669
816.526	6593
816.666	6494
816.807	6327
816.948	6494
817.089	6464
817.23	6490
817.371	6376
817.512	6369
817.653	6414
817.793	6315
817.934	6433
818.075	6391
818.216	6445
818.356	6399
818.497	6201
818.638	6178
818.778	6186
818.919	6117
819.06	6144
819.2	6304
819.341	6311
819.481	6407
819.622	6475
819.762	6753
819.903	6719
820.043	6585
820.184	6620
820.324	6639
820.465	6768
820.605	6642
820.746	6589
820.886	6593
821.026	6623
821.167	6700
821.307	6852
821.447	6760
821.588	6631
821.728	6589
821.868	6464
822.008	6380
822.149	6395
822.289	6334
822.429	6121
822.569	6102
822.709	6121
822.849	5965
822.99	5920
823.13	5916
823.27	5859
823.41	5813
823.55	5802
823.69	5760
823.83	5779
823.97	5619
824.11	5558
824.25	5509
824.389	5589
824.529	5600
824.669	5535
824.809	5604
824.949	5653
825.089	5611
825.228	5554
825.368	5395
825.508	5364
825.648	5353
825.787	5368
825.927	5303
826.067	5288
826.206	5311
826.346	5417
826.485	5376
826.625	5391
826.765	5512
826.904	5448
827.044	5288
827.183	5223
827.323	5162
827.462	5193
827.601	5189
827.741	5155
827.88	5216
828.02	5143
828.159	5220
828.298	5261
828.437	5284
828.577	5307
828.716	5459
828.855	5299
828.994	5159
829.134	5128
829.273	5223
829.412	5143
829.551	5117
829.69	5140
829.829	5258
829.968	5303
830.107	5307
830.246	5273
830.385	5162
830.524	5124
830.663	5086
830.802	4991
830.941	4866
831.08	4881
831.219	5018
831.357	4965
831.496	5185
831.635	4881
831.774	4854
831.913	4843
832.051	4721
832.19	4725
832.329	4831
832.467	4710
832.606	4615
832.744	4729
832.883	4748
833.022	4717
833.16	4812
833.299	4862
833.437	4881
833.576	4816
833.714	4793
833.852	4881
833.991	4908
834.129	4934
834.267	4911
834.406	4889
834.544	4976
834.682	5025
834.821	4965
834.959	5162
835.097	4965
835.235	5193
835.373	5071
835.511	5075
835.65	5056
835.788	5045
835.926	4892
836.064	4850
836.202	4923
836.34	5189
836.478	5212
836.615	5159
836.753	5250
836.891	5311
837.029	5261
837.167	5155
837.305	5162
837.443	5132
837.58	5094
837.718	5288
837.856	5170
837.993	5147
838.131	5212
838.269	5208
838.406	5231
838.544	5250
838.681	5056
838.819	5025
838.956	4946
839.094	4877
839.231	4999
839.369	5071
839.506	5429
839.643	5261
839.781	5064
839.918	4991
840.055	5124
840.193	5113
840.33	5048
840.467	5174
840.604	5181
840.742	5490
840.879	5113
841.016	5109
841.153	5140
841.29	5372
841.427	5349
841.564	5288
841.701	5360
841.838	5269
841.975	5254
842.112	5258
842.249	5109
842.385	5098
842.522	5288
842.659	5136
842.796	5155
842.933	5220
843.069	5159
843.206	5181
843.343	5307
843.479	5223
843.616	5284
843.752	4972
843.889	5010
844.025	5197
844.162	5025
844.298	5223
844.435	5136
844.571	5098
844.708	5197
844.844	5341
844.98	5349
845.117	5265
845.253	5193
845.389	5083
845.525	5117
845.661	5159
845.798	5045
845.934	5094
846.07	5056
846.206	5216
846.342	5204
846.478	5212
846.614	5045
846.75	4938
846.886	4930
847.022	5075
847.158	5052
847.294	5025
847.429	5045
847.565	5037
847.701	5326
847.837	4862
847.972	4812
848.108	4980
848.244	4968
848.379	4778
848.515	4721
848.65	4717
848.786	4729
848.921	4797
849.057	4873
849.192	4858
849.328	4831
849.463	4850
849.598	4828
849.734	4767
849.869	4694
850.004	4630
850.14	4653
850.275	4592
850.41	4493
850.545	4580
850.68	4588
850.815	4615
850.95	4641
851.085	4790
851.22	4733
851.355	4706
851.49	4618
851.625	4672
851.76	4683
851.895	4596
852.03	4561
852.165	4649
852.299	4748
852.434	4778
852.569	4736
852.703	4786
852.838	4877
852.973	4915
853.107	4870
853.242	4767
853.376	4675
853.511	4546
853.645	4649
853.78	4801
853.914	4714
854.048	4660
854.183	4622
854.317	4706
854.451	4824
854.585	4717
854.72	4660
854.854	4714
854.988	4630
855.122	4653
855.256	4485
855.39	4668
855.524	4729
855.658	4668
855.792	4664
855.926	4744
856.06	4767
856.194	4786
856.327	4698
856.461	4618
856.595	4630
856.729	4618
856.862	4755
856.996	4660
857.13	4725
857.263	4778
857.397	4847
857.53	4653
857.664	4748
857.797	4771
857.931	4786
858.064	4656
858.197	4744
858.331	4603
858.464	4634
858.597	4489
858.731	4588
858.864	4588
858.997	4588
859.13	4672
859.263	4683
859.396	4706
859.529	4573
859.662	4569
859.795	4554
859.928	4611
860.061	4744
860.194	4725
860.327	4611
860.46	4580
860.592	4725
860.725	4698
860.858	4729
860.99	4523
861.123	4546
861.256	4523
861.388	4584
861.521	5402
861.653	4470
861.786	4421
861.918	4474
862.05	4474
862.183	4512
862.315	4596
862.447	4664
862.58	4550
862.712	4371
862.844	4299
862.976	4470
863.108	4451
863.24	4908
863.372	4333
863.504	4432
863.636	4379
863.768	4462
863.9	4443
864.032	4386
864.164	4402
864.296	4470
864.428	4508
864.559	4592
864.691	4519
864.823	4478
864.954	4493
865.086	4459
865.217	4447
865.349	4462
865.48	4474
865.612	4474
865.743	4592
865.875	4459
866.006	4432
866.137	4504
866.269	4443
866.4	4428
866.531	4455
866.662	4413
866.793	4428
866.924	4394
867.055	4459
867.186	4432
867.317	4386
867.448	4360
867.579	4417
867.71	4394
867.841	4363
867.972	4489
868.103	4459
868.233	4443
868.364	4451
868.495	4466
868.625	4649
868.756	4729
868.886	4603
869.017	4634
869.147	4771
869.278	4736
869.408	4637
869.539	4599
869.669	4714
869.799	4611
869.929	4805
870.06	4755
870.19	4965
870.32	4904
870.45	4889
870.58	5010
870.71	5090
870.84	5102
870.97	4923
871.1	4881
871.23	5121
871.36	5151
871.489	5037
871.619	5090
871.749	5117
871.879	5124
872.008	5166
872.138	5045
872.267	5010
872.397	4885
872.526	4805
872.656	4710
872.785	4835
872.915	4934
873.044	4995
873.173	4927
873.303	4938
873.432	4908
873.561	4957
873.69	4904
873.819	4858
873.948	4919
874.077	4809
874.206	4805
874.335	4797
874.464	4908
874.593	5109
874.722	5010
874.851	5124
874.979	5022
875.108	5048
875.237	4896
875.365	4881
875.494	4870
875.623	4968
875.751	4820
875.88	4873
876.008	4976
876.136	4995
876.265	5220
876.393	5307
876.521	5235
876.65	5231
876.778	5178
876.906	5113
877.034	5014
877.162	5041
877.29	4987
877.418	5102
877.546	5052
877.674	5067
877.802	5079
877.93	5010
878.058	4942
878.185	4870
878.313	4942
878.441	4930
878.568	4778
878.696	4881
878.824	4965
878.951	4987
879.079	5143
879.206	5296
879.333	5083
879.461	4957
879.588	4976
879.715	5121
879.842	5235
879.97	5025
880.097	4771
880.224	4702
880.351	4801
880.478	4793
880.605	4801
880.732	4809
880.859	5128
880.986	4847
881.112	4919
881.239	4767
881.366	4668
881.493	4569
881.619	4577
881.746	4645
881.872	4653
881.999	4611
882.125	4694
882.252	4771
882.378	4828
882.505	4904
882.631	4778
882.757	4691
882.883	4767
883.01	4710
883.136	4694
883.262	4588
883.388	4618
883.514	4809
883.64	4847
883.766	4847
883.892	4637
884.018	4702
884.143	4858
884.269	4999
884.395	4687
884.52	4618
884.646	4664
884.772	4580
884.897	4607
885.023	4702
885.148	4801
885.274	4870
885.399	4797
885.524	4729
885.65	4668
885.775	4740
885.9	4679
886.025	4858
886.15	4793
886.275	4736
886.4	4653
886.525	4717
886.65	4653
886.775	4672
886.9	4900
887.025	5075
887.149	4767
887.274	4618
887.399	4573
887.523	4622
887.648	4634
887.773	4588
887.897	4778
888.021	4771
888.146	4637
888.27	4831
888.395	4923
888.519	4778
888.643	4812
888.767	4858
888.891	4656
889.015	4622
889.139	4637
889.263	4592
889.387	4691
889.511	4835
889.635	4733
889.759	4645
889.883	4649
890.006	4717
890.13	4790
890.254	4622
890.377	4626
890.501	4531
890.624	4538
890.748	4668
890.871	4497
890.995	4409
891.118	4402
891.241	4481
891.364	4535
891.488	4615
891.611	4512
891.734	4531
891.857	4618
891.98	4531
892.103	4660
892.226	4550
892.349	4546
892.471	4402
892.594	4519
892.717	4577
892.839	4584
892.962	4577
893.085	4679
893.207	4592
893.33	4485
893.452	4481
893.575	4607
893.697	4596
893.819	4786
893.941	4759
894.064	4801
894.186	4569
894.308	4550
894.43	4714
894.552	4790
894.674	4691
894.796	4569
894.918	4672
895.04	4592
895.161	4706
895.283	4622
895.405	4596
895.526	4626
895.648	4721
895.769	4714
895.891	4641
896.012	4702
896.134	4729
896.255	4622
896.376	4660
896.498	4630
896.619	4672
896.74	4626
896.861	4672
896.982	4930
897.103	5060
897.224	4839
897.345	4767
897.466	4694
897.587	4733
897.708	4866
897.828	4801
897.949	4668
898.07	4519
898.19	4626
898.311	4820
898.431	4672
898.552	4706
898.672	4820
898.792	4771
898.913	4687
899.033	4596
899.153	4493
899.273	4413
899.393	4500
899.513	4558
899.633	4527
899.753	4546
899.873	4516
899.993	4550
900.113	4523
900.232	4607
900.352	4546
900.472	4516
900.591	4390
900.711	4512
900.83	4424
900.95	4561
901.069	4691
901.189	4535
901.308	4379
901.427	4306
901.546	4367
901.665	4478
901.784	4474
901.904	4329
902.023	4333
902.141	4188
902.26	4143
902.379	4280
902.498	4238
902.617	4238
902.735	4379
902.854	4390
902.973	4348
903.091	4169
903.21	4257
903.328	4261
903.446	4303
903.565	4246
903.683	4367
903.801	4322
903.919	4421
904.038	4409
904.156	4337
904.274	4489
904.392	4428
904.51	4462
904.627	4512
904.745	4558
904.863	4656
904.981	4390
905.098	4287
905.216	4390
905.334	4405
905.451	4379
905.569	4424
905.686	4519
905.803	4554
905.921	4436
906.038	4508
906.155	4493
906.272	4409
906.389	4440
906.506	4367
906.623	4398
906.74	4417
906.857	4322
906.974	4371
907.091	4535
907.208	4668
907.324	4611
907.441	4466
907.557	4314
907.674	4344
907.79	4249
907.907	4341
908.023	4451
908.139	4474
908.256	4481
908.372	4470
908.488	4470
908.604	4348
908.72	4272
908.836	4367
908.952	4394
909.068	4417
909.184	4558
909.3	4470
909.415	4592
909.531	4542
909.647	4356
909.762	4356
909.878	4352
909.993	4432
910.108	4390
910.224	4421
910.339	4440
910.454	4390
910.57	4356
910.685	4268
910.8	4622
910.915	4546
911.03	4470
911.145	4337
911.259	4367
911.374	4379
911.489	4284
911.604	4322
911.718	4204
911.833	4230
911.947	4021
912.062	4071
912.176	4173
912.291	4219
912.405	4242
912.519	4451
912.633	4478
912.748	4360
912.862	4295
912.976	4200
913.09	4067
913.204	4185
913.318	4230
913.431	4405
913.545	4344
913.659	4459
913.772	4325
913.886	4242
914	4188
914.113	4360
914.226	4443
914.34	4379
914.453	4219
914.566	4402
914.68	4257
914.793	4314
914.906	4128
915.019	4109
915.132	4071
915.245	4158
915.358	4166
915.47	4234
915.583	4272
915.696	4268
915.809	4432
915.921	4455
916.034	4310
916.146	4219
916.259	4215
916.371	4398
916.483	4356
916.595	4303
916.708	4295
916.82	4329
916.932	4318
917.044	4333
917.156	4306
917.268	4246
917.38	4246
917.491	4299
917.603	4329
917.715	4428
917.826	4413
917.938	4394
918.049	4265
918.161	4344
918.272	4489
918.384	4554
918.495	4424
918.606	4261
918.717	4211
918.828	4325
918.939	4356
919.05	4249
919.161	4306
919.272	4154
919.383	4230
919.494	4481
919.604	4626
919.715	4481
919.826	4375
919.936	4405
920.047	4535
920.157	4466
920.267	4668
920.378	4580
920.488	4504
920.598	4694
920.708	4854
920.818	4782
920.928	4763
921.038	4972
921.148	4896
921.258	4649
921.368	4508
921.477	4481
921.587	4485
921.697	4394
921.806	4531
921.916	4417
922.025	4257
922.134	4246
922.244	4200
922.353	4333
922.462	4207
922.571	4120
922.68	4006
922.789	3975
922.898	4017
923.007	4002
923.116	4112
923.224	4051
923.333	4051
923.442	3983
923.55	3987
923.659	4025
923.767	4051
923.876	4040
923.984	4116
924.092	3968
924.201	4082
924.309	4109
924.417	4124
924.525	4093
924.633	4048
924.741	5056
924.849	3930
924.956	4074
925.064	3949
925.172	3873
925.279	3926
925.387	4067
925.494	3994
925.602	4230
925.709	4185
925.816	4051
925.924	4128
926.031	4204
926.138	4166
926.245	4227
926.352	4093
926.459	4215
926.566	4299
926.673	4143
926.779	4097
926.886	4036
926.993	3937
927.099	3956
927.206	3949
927.312	3956
927.419	4071
927.525	4048
927.631	4067
927.737	3975
927.843	3934
927.95	3827
928.056	3899
928.162	3968
928.267	4082
928.373	4603
928.479	4124
928.585	3915
928.69	4029
928.796	4090
928.901	3991
929.007	3846
929.112	4010
929.218	3968
929.323	3922
929.428	3926
929.533	4139
929.638	3896
929.743	3979
929.848	4063
929.953	4006
930.058	3953
930.163	3793
930.267	3823
930.372	3975
930.477	3785
930.581	4078
930.685	3956
930.79	3797
930.894	3899
930.998	3873
931.103	4010
931.207	3717
931.311	3679
931.415	3663
931.519	3492
931.623	3507
