Data from test_V78500241_2343.txt Node
Date: Fri Mar 25 17:05:17 CST 2022
User: usil
Spectrometer: V785-0024
Trigger mode: 0
Integration Time (sec): 4.000000E-1
Scans to average: 1
Nonlinearity correction enabled: false
Boxcar width: 0
Storing dark spectrum: false
XAxis mode: Wavelengths
Number of Pixels in Spectrum: 1024
>>>>>Begin Spectral Data<<<<<
801.071	8054
801.214	7955
801.356	7894
801.499	7890
801.641	7811
801.783	7837
801.926	7967
802.068	7894
802.211	7997
802.353	7982
802.496	7841
802.638	7860
802.78	7871
802.923	7970
803.065	7928
803.208	7894
803.35	7951
803.492	8058
803.635	8164
803.777	8050
803.919	8134
804.061	8450
804.204	8195
804.346	8119
804.488	8043
804.63	8126
804.773	7982
804.915	8084
805.057	8355
805.199	8161
805.341	8157
805.483	8305
805.626	8233
805.768	8157
805.91	8214
806.052	8218
806.194	8145
806.336	8233
806.478	8096
806.62	8020
806.762	8221
806.904	8244
807.046	8461
807.188	8366
807.33	8237
807.472	8347
807.614	8199
807.756	8119
807.898	7986
808.04	7837
808.182	7845
808.324	7890
808.465	7932
808.607	8031
808.749	8065
808.891	8252
809.033	8343
809.174	8161
809.316	8103
809.458	8126
809.6	8088
809.741	8016
809.883	7986
810.025	8035
810.166	8069
810.308	8012
810.45	8020
810.591	7879
810.733	7761
810.875	7666
811.016	7483
811.158	7438
811.299	7499
811.441	7727
811.582	7685
811.724	7540
811.865	7556
812.007	7609
812.148	7616
812.29	7594
812.431	7753
812.573	7852
812.714	7974
812.855	8157
812.997	8210
813.138	8271
813.279	8168
813.421	8069
813.562	7963
813.703	7814
813.845	7734
813.986	7441
814.127	7202
814.268	7126
814.41	7206
814.551	7133
814.692	7213
814.833	7126
814.974	7107
815.115	7057
815.256	6989
815.397	6932
815.539	6924
815.68	6825
815.821	6768
815.962	6810
816.103	6806
816.244	6772
816.385	6585
816.526	6582
816.666	6471
816.807	6304
816.948	6460
817.089	6445
817.23	6456
817.371	6369
817.512	6376
817.653	6399
817.793	6353
817.934	6384
818.075	6502
818.216	6380
818.356	6388
818.497	6319
818.638	6155
818.778	6159
818.919	6106
819.06	6121
819.2	6304
819.341	6311
819.481	6365
819.622	6494
819.762	6734
819.903	6741
820.043	6585
820.184	6559
820.324	6547
820.465	6703
820.605	6658
820.746	6669
820.886	6597
821.026	6738
821.167	6684
821.307	6844
821.447	6791
821.588	6684
821.728	6551
821.868	6506
822.008	6426
822.149	6391
822.289	6350
822.429	6186
822.569	6163
822.709	6171
822.849	5942
822.99	5912
823.13	5946
823.27	5950
823.41	5794
823.55	5813
823.69	5779
823.83	5809
823.97	5676
824.11	5608
824.25	5581
824.389	5608
824.529	5676
824.669	5592
824.809	5657
824.949	5688
825.089	5634
825.228	5581
825.368	5486
825.508	5322
825.648	5391
825.787	5425
825.927	5474
826.067	5334
826.206	5364
826.346	5406
826.485	5410
826.625	5452
826.765	5611
826.904	5566
827.044	5277
827.183	5269
827.323	5212
827.462	5334
827.601	5239
827.741	5258
827.88	5246
828.02	5140
828.159	5261
828.298	5353
828.437	5417
828.577	5269
828.716	5532
828.855	5406
828.994	5181
829.134	5189
829.273	5265
829.412	5117
829.551	5201
829.69	5201
829.829	5292
829.968	5459
830.107	5349
830.246	5318
830.385	5242
830.524	5143
830.663	5121
830.802	4995
830.941	4934
831.08	4896
831.219	5022
831.357	5037
831.496	5208
831.635	4942
831.774	4870
831.913	4896
832.051	4782
832.19	4843
832.329	4858
832.467	4714
832.606	4717
832.744	4767
832.883	4752
833.022	4797
833.16	4862
833.299	4801
833.437	4900
833.576	4870
833.714	4927
833.852	4930
833.991	4946
834.129	4987
834.267	4934
834.406	4965
834.544	4999
834.682	4980
834.821	4991
834.959	5201
835.097	5025
835.235	5162
835.373	5151
835.511	5174
835.65	5033
835.788	5105
835.926	4953
836.064	4927
836.202	4987
836.34	5197
836.478	5296
836.615	5105
836.753	5265
836.891	5250
837.029	5299
837.167	5220
837.305	5174
837.443	5162
837.58	5128
837.718	5250
837.856	5261
837.993	5143
838.131	5292
838.269	5193
838.406	5208
838.544	5193
838.681	5109
838.819	5029
838.956	4934
839.094	4900
839.231	5006
839.369	5140
839.506	5436
839.643	5326
839.781	5147
839.918	5071
840.055	5166
840.193	5113
840.33	5143
840.467	5178
840.604	5201
840.742	5524
840.879	5166
841.016	5109
841.153	5170
841.29	5463
841.427	5341
841.564	5372
841.701	5429
841.838	5357
841.975	5284
842.112	5250
842.249	5166
842.385	5132
842.522	5357
842.659	5117
842.796	5185
842.933	5231
843.069	5170
843.206	5208
843.343	5368
843.479	5292
843.616	5284
843.752	5041
843.889	5102
844.025	5273
844.162	5121
844.298	5239
844.435	5117
844.571	5079
844.708	5265
844.844	5379
844.98	5311
845.117	5326
845.253	5124
845.389	5090
845.525	5201
845.661	5124
845.798	5048
845.934	5159
846.07	5075
846.206	5227
846.342	5315
846.478	5220
846.614	5041
846.75	4987
846.886	4991
847.022	5201
847.158	5022
847.294	5052
847.429	5143
847.565	5067
847.701	5345
847.837	4919
847.972	4812
848.108	4987
848.244	4980
848.379	4839
848.515	4790
848.65	4752
848.786	4740
848.921	4801
849.057	4904
849.192	4900
849.328	4866
849.463	4877
849.598	4767
849.734	4744
849.869	4755
850.004	4626
850.14	4649
850.275	4660
850.41	4554
850.545	4577
850.68	4630
850.815	4668
850.95	4634
851.085	4889
851.22	4710
851.355	4683
851.49	4694
851.625	4683
851.76	4668
851.895	4592
852.03	4569
852.165	4694
852.299	4763
852.434	4767
852.569	4774
852.703	4767
852.838	4885
852.973	4976
853.107	4942
853.242	4774
853.376	4702
853.511	4573
853.645	4672
853.78	4854
853.914	4733
854.048	4683
854.183	4626
854.317	4729
854.451	4889
854.585	4664
854.72	4679
854.854	4725
854.988	4634
855.122	4630
855.256	4538
855.39	4653
855.524	4725
855.658	4755
855.792	4721
855.926	4812
856.06	4790
856.194	4782
856.327	4698
856.461	4649
856.595	4630
856.729	4637
856.862	4774
856.996	4763
857.13	4759
857.263	4797
857.397	4885
857.53	4672
857.664	4763
857.797	4801
857.931	4873
858.064	4656
858.197	4771
858.331	4660
858.464	4637
858.597	4573
858.731	4664
858.864	4656
858.997	4630
859.13	4721
859.263	4679
859.396	4733
859.529	4611
859.662	4618
859.795	4538
859.928	4698
860.061	4809
860.194	4763
860.327	4626
860.46	4538
860.592	4755
860.725	4759
860.858	4721
860.99	4622
861.123	4523
861.256	4577
861.388	4630
861.521	5296
861.653	4500
861.786	4447
861.918	4523
862.05	4527
862.183	4546
862.315	4645
862.447	4645
862.58	4588
862.712	4383
862.844	4329
862.976	4508
863.108	4451
863.24	4873
863.372	4383
863.504	4398
863.636	4417
863.768	4550
863.9	4436
864.032	4402
864.164	4447
864.296	4508
864.428	4580
864.559	4588
864.691	4550
864.823	4569
864.954	4500
865.086	4546
865.217	4466
865.349	4394
865.48	4474
865.612	4527
865.743	4672
865.875	4527
866.006	4386
866.137	4455
866.269	4485
866.4	4481
866.531	4440
866.662	4443
866.793	4447
866.924	4474
867.055	4535
867.186	4512
867.317	4417
867.448	4436
867.579	4413
867.71	4432
867.841	4371
867.972	4481
868.103	4459
868.233	4497
868.364	4459
868.495	4466
868.625	4744
868.756	4790
868.886	4588
869.017	4599
869.147	4824
869.278	4824
869.408	4717
869.539	4679
869.669	4733
869.799	4675
869.929	4786
870.06	4778
870.19	4957
870.32	4961
870.45	5041
870.58	5014
870.71	5090
870.84	5136
870.97	4965
871.1	4915
871.23	5162
871.36	5128
871.489	5037
871.619	5124
871.749	5178
871.879	5162
872.008	5170
872.138	5060
872.267	4961
872.397	4877
872.526	4850
872.656	4748
872.785	4828
872.915	4984
873.044	5033
873.173	4919
873.303	4987
873.432	4991
873.561	4987
873.69	4949
873.819	4889
873.948	4885
874.077	4778
874.206	4717
874.335	4831
874.464	4957
874.593	5128
874.722	5003
874.851	5181
874.979	5136
875.108	5048
875.237	4942
875.365	4915
875.494	4911
875.623	4991
875.751	4858
875.88	4908
876.008	5029
876.136	5003
876.265	5193
876.393	5410
876.521	5239
876.65	5273
876.778	5170
876.906	5071
877.034	5048
877.162	5121
877.29	4991
877.418	5052
877.546	5037
877.674	5086
877.802	5109
877.93	5006
878.058	5006
878.185	4896
878.313	5018
878.441	4999
878.568	4767
878.696	4881
878.824	4965
878.951	5037
879.079	5155
879.206	5315
879.333	5121
879.461	4987
879.588	5033
879.715	5185
879.842	5231
879.97	5006
880.097	4782
880.224	4744
880.351	4854
880.478	4793
880.605	4843
880.732	4812
880.859	5094
880.986	4900
881.112	4949
881.239	4873
881.366	4725
881.493	4660
881.619	4573
881.746	4626
881.872	4675
881.999	4664
882.125	4721
882.252	4797
882.378	4820
882.505	5003
882.631	4763
882.757	4649
882.883	4755
883.01	4733
883.136	4698
883.262	4641
883.388	4660
883.514	4801
883.64	4858
883.766	4831
883.892	4694
884.018	4721
884.143	4896
884.269	5018
884.395	4664
884.52	4634
884.646	4683
884.772	4588
884.897	4573
885.023	4660
885.148	4809
885.274	4850
885.399	4831
885.524	4698
885.65	4710
885.775	4721
885.9	4759
886.025	4870
886.15	4790
886.275	4714
886.4	4672
886.525	4744
886.65	4702
886.775	4759
886.9	4908
887.025	4999
887.149	4752
887.274	4679
887.399	4645
887.523	4626
887.648	4607
887.773	4634
887.897	4771
888.021	4763
888.146	4717
888.27	4767
888.395	4949
888.519	4828
888.643	4778
888.767	4809
888.891	4702
889.015	4588
889.139	4683
889.263	4596
889.387	4698
889.511	4908
889.635	4793
889.759	4679
889.883	4687
890.006	4744
890.13	4797
890.254	4607
890.377	4672
890.501	4493
890.624	4558
890.748	4691
890.871	4535
890.995	4440
891.118	4440
891.241	4580
891.364	4535
891.488	4634
891.611	4577
891.734	4535
891.857	4607
891.98	4573
892.103	4683
892.226	4630
892.349	4504
892.471	4409
892.594	4573
892.717	4603
892.839	4584
892.962	4645
893.085	4672
893.207	4637
893.33	4516
893.452	4577
893.575	4664
893.697	4588
893.819	4759
893.941	4801
894.064	4835
894.186	4573
894.308	4565
894.43	4755
894.552	4858
894.674	4774
894.796	4580
894.918	4531
895.04	4538
895.161	4698
895.283	4637
895.405	4645
895.526	4603
895.648	4668
895.769	4691
895.891	4721
896.012	4809
896.134	4736
896.255	4687
896.376	4668
896.498	4611
896.619	4717
896.74	4577
896.861	4668
896.982	4915
897.103	5090
897.224	4843
897.345	4759
897.466	4679
897.587	4733
897.708	4881
897.828	4771
897.949	4630
898.07	4558
898.19	4622
898.311	4759
898.431	4691
898.552	4748
898.672	4736
898.792	4831
898.913	4759
899.033	4630
899.153	4523
899.273	4447
899.393	4459
899.513	4527
899.633	4500
899.753	4569
899.873	4504
899.993	4535
900.113	4554
900.232	4584
900.352	4588
900.472	4485
900.591	4409
900.711	4519
900.83	4428
900.95	4580
901.069	4660
901.189	4489
901.308	4360
901.427	4322
901.546	4398
901.665	4462
901.784	4516
901.904	4432
902.023	4352
902.141	4169
902.26	4181
902.379	4379
902.498	4227
902.617	4253
902.735	4356
902.854	4398
902.973	4348
903.091	4234
903.21	4223
903.328	4303
903.446	4284
903.565	4238
903.683	4379
903.801	4306
903.919	4428
904.038	4462
904.156	4352
904.274	4443
904.392	4447
904.51	4421
904.627	4466
904.745	4592
904.863	4622
904.981	4398
905.098	4295
905.216	4352
905.334	4413
905.451	4466
905.569	4474
905.686	4577
905.803	4565
905.921	4394
906.038	4580
906.155	4546
906.272	4413
906.389	4443
906.506	4375
906.623	4409
906.74	4409
906.857	4318
906.974	4348
907.091	4561
907.208	4660
907.324	4596
907.441	4504
907.557	4341
907.674	4363
907.79	4344
907.907	4390
908.023	4459
908.139	4470
908.256	4428
908.372	4428
908.488	4451
908.604	4341
908.72	4314
908.836	4394
908.952	4417
909.068	4417
909.184	4569
909.3	4497
909.415	4596
909.531	4577
909.647	4405
909.762	4386
909.878	4348
909.993	4459
910.108	4440
910.224	4394
910.339	4481
910.454	4436
910.57	4333
910.685	4303
910.8	4683
910.915	4599
911.03	4538
911.145	4337
911.259	4363
911.374	4337
911.489	4325
911.604	4261
911.718	4192
911.833	4234
911.947	4086
912.062	4036
912.176	4166
912.291	4268
912.405	4303
912.519	4516
912.633	4504
912.748	4367
912.862	4257
912.976	4173
913.09	4112
913.204	4162
913.318	4287
913.431	4371
913.545	4375
913.659	4493
913.772	4344
913.886	4246
914	4204
914.113	4363
914.226	4432
914.34	4436
914.453	4242
914.566	4455
914.68	4310
914.793	4299
914.906	4150
915.019	4181
915.132	4071
915.245	4154
915.358	4173
915.47	4207
915.583	4280
915.696	4257
915.809	4405
915.921	4470
916.034	4246
916.146	4261
916.259	4204
916.371	4405
916.483	4383
916.595	4219
916.708	4325
916.82	4348
916.932	4299
917.044	4333
917.156	4306
917.268	4268
917.38	4276
917.491	4246
917.603	4360
917.715	4440
917.826	4474
917.938	4322
918.049	4303
918.161	4398
918.272	4519
918.384	4500
918.495	4428
918.606	4280
918.717	4238
918.828	4337
918.939	4379
919.05	4234
919.161	4325
919.272	4116
919.383	4230
919.494	4413
919.604	4618
919.715	4451
919.826	4379
919.936	4405
920.047	4535
920.157	4455
920.267	4679
920.378	4561
920.488	4538
920.598	4721
920.708	4930
920.818	4744
920.928	4744
921.038	4961
921.148	4877
921.258	4630
921.368	4577
921.477	4462
921.587	4497
921.697	4360
921.806	4569
921.916	4455
922.025	4257
922.134	4272
922.244	4211
922.353	4287
922.462	4162
922.571	4112
922.68	4013
922.789	4013
922.898	3991
923.007	4006
923.116	4097
923.224	4063
923.333	4082
923.442	3972
923.55	3956
923.659	4017
923.767	4109
923.876	4017
923.984	4112
924.092	3979
924.201	4112
924.309	4093
924.417	4097
924.525	4017
924.633	4071
924.741	4972
924.849	3922
924.956	4116
925.064	3903
925.172	3888
925.279	3949
925.387	4082
925.494	4074
925.602	4147
925.709	4211
925.816	3983
925.924	4158
926.031	4227
926.138	4181
926.245	4200
926.352	4097
926.459	4238
926.566	4310
926.673	4109
926.779	4093
926.886	4082
926.993	3983
927.099	3994
927.206	3930
927.312	3945
927.419	4032
927.525	4036
927.631	4124
927.737	3953
927.843	3956
927.95	3831
928.056	3945
928.162	4006
928.267	4071
928.373	4577
928.479	4150
928.585	3888
928.69	3994
928.796	4059
928.901	3915
929.007	3835
929.112	4017
929.218	3960
929.323	3972
929.428	3960
929.533	4173
929.638	3896
929.743	3975
929.848	4067
929.953	3991
930.058	3903
930.163	3797
930.267	3789
930.372	3998
930.477	3800
930.581	4086
930.685	3991
930.79	3861
930.894	3899
930.998	3854
931.103	4051
931.207	3724
931.311	3694
931.415	3679
931.519	3526
931.623	3580
