Data from test_V78500241_1166.txt Node
Date: Fri Mar 25 16:57:06 CST 2022
User: usil
Spectrometer: V785-0024
Trigger mode: 0
Integration Time (sec): 4.000000E-1
Scans to average: 1
Nonlinearity correction enabled: false
Boxcar width: 0
Storing dark spectrum: false
XAxis mode: Wavelengths
Number of Pixels in Spectrum: 1024
>>>>>Begin Spectral Data<<<<<
801.071	8077
801.214	7978
801.356	7894
801.499	7807
801.641	7750
801.783	7750
801.926	7913
802.068	7868
802.211	7936
802.353	7928
802.496	7932
802.638	7883
802.78	7921
802.923	7963
803.065	7890
803.208	7947
803.35	7970
803.492	8100
803.635	8187
803.777	8024
803.919	8069
804.061	8446
804.204	8153
804.346	7970
804.488	7986
804.63	8138
804.773	8039
804.915	8073
805.057	8298
805.199	8153
805.341	8187
805.483	8275
805.626	8168
805.768	8123
805.91	8271
806.052	8237
806.194	8134
806.336	8252
806.478	8073
806.62	8031
806.762	8176
806.904	8279
807.046	8484
807.188	8305
807.33	8309
807.472	8259
807.614	8134
807.756	8157
807.898	8054
808.04	7879
808.182	7913
808.324	7928
808.465	7909
808.607	8043
808.749	8027
808.891	8164
809.033	8282
809.174	8214
809.316	8050
809.458	8039
809.6	8005
809.741	7940
809.883	8001
810.025	8145
810.166	8020
810.308	8035
810.45	8024
810.591	7864
810.733	7753
810.875	7605
811.016	7529
811.158	7521
811.299	7620
811.441	7734
811.582	7715
811.724	7563
811.865	7483
812.007	7613
812.148	7540
812.29	7632
812.431	7731
812.573	7894
812.714	7913
812.855	8016
812.997	8328
813.138	8328
813.279	8210
813.421	8134
813.562	8031
813.703	7856
813.845	7738
813.986	7441
814.127	7251
814.268	7244
814.41	7194
814.551	7103
814.692	7168
814.833	7095
814.974	7050
815.115	7118
815.256	6920
815.397	6840
815.539	6958
815.68	6867
815.821	6776
815.962	6878
816.103	6806
816.244	6715
816.385	6639
816.526	6544
816.666	6479
816.807	6296
816.948	6475
817.089	6494
817.23	6407
817.371	6353
817.512	6410
817.653	6380
817.793	6353
817.934	6433
818.075	6471
818.216	6399
818.356	6407
818.497	6224
818.638	6095
818.778	6125
818.919	6136
819.06	6197
819.2	6273
819.341	6285
819.481	6384
819.622	6494
819.762	6715
819.903	6711
820.043	6566
820.184	6494
820.324	6623
820.465	6688
820.605	6722
820.746	6646
820.886	6494
821.026	6650
821.167	6650
821.307	6772
821.447	6745
821.588	6654
821.728	6544
821.868	6486
822.008	6273
822.149	6304
822.289	6292
822.429	6159
822.569	6072
822.709	6091
822.849	5912
822.99	5920
823.13	5889
823.27	5885
823.41	5798
823.55	5786
823.69	5798
823.83	5760
823.97	5653
824.11	5543
824.25	5471
824.389	5509
824.529	5596
824.669	5467
824.809	5608
824.949	5642
825.089	5619
825.228	5539
825.368	5360
825.508	5337
825.648	5326
825.787	5341
825.927	5353
826.067	5273
826.206	5254
826.346	5345
826.485	5376
826.625	5391
826.765	5543
826.904	5467
827.044	5220
827.183	5204
827.323	5090
827.462	5254
827.601	5220
827.741	5220
827.88	5178
828.02	5079
828.159	5246
828.298	5277
828.437	5326
828.577	5261
828.716	5493
828.855	5315
828.994	5193
829.134	5113
829.273	5117
829.412	5113
829.551	5159
829.69	5223
829.829	5273
829.968	5353
830.107	5273
830.246	5269
830.385	5128
830.524	5079
830.663	5071
830.802	4976
830.941	4877
831.08	4831
831.219	5003
831.357	4930
831.496	5143
831.635	4911
831.774	4824
831.913	4812
832.051	4706
832.19	4736
832.329	4854
832.467	4683
832.606	4672
832.744	4691
832.883	4702
833.022	4717
833.16	4752
833.299	4824
833.437	4805
833.576	4831
833.714	4812
833.852	4824
833.991	4839
834.129	4923
834.267	4896
834.406	4900
834.544	4957
834.682	4957
834.821	4911
834.959	5151
835.097	4980
835.235	5162
835.373	5124
835.511	5067
835.65	5033
835.788	5033
835.926	4904
836.064	4843
836.202	4927
836.34	5189
836.478	5178
836.615	5121
836.753	5155
836.891	5265
837.029	5197
837.167	5166
837.305	5136
837.443	5109
837.58	5117
837.718	5212
837.856	5121
837.993	5147
838.131	5220
838.269	5181
838.406	5204
838.544	5181
838.681	5018
838.819	5022
838.956	4892
839.094	4873
839.231	5014
839.369	5037
839.506	5421
839.643	5269
839.781	5075
839.918	4987
840.055	5064
840.193	5041
840.33	5136
840.467	5124
840.604	5162
840.742	5448
840.879	5048
841.016	5098
841.153	5140
841.29	5360
841.427	5357
841.564	5334
841.701	5353
841.838	5311
841.975	5231
842.112	5265
842.249	5113
842.385	5083
842.522	5322
842.659	5121
842.796	5075
842.933	5178
843.069	5185
843.206	5151
843.343	5292
843.479	5242
843.616	5242
843.752	4987
843.889	4972
844.025	5250
844.162	5033
844.298	5147
844.435	5048
844.571	4987
844.708	5178
844.844	5288
844.98	5299
845.117	5273
845.253	5128
845.389	5128
845.525	5128
845.661	5132
845.798	5071
845.934	5128
846.07	5022
846.206	5193
846.342	5292
846.478	5197
846.614	4995
846.75	5018
846.886	4904
847.022	5113
847.158	5003
847.294	5048
847.429	5060
847.565	5060
847.701	5288
847.837	4862
847.972	4809
848.108	4980
848.244	4976
848.379	4774
848.515	4755
848.65	4702
848.786	4736
848.921	4774
849.057	4881
849.192	4847
849.328	4786
849.463	4843
849.598	4801
849.734	4725
849.869	4729
850.004	4626
850.14	4637
850.275	4569
850.41	4538
850.545	4538
850.68	4615
850.815	4531
850.95	4630
851.085	4786
851.22	4752
851.355	4653
851.49	4584
851.625	4596
851.76	4637
851.895	4546
852.03	4478
852.165	4622
852.299	4721
852.434	4828
852.569	4725
852.703	4744
852.838	4839
852.973	4927
853.107	4881
853.242	4733
853.376	4717
853.511	4573
853.645	4584
853.78	4759
853.914	4675
854.048	4698
854.183	4679
854.317	4683
854.451	4854
854.585	4626
854.72	4634
854.854	4717
854.988	4607
855.122	4656
855.256	4538
855.39	4596
855.524	4774
855.658	4683
855.792	4641
855.926	4694
856.06	4744
856.194	4744
856.327	4649
856.461	4592
856.595	4573
856.729	4592
856.862	4664
856.996	4668
857.13	4717
857.263	4759
857.397	4797
857.53	4656
857.664	4702
857.797	4717
857.931	4759
858.064	4687
858.197	4721
858.331	4637
858.464	4584
858.597	4592
858.731	4622
858.864	4615
858.997	4573
859.13	4641
859.263	4656
859.396	4653
859.529	4542
859.662	4611
859.795	4516
859.928	4603
860.061	4778
860.194	4824
860.327	4561
860.46	4588
860.592	4698
860.725	4694
860.858	4729
860.99	4573
861.123	4512
861.256	4485
861.388	4565
861.521	5223
861.653	4478
861.786	4428
861.918	4447
862.05	4455
862.183	4516
862.315	4592
862.447	4634
862.58	4554
862.712	4424
862.844	4352
862.976	4462
863.108	4424
863.24	4847
863.372	4333
863.504	4356
863.636	4352
863.768	4523
863.9	4443
864.032	4367
864.164	4363
864.296	4436
864.428	4538
864.559	4577
864.691	4516
864.823	4561
864.954	4504
865.086	4489
865.217	4428
865.349	4379
865.48	4428
865.612	4516
865.743	4599
865.875	4462
866.006	4405
866.137	4451
866.269	4432
866.4	4459
866.531	4428
866.662	4409
866.793	4375
866.924	4363
867.055	4504
867.186	4478
867.317	4421
867.448	4443
867.579	4375
867.71	4398
867.841	4371
867.972	4443
868.103	4470
868.233	4421
868.364	4424
868.495	4440
868.625	4683
868.756	4744
868.886	4569
869.017	4580
869.147	4752
869.278	4759
869.408	4649
869.539	4634
869.669	4733
869.799	4653
869.929	4752
870.06	4717
870.19	4938
870.32	4866
870.45	4873
870.58	5029
870.71	5075
870.84	5045
870.97	4892
871.1	4881
871.23	5166
871.36	5064
871.489	4999
871.619	5048
871.749	5121
871.879	5094
872.008	5155
872.138	5064
872.267	4938
872.397	4782
872.526	4736
872.656	4725
872.785	4812
872.915	4957
873.044	5006
873.173	4957
873.303	4961
873.432	4968
873.561	4968
873.69	4930
873.819	4816
873.948	4858
874.077	4816
874.206	4759
874.335	4793
874.464	4923
874.593	5048
874.722	4972
874.851	5105
874.979	5064
875.108	5029
875.237	4847
875.365	4793
875.494	4892
875.623	4976
875.751	4805
875.88	4870
876.008	4991
876.136	5033
876.265	5185
876.393	5357
876.521	5280
876.65	5296
876.778	5128
876.906	5022
877.034	4991
877.162	5014
877.29	4965
877.418	5067
877.546	5067
877.674	5041
877.802	4987
877.93	5014
878.058	4938
878.185	4885
878.313	4976
878.441	4942
878.568	4778
878.696	4843
878.824	4942
878.951	5018
879.079	5136
879.206	5269
879.333	5060
879.461	4949
879.588	4987
879.715	5067
879.842	5223
879.97	4972
880.097	4793
880.224	4717
880.351	4778
880.478	4854
880.605	4805
880.732	4782
880.859	5048
880.986	4835
881.112	4896
881.239	4752
881.366	4634
881.493	4641
881.619	4558
881.746	4626
881.872	4649
881.999	4607
882.125	4710
882.252	4774
882.378	4809
882.505	4953
882.631	4824
882.757	4626
882.883	4683
883.01	4721
883.136	4603
883.262	4569
883.388	4649
883.514	4797
883.64	4828
883.766	4748
883.892	4649
884.018	4721
884.143	4839
884.269	5025
884.395	4672
884.52	4603
884.646	4607
884.772	4573
884.897	4558
885.023	4637
885.148	4782
885.274	4835
885.399	4729
885.524	4710
885.65	4672
885.775	4752
885.9	4698
886.025	4896
886.15	4782
886.275	4710
886.4	4668
886.525	4675
886.65	4702
886.775	4725
886.9	4923
887.025	5033
887.149	4752
887.274	4637
887.399	4546
887.523	4615
887.648	4615
887.773	4569
887.897	4793
888.021	4759
888.146	4672
888.27	4816
888.395	4881
888.519	4767
888.643	4812
888.767	4866
888.891	4672
889.015	4573
889.139	4641
889.263	4573
889.387	4717
889.511	4831
889.635	4786
889.759	4599
889.883	4618
890.006	4710
890.13	4820
890.254	4607
890.377	4656
890.501	4535
890.624	4470
890.748	4630
890.871	4470
890.995	4504
891.118	4375
891.241	4478
891.364	4550
891.488	4592
891.611	4474
891.734	4489
891.857	4573
891.98	4538
892.103	4664
892.226	4554
892.349	4500
892.471	4409
892.594	4550
892.717	4580
892.839	4527
892.962	4577
893.085	4622
893.207	4573
893.33	4462
893.452	4519
893.575	4660
893.697	4538
893.819	4847
893.941	4816
894.064	4721
894.186	4599
894.308	4565
894.43	4717
894.552	4801
894.674	4710
894.796	4519
894.918	4584
895.04	4546
895.161	4679
895.283	4607
895.405	4573
895.526	4618
895.648	4679
895.769	4668
895.891	4702
896.012	4721
896.134	4717
896.255	4656
896.376	4649
896.498	4611
896.619	4622
896.74	4580
896.861	4607
896.982	4930
897.103	5037
897.224	4850
897.345	4729
897.466	4603
897.587	4744
897.708	4858
897.828	4782
897.949	4653
898.07	4554
898.19	4588
898.311	4805
898.431	4660
898.552	4736
898.672	4774
898.792	4748
898.913	4748
899.033	4531
899.153	4489
899.273	4440
899.393	4481
899.513	4485
899.633	4554
899.753	4451
899.873	4504
899.993	4573
900.113	4512
900.232	4603
900.352	4500
900.472	4417
900.591	4428
900.711	4489
900.83	4417
900.95	4573
901.069	4645
901.189	4504
901.308	4295
901.427	4287
901.546	4360
901.665	4489
901.784	4493
901.904	4398
902.023	4276
902.141	4162
902.26	4166
902.379	4314
902.498	4253
902.617	4257
902.735	4371
902.854	4402
902.973	4341
903.091	4196
903.21	4234
903.328	4299
903.446	4230
903.565	4268
903.683	4383
903.801	4314
903.919	4413
904.038	4421
904.156	4344
904.274	4424
904.392	4413
904.51	4394
904.627	4459
904.745	4573
904.863	4599
904.981	4405
905.098	4272
905.216	4333
905.334	4402
905.451	4409
905.569	4447
905.686	4538
905.803	4538
905.921	4409
906.038	4531
906.155	4440
906.272	4386
906.389	4432
906.506	4363
906.623	4379
906.74	4386
906.857	4295
906.974	4356
907.091	4554
907.208	4618
907.324	4569
907.441	4500
907.557	4348
907.674	4356
907.79	4280
907.907	4383
908.023	4455
908.139	4474
908.256	4436
908.372	4489
908.488	4432
908.604	4325
908.72	4352
908.836	4367
908.952	4390
909.068	4462
909.184	4538
909.3	4500
909.415	4596
909.531	4573
909.647	4394
909.762	4341
909.878	4344
909.993	4462
910.108	4390
910.224	4394
910.339	4424
910.454	4409
910.57	4333
910.685	4325
910.8	4634
910.915	4592
911.03	4470
911.145	4329
911.259	4322
911.374	4310
911.489	4280
911.604	4306
911.718	4150
911.833	4207
911.947	4067
912.062	3960
912.176	4196
912.291	4249
912.405	4280
912.519	4447
912.633	4519
912.748	4341
912.862	4291
912.976	4219
913.09	4093
913.204	4124
913.318	4276
913.431	4394
913.545	4325
913.659	4421
913.772	4325
913.886	4238
914	4291
914.113	4352
914.226	4383
914.34	4371
914.453	4223
914.566	4440
914.68	4341
914.793	4299
914.906	4154
915.019	4116
915.132	4082
915.245	4192
915.358	4223
915.47	4185
915.583	4219
915.696	4223
915.809	4375
915.921	4379
916.034	4246
916.146	4272
916.259	4177
916.371	4363
916.483	4322
916.595	4295
916.708	4333
916.82	4306
916.932	4333
917.044	4295
917.156	4291
917.268	4181
917.38	4261
917.491	4276
917.603	4341
917.715	4440
917.826	4405
917.938	4341
918.049	4230
918.161	4413
918.272	4535
918.384	4538
918.495	4474
918.606	4291
918.717	4230
918.828	4333
918.939	4413
919.05	4265
919.161	4341
919.272	4169
919.383	4223
919.494	4386
919.604	4618
919.715	4455
919.826	4352
919.936	4348
920.047	4535
920.157	4504
920.267	4702
920.378	4485
920.488	4493
920.598	4744
920.708	4889
920.818	4698
920.928	4714
921.038	4927
921.148	4923
921.258	4634
921.368	4531
921.477	4478
921.587	4489
921.697	4348
921.806	4554
921.916	4428
922.025	4268
922.134	4261
922.244	4166
922.353	4299
922.462	4173
922.571	4120
922.68	3994
922.789	3934
922.898	4051
923.007	3998
923.116	4143
923.224	4074
923.333	4059
923.442	3998
923.55	3953
923.659	4036
923.767	4116
923.876	3979
923.984	4109
924.092	3945
924.201	4101
924.309	4082
924.417	4097
924.525	4051
924.633	4074
924.741	5029
924.849	3899
924.956	4078
925.064	3930
925.172	3911
925.279	3972
925.387	4071
925.494	4051
925.602	4196
925.709	4173
925.816	4048
925.924	4147
926.031	4230
926.138	4158
926.245	4154
926.352	4059
926.459	4249
926.566	4303
926.673	4158
926.779	4116
926.886	4097
926.993	3994
927.099	3949
927.206	3934
927.312	3945
927.419	4048
927.525	4074
927.631	4105
927.737	3956
927.843	3937
927.95	3842
928.056	3972
928.162	4010
928.267	4025
928.373	4649
928.479	4135
928.585	3831
928.69	4051
928.796	4063
928.901	3964
929.007	3819
929.112	3983
929.218	3956
929.323	3960
929.428	3964
929.533	4097
929.638	3899
929.743	3998
929.848	4051
929.953	3953
930.058	3930
930.163	3778
930.267	3816
930.372	3945
930.477	3785
930.581	4074
930.685	3911
930.79	3759
930.894	3907
930.998	3865
931.103	4036
931.207	3747
931.311	3679
931.415	3648
931.519	3496
931.623	3538
