Data from test_V78500241_478.txt Node
Date: Fri Mar 25 16:52:19 CST 2022
User: usil
Spectrometer: V785-0024
Trigger mode: 0
Integration Time (sec): 4.000000E-1
Scans to average: 1
Nonlinearity correction enabled: false
Boxcar width: 0
Storing dark spectrum: false
XAxis mode: Wavelengths
Number of Pixels in Spectrum: 1024
>>>>>Begin Spectral Data<<<<<
801.071	8016
801.214	8020
801.356	7852
801.499	7788
801.641	7856
801.783	7856
801.926	8081
802.068	8062
802.211	8084
802.353	8024
802.496	7890
802.638	7913
802.78	7932
802.923	7932
803.065	7860
803.208	7894
803.35	7917
803.492	8054
803.635	8069
803.777	7928
803.919	8187
804.061	8473
804.204	8111
804.346	8024
804.488	7959
804.63	8062
804.773	8012
804.915	8130
805.057	8317
805.199	8180
805.341	8130
805.483	8305
805.626	8191
805.768	8069
805.91	8172
806.052	8210
806.194	8119
806.336	8355
806.478	8096
806.62	8134
806.762	8111
806.904	8252
807.046	8469
807.188	8252
807.33	8263
807.472	8263
807.614	8157
807.756	8142
807.898	7974
808.04	7909
808.182	7940
808.324	7944
808.465	7913
808.607	8065
808.749	8157
808.891	8111
809.033	8267
809.174	8176
809.316	8054
809.458	8077
809.6	7955
809.741	8077
809.883	8126
810.025	8103
810.166	8096
810.308	8069
810.45	8031
810.591	7906
810.733	7822
810.875	7685
811.016	7514
811.158	7544
811.299	7723
811.441	7712
811.582	7723
811.724	7605
811.865	7571
812.007	7643
812.148	7639
812.29	7662
812.431	7772
812.573	7883
812.714	8005
812.855	8183
812.997	8267
813.138	8419
813.279	8240
813.421	8176
813.562	8054
813.703	7898
813.845	7845
813.986	7476
814.127	7400
814.268	7236
814.41	7232
814.551	7129
814.692	7247
814.833	7122
814.974	7137
815.115	7156
815.256	6977
815.397	6954
815.539	7023
815.68	6768
815.821	6863
815.962	6951
816.103	6894
816.244	6821
816.385	6677
816.526	6616
816.666	6509
816.807	6319
816.948	6422
817.089	6486
817.23	6433
817.371	6384
817.512	6334
817.653	6365
817.793	6361
817.934	6426
818.075	6475
818.216	6448
818.356	6410
818.497	6270
818.638	6175
818.778	6114
818.919	6144
819.06	6148
819.2	6353
819.341	6342
819.481	6357
819.622	6517
819.762	6700
819.903	6684
820.043	6673
820.184	6547
820.324	6528
820.465	6700
820.605	6681
820.746	6608
820.886	6555
821.026	6692
821.167	6703
821.307	6837
821.447	6810
821.588	6642
821.728	6559
821.868	6521
822.008	6331
822.149	6388
822.289	6395
822.429	6133
822.569	6072
822.709	6110
822.849	5923
822.99	5935
823.13	5931
823.27	5897
823.41	5760
823.55	5729
823.69	5783
823.83	5840
823.97	5726
824.11	5524
824.25	5551
824.389	5558
824.529	5608
824.669	5520
824.809	5627
824.949	5688
825.089	5619
825.228	5577
825.368	5402
825.508	5360
825.648	5398
825.787	5398
825.927	5383
826.067	5322
826.206	5299
826.346	5357
826.485	5425
826.625	5406
826.765	5570
826.904	5524
827.044	5242
827.183	5250
827.323	5189
827.462	5288
827.601	5231
827.741	5223
827.88	5235
828.02	5170
828.159	5189
828.298	5330
828.437	5383
828.577	5303
828.716	5505
828.855	5410
828.994	5181
829.134	5174
829.273	5223
829.412	5151
829.551	5132
829.69	5201
829.829	5280
829.968	5395
830.107	5261
830.246	5353
830.385	5170
830.524	5201
830.663	5094
830.802	4976
830.941	4915
831.08	4858
831.219	4961
831.357	5006
831.496	5231
831.635	4934
831.774	4854
831.913	4915
832.051	4793
832.19	4771
832.329	4854
832.467	4691
832.606	4615
832.744	4733
832.883	4748
833.022	4744
833.16	4824
833.299	4862
833.437	4862
833.576	4858
833.714	4892
833.852	4900
833.991	4900
834.129	4942
834.267	4965
834.406	4904
834.544	4984
834.682	4972
834.821	4984
834.959	5140
835.097	4934
835.235	5132
835.373	5052
835.511	5117
835.65	5041
835.788	5048
835.926	4927
836.064	4900
836.202	4915
836.34	5189
836.478	5250
836.615	5151
836.753	5250
836.891	5242
837.029	5239
837.167	5197
837.305	5181
837.443	5170
837.58	5155
837.718	5273
837.856	5216
837.993	5189
838.131	5227
838.269	5220
838.406	5239
838.544	5174
838.681	5045
838.819	5041
838.956	4900
839.094	4923
839.231	4919
839.369	5052
839.506	5372
839.643	5204
839.781	5041
839.918	5033
840.055	5121
840.193	5140
840.33	5083
840.467	5143
840.604	5204
840.742	5490
840.879	5079
841.016	5067
841.153	5140
841.29	5368
841.427	5349
841.564	5303
841.701	5353
841.838	5269
841.975	5235
842.112	5299
842.249	5181
842.385	5075
842.522	5372
842.659	5174
842.796	5132
842.933	5242
843.069	5181
843.206	5151
843.343	5334
843.479	5250
843.616	5280
843.752	5033
843.889	4976
844.025	5193
844.162	5075
844.298	5254
844.435	5056
844.571	5102
844.708	5174
844.844	5288
844.98	5383
845.117	5246
845.253	5170
845.389	5067
845.525	5151
845.661	5185
845.798	5037
845.934	5136
846.07	5071
846.206	5181
846.342	5292
846.478	5189
846.614	5037
846.75	5006
846.886	4934
847.022	5174
847.158	5045
847.294	5048
847.429	5090
847.565	5045
847.701	5337
847.837	4908
847.972	4839
848.108	4953
848.244	4911
848.379	4824
848.515	4736
848.65	4710
848.786	4752
848.921	4812
849.057	4873
849.192	4915
849.328	4812
849.463	4873
849.598	4831
849.734	4763
849.869	4698
850.004	4599
850.14	4694
850.275	4592
850.41	4527
850.545	4527
850.68	4622
850.815	4626
850.95	4637
851.085	4839
851.22	4778
851.355	4649
851.49	4626
851.625	4668
851.76	4668
851.895	4569
852.03	4531
852.165	4675
852.299	4706
852.434	4740
852.569	4736
852.703	4771
852.838	4839
852.973	4953
853.107	4957
853.242	4729
853.376	4653
853.511	4611
853.645	4637
853.78	4763
853.914	4744
854.048	4702
854.183	4618
854.317	4763
854.451	4870
854.585	4683
854.72	4645
854.854	4710
854.988	4645
855.122	4649
855.256	4542
855.39	4687
855.524	4831
855.658	4702
855.792	4710
855.926	4721
856.06	4790
856.194	4759
856.327	4683
856.461	4561
856.595	4615
856.729	4660
856.862	4736
856.996	4714
857.13	4812
857.263	4763
857.397	4786
857.53	4675
857.664	4721
857.797	4778
857.931	4801
858.064	4641
858.197	4744
858.331	4634
858.464	4615
858.597	4508
858.731	4618
858.864	4675
858.997	4569
859.13	4580
859.263	4675
859.396	4706
859.529	4584
859.662	4577
859.795	4523
859.928	4588
860.061	4809
860.194	4801
860.327	4637
860.46	4615
860.592	4706
860.725	4687
860.858	4702
860.99	4569
861.123	4516
861.256	4569
861.388	4672
861.521	5345
861.653	4512
861.786	4489
861.918	4512
862.05	4516
862.183	4523
862.315	4603
862.447	4675
862.58	4546
862.712	4424
862.844	4333
862.976	4519
863.108	4481
863.24	4862
863.372	4356
863.504	4405
863.636	4379
863.768	4447
863.9	4451
864.032	4352
864.164	4459
864.296	4455
864.428	4577
864.559	4561
864.691	4550
864.823	4546
864.954	4481
865.086	4542
865.217	4455
865.349	4413
865.48	4455
865.612	4478
865.743	4679
865.875	4481
866.006	4478
866.137	4478
866.269	4455
866.4	4455
866.531	4428
866.662	4417
866.793	4424
866.924	4459
867.055	4481
867.186	4470
867.317	4413
867.448	4379
867.579	4409
867.71	4375
867.841	4398
867.972	4459
868.103	4493
868.233	4470
868.364	4470
868.495	4489
868.625	4706
868.756	4782
868.886	4565
869.017	4645
869.147	4774
869.278	4786
869.408	4641
869.539	4649
869.669	4752
869.799	4672
869.929	4782
870.06	4759
870.19	4968
870.32	4904
870.45	4930
870.58	5014
870.71	5132
870.84	5079
870.97	4927
871.1	4862
871.23	5128
871.36	5143
871.489	5045
871.619	5056
871.749	5090
871.879	5143
872.008	5155
872.138	5045
872.267	4999
872.397	4854
872.526	4805
872.656	4752
872.785	4816
872.915	4919
873.044	5064
873.173	4957
873.303	4987
873.432	4953
873.561	4946
873.69	4911
873.819	4816
873.948	4934
874.077	4809
874.206	4729
874.335	4828
874.464	4911
874.593	5037
874.722	4946
874.851	5117
874.979	5056
875.108	5033
875.237	4953
875.365	4915
875.494	4858
875.623	4980
875.751	4820
875.88	4885
876.008	4976
876.136	5029
876.265	5201
876.393	5357
876.521	5231
876.65	5208
876.778	5204
876.906	5109
877.034	5022
877.162	5056
877.29	4980
877.418	5090
877.546	5052
877.674	5083
877.802	5056
877.93	5033
878.058	4984
878.185	4839
878.313	4934
878.441	5003
878.568	4809
878.696	4889
878.824	4904
878.951	5022
879.079	5166
879.206	5273
879.333	5124
879.461	4965
879.588	4999
879.715	5136
879.842	5212
879.97	4980
880.097	4771
880.224	4736
880.351	4854
880.478	4854
880.605	4782
880.732	4793
880.859	5147
880.986	4923
881.112	4934
881.239	4782
881.366	4668
881.493	4565
881.619	4615
881.746	4630
881.872	4687
881.999	4660
882.125	4698
882.252	4877
882.378	4828
882.505	4968
882.631	4801
882.757	4618
882.883	4706
883.01	4717
883.136	4668
883.262	4656
883.388	4603
883.514	4839
883.64	4862
883.766	4809
883.892	4702
884.018	4702
884.143	4961
884.269	5029
884.395	4733
884.52	4672
884.646	4634
884.772	4626
884.897	4523
885.023	4656
885.148	4797
885.274	4847
885.399	4809
885.524	4721
885.65	4721
885.775	4759
885.9	4706
886.025	4923
886.15	4763
886.275	4752
886.4	4611
886.525	4672
886.65	4717
886.775	4694
886.9	4919
887.025	4995
887.149	4824
887.274	4660
887.399	4584
887.523	4596
887.648	4550
887.773	4584
887.897	4733
888.021	4786
888.146	4641
888.27	4824
888.395	4919
888.519	4816
888.643	4786
888.767	4835
888.891	4771
889.015	4622
889.139	4641
889.263	4599
889.387	4805
889.511	4831
889.635	4809
889.759	4599
889.883	4679
890.006	4744
890.13	4835
890.254	4653
890.377	4702
890.501	4554
890.624	4527
890.748	4687
890.871	4462
890.995	4421
891.118	4451
891.241	4527
891.364	4519
891.488	4656
891.611	4485
891.734	4535
891.857	4645
891.98	4584
892.103	4641
892.226	4569
892.349	4554
892.471	4375
892.594	4558
892.717	4588
892.839	4577
892.962	4618
893.085	4618
893.207	4611
893.33	4470
893.452	4478
893.575	4691
893.697	4573
893.819	4786
893.941	4854
894.064	4816
894.186	4603
894.308	4584
894.43	4752
894.552	4820
894.674	4763
894.796	4550
894.918	4584
895.04	4554
895.161	4725
895.283	4710
895.405	4554
895.526	4592
895.648	4687
895.769	4710
895.891	4736
896.012	4729
896.134	4729
896.255	4603
896.376	4637
896.498	4656
896.619	4683
896.74	4599
896.861	4679
896.982	4889
897.103	5048
897.224	4828
897.345	4717
897.466	4687
897.587	4706
897.708	4881
897.828	4847
897.949	4672
898.07	4588
898.19	4656
898.311	4843
898.431	4672
898.552	4706
898.672	4797
898.792	4816
898.913	4744
899.033	4603
899.153	4497
899.273	4447
899.393	4470
899.513	4519
899.633	4531
899.753	4561
899.873	4523
899.993	4618
900.113	4550
900.232	4577
900.352	4588
900.472	4466
900.591	4424
900.711	4485
900.83	4470
900.95	4649
901.069	4660
901.189	4554
901.308	4386
901.427	4314
901.546	4383
901.665	4440
901.784	4542
901.904	4379
902.023	4314
902.141	4150
902.26	4128
902.379	4272
902.498	4261
902.617	4227
902.735	4402
902.854	4386
902.973	4375
903.091	4223
903.21	4181
903.328	4257
903.446	4181
903.565	4249
903.683	4341
903.801	4295
903.919	4398
904.038	4440
904.156	4310
904.274	4421
904.392	4424
904.51	4413
904.627	4523
904.745	4546
904.863	4588
904.981	4348
905.098	4306
905.216	4379
905.334	4436
905.451	4478
905.569	4459
905.686	4596
905.803	4569
905.921	4405
906.038	4523
906.155	4451
906.272	4394
906.389	4470
906.506	4371
906.623	4398
906.74	4348
906.857	4314
906.974	4383
907.091	4523
907.208	4691
907.324	4599
907.441	4500
907.557	4356
907.674	4352
907.79	4325
907.907	4379
908.023	4421
908.139	4466
908.256	4436
908.372	4516
908.488	4478
908.604	4352
908.72	4379
908.836	4383
908.952	4356
909.068	4432
909.184	4535
909.3	4519
909.415	4558
909.531	4554
909.647	4341
909.762	4333
909.878	4363
909.993	4451
910.108	4447
910.224	4424
910.339	4516
910.454	4421
910.57	4379
910.685	4322
910.8	4618
910.915	4584
911.03	4478
911.145	4314
911.259	4291
911.374	4344
911.489	4314
911.604	4284
911.718	4207
911.833	4185
911.947	4143
912.062	3979
912.176	4246
912.291	4223
912.405	4322
912.519	4485
912.633	4504
912.748	4402
912.862	4383
912.976	4238
913.09	4074
913.204	4192
913.318	4249
913.431	4402
913.545	4375
913.659	4474
913.772	4352
913.886	4265
914	4265
914.113	4398
914.226	4485
914.34	4386
914.453	4219
914.566	4424
914.68	4287
914.793	4356
914.906	4192
915.019	4116
915.132	4101
915.245	4196
915.358	4215
915.47	4280
915.583	4268
915.696	4299
915.809	4417
915.921	4455
916.034	4303
916.146	4284
916.259	4242
916.371	4367
916.483	4325
916.595	4257
916.708	4306
916.82	4276
916.932	4318
917.044	4325
917.156	4272
917.268	4265
917.38	4310
917.491	4291
917.603	4329
917.715	4386
917.826	4440
917.938	4333
918.049	4215
918.161	4402
918.272	4516
918.384	4523
918.495	4424
918.606	4280
918.717	4249
918.828	4322
918.939	4394
919.05	4284
919.161	4352
919.272	4105
919.383	4257
919.494	4470
919.604	4660
919.715	4405
919.826	4386
919.936	4398
920.047	4542
920.157	4508
920.267	4694
920.378	4527
920.488	4516
920.598	4763
920.708	4862
920.818	4805
920.928	4790
921.038	4976
921.148	4934
921.258	4645
921.368	4550
921.477	4550
921.587	4447
921.697	4367
921.806	4599
921.916	4462
922.025	4333
922.134	4268
922.244	4166
922.353	4322
922.462	4185
922.571	4128
922.68	3991
922.789	3949
922.898	4036
923.007	3987
923.116	4051
923.224	4074
923.333	4082
923.442	4029
923.55	3987
923.659	4029
923.767	4131
923.876	4013
923.984	4109
924.092	4006
924.201	4055
924.309	4101
924.417	4120
924.525	4029
924.633	4166
924.741	5090
924.849	3918
924.956	4109
925.064	3960
925.172	3915
925.279	3949
925.387	4086
925.494	4071
925.602	4166
925.709	4150
925.816	4063
925.924	4112
926.031	4230
926.138	4166
926.245	4253
926.352	4147
926.459	4261
926.566	4344
926.673	4192
926.779	4101
926.886	4116
926.993	3945
927.099	3937
927.206	3941
927.312	3930
927.419	4093
927.525	4032
927.631	4116
927.737	4006
927.843	3960
927.95	3896
928.056	3968
928.162	4006
928.267	4063
928.373	4702
928.479	4116
928.585	3903
928.69	4044
928.796	4086
928.901	4002
929.007	3873
929.112	4044
929.218	3991
929.323	3941
929.428	3994
929.533	4109
929.638	3918
929.743	4002
929.848	4128
929.953	4036
930.058	3896
930.163	3762
930.267	3846
930.372	3956
930.477	3808
930.581	4109
930.685	3926
930.79	3827
930.894	3819
930.998	3873
931.103	4055
931.207	3701
931.311	3686
931.415	3705
931.519	3545
931.623	3595
