Data from test_V78500241_2596.txt Node
Date: Fri Mar 25 17:07:03 CST 2022
User: usil
Spectrometer: V785-0024
Trigger mode: 0
Integration Time (sec): 4.000000E-1
Scans to average: 1
Nonlinearity correction enabled: false
Boxcar width: 0
Storing dark spectrum: false
XAxis mode: Wavelengths
Number of Pixels in Spectrum: 1024
>>>>>Begin Spectral Data<<<<<
801.071	7963
801.214	8024
801.356	7864
801.499	7814
801.641	7852
801.783	7784
801.926	7921
802.068	7883
802.211	7947
802.353	8031
802.496	7833
802.638	7955
802.78	7932
802.923	7940
803.065	7849
803.208	7830
803.35	7986
803.492	8092
803.635	8164
803.777	8039
803.919	8126
804.061	8419
804.204	8149
804.346	8016
804.488	7921
804.63	8073
804.773	8016
804.915	8138
805.057	8248
805.199	8157
805.341	8161
805.483	8336
805.626	8237
805.768	8073
805.91	8176
806.052	8221
806.194	8024
806.336	8298
806.478	8134
806.62	8058
806.762	8107
806.904	8259
807.046	8423
807.188	8339
807.33	8294
807.472	8282
807.614	8180
807.756	8168
807.898	7959
808.04	7932
808.182	7879
808.324	7887
808.465	7879
808.607	8145
808.749	8123
808.891	8210
809.033	8358
809.174	8161
809.316	8035
809.458	8031
809.6	8008
809.741	8065
809.883	8012
810.025	8115
810.166	8088
810.308	7974
810.45	8069
810.591	7856
810.733	7746
810.875	7689
811.016	7548
811.158	7445
811.299	7578
811.441	7746
811.582	7674
811.724	7620
811.865	7529
812.007	7571
812.148	7658
812.29	7575
812.431	7666
812.573	7887
812.714	7936
812.855	8191
812.997	8206
813.138	8233
813.279	8176
813.421	8176
813.562	7967
813.703	7864
813.845	7776
813.986	7464
814.127	7247
814.268	7251
814.41	7160
814.551	7168
814.692	7187
814.833	7118
814.974	7114
815.115	7114
815.256	6973
815.397	6966
815.539	6878
815.68	6810
815.821	6825
815.962	6928
816.103	6856
816.244	6795
816.385	6639
816.526	6654
816.666	6509
816.807	6331
816.948	6464
817.089	6441
817.23	6540
817.371	6380
817.512	6407
817.653	6391
817.793	6426
817.934	6437
818.075	6475
818.216	6483
818.356	6422
818.497	6224
818.638	6091
818.778	6239
818.919	6201
819.06	6133
819.2	6376
819.341	6384
819.481	6357
819.622	6616
819.762	6768
819.903	6703
820.043	6608
820.184	6525
820.324	6658
820.465	6745
820.605	6677
820.746	6681
820.886	6540
821.026	6658
821.167	6749
821.307	6806
821.447	6897
821.588	6734
821.728	6585
821.868	6532
822.008	6300
822.149	6399
822.289	6369
822.429	6144
822.569	6114
822.709	6167
822.849	5901
822.99	5904
823.13	5912
823.27	5954
823.41	5779
823.55	5783
823.69	5828
823.83	5786
823.97	5707
824.11	5486
824.25	5501
824.389	5516
824.529	5581
824.669	5524
824.809	5623
824.949	5627
825.089	5611
825.228	5528
825.368	5398
825.508	5299
825.648	5349
825.787	5398
825.927	5353
826.067	5273
826.206	5353
826.346	5368
826.485	5414
826.625	5406
826.765	5577
826.904	5474
827.044	5296
827.183	5162
827.323	5181
827.462	5250
827.601	5170
827.741	5189
827.88	5197
828.02	5064
828.159	5269
828.298	5341
828.437	5372
828.577	5307
828.716	5459
828.855	5292
828.994	5193
829.134	5166
829.273	5223
829.412	5105
829.551	5159
829.69	5117
829.829	5269
829.968	5383
830.107	5299
830.246	5307
830.385	5216
830.524	5208
830.663	5090
830.802	4999
830.941	4915
831.08	4927
831.219	4984
831.357	4991
831.496	5162
831.635	4961
831.774	4911
831.913	4870
832.051	4771
832.19	4763
832.329	4900
832.467	4721
832.606	4664
832.744	4752
832.883	4759
833.022	4782
833.16	4873
833.299	4889
833.437	4900
833.576	4900
833.714	4835
833.852	4908
833.991	4961
834.129	4995
834.267	4984
834.406	4911
834.544	5029
834.682	5014
834.821	4999
834.959	5212
835.097	5033
835.235	5181
835.373	5121
835.511	5136
835.65	5117
835.788	5064
835.926	4942
836.064	4934
836.202	4984
836.34	5208
836.478	5296
836.615	5204
836.753	5216
836.891	5337
837.029	5242
837.167	5227
837.305	5242
837.443	5204
837.58	5117
837.718	5280
837.856	5246
837.993	5212
838.131	5265
838.269	5254
838.406	5231
838.544	5231
838.681	5010
838.819	5025
838.956	4972
839.094	5014
839.231	5029
839.369	5098
839.506	5395
839.643	5315
839.781	5094
839.918	5033
840.055	5155
840.193	5151
840.33	5204
840.467	5155
840.604	5178
840.742	5524
840.879	5117
841.016	5124
841.153	5162
841.29	5414
841.427	5368
841.564	5402
841.701	5425
841.838	5318
841.975	5261
842.112	5326
842.249	5212
842.385	5155
842.522	5353
842.659	5273
842.796	5178
842.933	5235
843.069	5189
843.206	5189
843.343	5292
843.479	5239
843.616	5296
843.752	5124
843.889	5048
844.025	5235
844.162	5037
844.298	5242
844.435	5159
844.571	5102
844.708	5227
844.844	5341
844.98	5429
845.117	5360
845.253	5178
845.389	5124
845.525	5193
845.661	5178
845.798	5041
845.934	5159
846.07	5079
846.206	5162
846.342	5326
846.478	5242
846.614	5067
846.75	5037
846.886	4987
847.022	5143
847.158	5060
847.294	5094
847.429	5128
847.565	5105
847.701	5402
847.837	4923
847.972	4870
848.108	4991
848.244	4984
848.379	4843
848.515	4805
848.65	4782
848.786	4782
848.921	4820
849.057	4923
849.192	4927
849.328	4824
849.463	4862
849.598	4866
849.734	4816
849.869	4763
850.004	4660
850.14	4702
850.275	4656
850.41	4569
850.545	4622
850.68	4675
850.815	4660
850.95	4687
851.085	4839
851.22	4771
851.355	4721
851.49	4603
851.625	4694
851.76	4641
851.895	4596
852.03	4596
852.165	4664
852.299	4736
852.434	4831
852.569	4771
852.703	4778
852.838	4866
852.973	5010
853.107	4919
853.242	4771
853.376	4694
853.511	4546
853.645	4664
853.78	4824
853.914	4698
854.048	4733
854.183	4683
854.317	4755
854.451	4923
854.585	4660
854.72	4691
854.854	4767
854.988	4656
855.122	4679
855.256	4531
855.39	4710
855.524	4847
855.658	4759
855.792	4767
855.926	4755
856.06	4782
856.194	4839
856.327	4725
856.461	4626
856.595	4694
856.729	4630
856.862	4790
856.996	4752
857.13	4748
857.263	4759
857.397	4843
857.53	4675
857.664	4763
857.797	4812
857.931	4801
858.064	4702
858.197	4790
858.331	4706
858.464	4645
858.597	4561
858.731	4630
858.864	4683
858.997	4653
859.13	4679
859.263	4733
859.396	4740
859.529	4592
859.662	4599
859.795	4550
859.928	4622
860.061	4755
860.194	4790
860.327	4603
860.46	4584
860.592	4721
860.725	4702
860.858	4721
860.99	4580
861.123	4573
861.256	4531
861.388	4653
861.521	5444
861.653	4538
861.786	4516
861.918	4500
862.05	4554
862.183	4615
862.315	4645
862.447	4679
862.58	4615
862.712	4417
862.844	4363
862.976	4531
863.108	4527
863.24	4824
863.372	4333
863.504	4462
863.636	4470
863.768	4516
863.9	4436
864.032	4367
864.164	4409
864.296	4512
864.428	4596
864.559	4584
864.691	4603
864.823	4573
864.954	4558
865.086	4558
865.217	4462
865.349	4398
865.48	4493
865.612	4523
865.743	4687
865.875	4489
866.006	4462
866.137	4538
866.269	4436
866.4	4481
866.531	4436
866.662	4424
866.793	4455
866.924	4405
867.055	4584
867.186	4470
867.317	4478
867.448	4432
867.579	4428
867.71	4436
867.841	4405
867.972	4440
868.103	4455
868.233	4500
868.364	4455
868.495	4523
868.625	4664
868.756	4786
868.886	4565
869.017	4637
869.147	4790
869.278	4771
869.408	4675
869.539	4672
869.669	4744
869.799	4706
869.929	4816
870.06	4801
870.19	4961
870.32	4911
870.45	4938
870.58	5006
870.71	5090
870.84	5128
870.97	5003
871.1	4949
871.23	5117
871.36	5090
871.489	5102
871.619	5113
871.749	5128
871.879	5166
872.008	5166
872.138	5079
872.267	5045
872.397	4839
872.526	4828
872.656	4736
872.785	4782
872.915	4984
873.044	5083
873.173	4965
873.303	5025
873.432	4995
873.561	4968
873.69	4919
873.819	4911
873.948	4915
874.077	4854
874.206	4744
874.335	4816
874.464	4934
874.593	5056
874.722	4976
874.851	5189
874.979	5090
875.108	5067
875.237	4957
875.365	4908
875.494	4949
875.623	5056
875.751	4858
875.88	4942
876.008	4999
876.136	5098
876.265	5296
876.393	5364
876.521	5269
876.65	5269
876.778	5212
876.906	5098
877.034	5102
877.162	5025
877.29	5029
877.418	5102
877.546	5132
877.674	5128
877.802	5083
877.93	5052
878.058	4957
878.185	4885
878.313	4934
878.441	4987
878.568	4816
878.696	4915
878.824	4934
878.951	5045
879.079	5136
879.206	5318
879.333	5128
879.461	5006
879.588	5018
879.715	5098
879.842	5261
879.97	5006
880.097	4858
880.224	4767
880.351	4820
880.478	4877
880.605	4850
880.732	4831
880.859	5132
880.986	4934
881.112	4953
881.239	4824
881.366	4714
881.493	4637
881.619	4607
881.746	4653
881.872	4698
881.999	4702
882.125	4717
882.252	4771
882.378	4877
882.505	4953
882.631	4816
882.757	4672
882.883	4767
883.01	4793
883.136	4717
883.262	4558
883.388	4672
883.514	4870
883.64	4870
883.766	4797
883.892	4664
884.018	4714
884.143	4946
884.269	4980
884.395	4706
884.52	4645
884.646	4683
884.772	4573
884.897	4592
885.023	4698
885.148	4839
885.274	4900
885.399	4835
885.524	4755
885.65	4668
885.775	4816
885.9	4736
886.025	4896
886.15	4774
886.275	4679
886.4	4721
886.525	4763
886.65	4706
886.775	4740
886.9	4889
887.025	5060
887.149	4828
887.274	4656
887.399	4561
887.523	4599
887.648	4577
887.773	4630
887.897	4778
888.021	4812
888.146	4740
888.27	4892
888.395	4953
888.519	4805
888.643	4858
888.767	4835
888.891	4702
889.015	4653
889.139	4660
889.263	4634
889.387	4786
889.511	4812
889.635	4786
889.759	4664
889.883	4599
890.006	4740
890.13	4904
890.254	4637
890.377	4702
890.501	4577
890.624	4550
890.748	4679
890.871	4538
890.995	4519
891.118	4405
891.241	4508
891.364	4569
891.488	4626
891.611	4519
891.734	4538
891.857	4615
891.98	4580
892.103	4664
892.226	4615
892.349	4573
892.471	4470
892.594	4546
892.717	4645
892.839	4603
892.962	4592
893.085	4729
893.207	4599
893.33	4546
893.452	4504
893.575	4656
893.697	4622
893.819	4774
893.941	4805
894.064	4748
894.186	4592
894.308	4622
894.43	4717
894.552	4828
894.674	4801
894.796	4596
894.918	4622
895.04	4603
895.161	4733
895.283	4664
895.405	4634
895.526	4656
895.648	4714
895.769	4649
895.891	4736
896.012	4698
896.134	4740
896.255	4702
896.376	4649
896.498	4660
896.619	4702
896.74	4683
896.861	4649
896.982	4923
897.103	5117
897.224	4850
897.345	4771
897.466	4717
897.587	4698
897.708	4881
897.828	4835
897.949	4679
898.07	4554
898.19	4664
898.311	4839
898.431	4721
898.552	4725
898.672	4824
898.792	4805
898.913	4752
899.033	4672
899.153	4527
899.273	4405
899.393	4504
899.513	4554
899.633	4512
899.753	4561
899.873	4538
899.993	4637
900.113	4542
900.232	4542
900.352	4558
900.472	4481
900.591	4409
900.711	4538
900.83	4462
900.95	4634
901.069	4683
901.189	4546
901.308	4379
901.427	4287
901.546	4398
901.665	4447
901.784	4538
901.904	4436
902.023	4322
902.141	4181
902.26	4207
902.379	4344
902.498	4242
902.617	4284
902.735	4352
902.854	4424
902.973	4379
903.091	4207
903.21	4246
903.328	4348
903.446	4268
903.565	4223
903.683	4306
903.801	4295
903.919	4405
904.038	4405
904.156	4344
904.274	4474
904.392	4455
904.51	4455
904.627	4466
904.745	4618
904.863	4630
904.981	4405
905.098	4344
905.216	4379
905.334	4417
905.451	4493
905.569	4402
905.686	4485
905.803	4519
905.921	4443
906.038	4527
906.155	4478
906.272	4409
906.389	4470
906.506	4402
906.623	4375
906.74	4394
906.857	4306
906.974	4386
907.091	4599
907.208	4675
907.324	4672
907.441	4504
907.557	4363
907.674	4367
907.79	4352
907.907	4348
908.023	4489
908.139	4478
908.256	4386
908.372	4497
908.488	4451
908.604	4341
908.72	4287
908.836	4363
908.952	4348
909.068	4417
909.184	4588
909.3	4459
909.415	4577
909.531	4535
909.647	4329
909.762	4341
909.878	4379
909.993	4485
910.108	4402
910.224	4405
910.339	4558
910.454	4402
910.57	4337
910.685	4276
910.8	4664
910.915	4622
911.03	4527
911.145	4329
911.259	4295
911.374	4428
911.489	4265
911.604	4325
911.718	4181
911.833	4211
911.947	4105
912.062	4013
912.176	4200
912.291	4234
912.405	4284
912.519	4497
912.633	4554
912.748	4363
912.862	4253
912.976	4234
913.09	4101
913.204	4166
913.318	4257
913.431	4405
913.545	4413
913.659	4405
913.772	4367
913.886	4257
914	4234
914.113	4386
914.226	4447
914.34	4379
914.453	4230
914.566	4440
914.68	4318
914.793	4352
914.906	4192
915.019	4105
915.132	4074
915.245	4185
915.358	4196
915.47	4246
915.583	4276
915.696	4287
915.809	4455
915.921	4459
916.034	4253
916.146	4276
916.259	4219
916.371	4363
916.483	4367
916.595	4299
916.708	4325
916.82	4341
916.932	4360
917.044	4303
917.156	4371
917.268	4215
917.38	4276
917.491	4276
917.603	4276
917.715	4417
917.826	4440
917.938	4360
918.049	4211
918.161	4405
918.272	4523
918.384	4504
918.495	4455
918.606	4295
918.717	4238
918.828	4322
918.939	4367
919.05	4253
919.161	4329
919.272	4143
919.383	4230
919.494	4451
919.604	4554
919.715	4451
919.826	4344
919.936	4413
920.047	4542
920.157	4489
920.267	4717
920.378	4538
920.488	4531
920.598	4672
920.708	4900
920.818	4702
920.928	4831
921.038	4938
921.148	4911
921.258	4607
921.368	4527
921.477	4493
921.587	4516
921.697	4375
921.806	4550
921.916	4428
922.025	4268
922.134	4261
922.244	4261
922.353	4268
922.462	4154
922.571	4158
922.68	3987
922.789	4010
922.898	4063
923.007	3987
923.116	4120
923.224	4013
923.333	4086
923.442	3998
923.55	3994
923.659	4029
923.767	4071
923.876	4029
923.984	4112
924.092	4006
924.201	4086
924.309	4097
924.417	4105
924.525	4055
924.633	4105
924.741	5060
924.849	3911
924.956	4143
925.064	3941
925.172	3892
925.279	3960
925.387	4048
925.494	4059
925.602	4230
925.709	4200
925.816	4048
925.924	4124
926.031	4230
926.138	4169
926.245	4227
926.352	4078
926.459	4227
926.566	4295
926.673	4135
926.779	4124
926.886	4120
926.993	3994
927.099	3964
927.206	3918
927.312	3949
927.419	4025
927.525	4025
927.631	4147
927.737	3953
927.843	3945
927.95	3823
928.056	3975
928.162	3960
928.267	4055
928.373	4584
928.479	4135
928.585	3869
928.69	4025
928.796	4074
928.901	3922
929.007	3835
929.112	4010
929.218	4010
929.323	3968
929.428	3930
929.533	4101
929.638	3930
929.743	3945
929.848	4029
929.953	3994
930.058	3926
930.163	3785
930.267	3800
930.372	3987
930.477	3823
930.581	4120
930.685	3941
930.79	3835
930.894	3903
930.998	3850
931.103	4040
931.207	3682
931.311	3637
931.415	3701
931.519	3519
931.623	3580
