Data from test_V78500241_1345.txt Node
Date: Fri Mar 25 16:58:21 CST 2022
User: usil
Spectrometer: V785-0024
Trigger mode: 0
Integration Time (sec): 4.000000E-1
Scans to average: 1
Nonlinearity correction enabled: false
Boxcar width: 0
Storing dark spectrum: false
XAxis mode: Wavelengths
Number of Pixels in Spectrum: 1024
>>>>>Begin Spectral Data<<<<<
801.071	7947
801.214	7917
801.356	7833
801.499	7841
801.641	7803
801.783	7837
801.926	7997
802.068	7932
802.211	7944
802.353	7909
802.496	7788
802.638	7879
802.78	7947
802.923	7925
803.065	7890
803.208	7822
803.35	7932
803.492	8058
803.635	8149
803.777	8031
803.919	8096
804.061	8450
804.204	8187
804.346	8119
804.488	7955
804.63	8081
804.773	7967
804.915	8088
805.057	8263
805.199	8164
805.341	8259
805.483	8248
805.626	8183
805.768	8103
805.91	8256
806.052	8210
806.194	8107
806.336	8271
806.478	8043
806.62	8020
806.762	8187
806.904	8244
807.046	8507
807.188	8332
807.33	8343
807.472	8324
807.614	8138
807.756	8084
807.898	7986
808.04	7864
808.182	7875
808.324	7970
808.465	7909
808.607	8123
808.749	8134
808.891	8259
809.033	8294
809.174	8199
809.316	8058
809.458	8069
809.6	8012
809.741	7921
809.883	8054
810.025	8077
810.166	8054
810.308	8077
810.45	8046
810.591	7871
810.733	7734
810.875	7715
811.016	7506
811.158	7506
811.299	7601
811.441	7757
811.582	7674
811.724	7632
811.865	7548
812.007	7636
812.148	7624
812.29	7674
812.431	7670
812.573	7944
812.714	7887
812.855	8096
812.997	8180
813.138	8282
813.279	8218
813.421	8130
813.562	8008
813.703	7811
813.845	7792
813.986	7491
814.127	7270
814.268	7232
814.41	7206
814.551	7088
814.692	7160
814.833	7057
814.974	7141
815.115	7126
815.256	6920
815.397	6890
815.539	6954
815.68	6810
815.821	6837
815.962	6844
816.103	6772
816.244	6673
816.385	6627
816.526	6635
816.666	6498
816.807	6300
816.948	6395
817.089	6380
817.23	6445
817.371	6369
817.512	6384
817.653	6418
817.793	6346
817.934	6376
818.075	6441
818.216	6372
818.356	6391
818.497	6220
818.638	6095
818.778	6117
818.919	6140
819.06	6136
819.2	6285
819.341	6289
819.481	6342
819.622	6525
819.762	6738
819.903	6662
820.043	6574
820.184	6540
820.324	6566
820.465	6654
820.605	6692
820.746	6658
820.886	6452
821.026	6642
821.167	6635
821.307	6757
821.447	6814
821.588	6623
821.728	6494
821.868	6441
822.008	6315
822.149	6452
822.289	6376
822.429	6136
822.569	6079
822.709	6079
822.849	5870
822.99	5813
823.13	5893
823.27	5870
823.41	5813
823.55	5783
823.69	5779
823.83	5699
823.97	5676
824.11	5516
824.25	5509
824.389	5520
824.529	5585
824.669	5543
824.809	5668
824.949	5646
825.089	5638
825.228	5524
825.368	5364
825.508	5353
825.648	5326
825.787	5349
825.927	5383
826.067	5265
826.206	5261
826.346	5349
826.485	5406
826.625	5391
826.765	5520
826.904	5516
827.044	5227
827.183	5201
827.323	5140
827.462	5181
827.601	5185
827.741	5143
827.88	5201
828.02	5102
828.159	5239
828.298	5296
828.437	5345
828.577	5265
828.716	5516
828.855	5254
828.994	5197
829.134	5086
829.273	5189
829.412	5128
829.551	5140
829.69	5159
829.829	5265
829.968	5345
830.107	5273
830.246	5231
830.385	5147
830.524	5159
830.663	5083
830.802	4930
830.941	4881
831.08	4858
831.219	4953
831.357	4980
831.496	5105
831.635	4900
831.774	4812
831.913	4797
832.051	4691
832.19	4687
832.329	4831
832.467	4679
832.606	4634
832.744	4687
832.883	4729
833.022	4717
833.16	4812
833.299	4801
833.437	4824
833.576	4858
833.714	4862
833.852	4911
833.991	4889
834.129	4965
834.267	4881
834.406	4934
834.544	4976
834.682	4923
834.821	4938
834.959	5105
835.097	4961
835.235	5159
835.373	5033
835.511	5109
835.65	5048
835.788	5045
835.926	4896
836.064	4870
836.202	4930
836.34	5140
836.478	5189
836.615	5113
836.753	5197
836.891	5235
837.029	5239
837.167	5185
837.305	5124
837.443	5166
837.58	5071
837.718	5204
837.856	5151
837.993	5124
838.131	5197
838.269	5170
838.406	5178
838.544	5193
838.681	4976
838.819	5025
838.956	4881
839.094	4930
839.231	5003
839.369	5128
839.506	5398
839.643	5250
839.781	5067
839.918	4995
840.055	5033
840.193	5014
840.33	5128
840.467	5109
840.604	5204
840.742	5448
840.879	5083
841.016	5083
841.153	5128
841.29	5395
841.427	5299
841.564	5280
841.701	5334
841.838	5288
841.975	5185
842.112	5231
842.249	5124
842.385	5086
842.522	5334
842.659	5159
842.796	5121
842.933	5239
843.069	5102
843.206	5147
843.343	5292
843.479	5258
843.616	5227
843.752	5052
843.889	5006
844.025	5220
844.162	4991
844.298	5174
844.435	5109
844.571	5056
844.708	5178
844.844	5307
844.98	5322
845.117	5250
845.253	5147
845.389	5064
845.525	5143
845.661	5094
845.798	5060
845.934	5105
846.07	5067
846.206	5098
846.342	5216
846.478	5136
846.614	4987
846.75	4953
846.886	4919
847.022	5128
847.158	5014
847.294	5075
847.429	5060
847.565	5045
847.701	5311
847.837	4866
847.972	4793
848.108	4911
848.244	4919
848.379	4736
848.515	4691
848.65	4725
848.786	4748
848.921	4733
849.057	4896
849.192	4870
849.328	4816
849.463	4850
849.598	4786
849.734	4763
849.869	4645
850.004	4584
850.14	4714
850.275	4649
850.41	4523
850.545	4535
850.68	4580
850.815	4596
850.95	4580
851.085	4771
851.22	4679
851.355	4649
851.49	4634
851.625	4607
851.76	4656
851.895	4519
852.03	4561
852.165	4641
852.299	4706
852.434	4839
852.569	4729
852.703	4771
852.838	4824
852.973	4919
853.107	4892
853.242	4702
853.376	4653
853.511	4535
853.645	4611
853.78	4786
853.914	4679
854.048	4656
854.183	4561
854.317	4717
854.451	4790
854.585	4710
854.72	4664
854.854	4744
854.988	4603
855.122	4596
855.256	4478
855.39	4649
855.524	4782
855.658	4714
855.792	4668
855.926	4691
856.06	4748
856.194	4767
856.327	4641
856.461	4611
856.595	4596
856.729	4634
856.862	4767
856.996	4694
857.13	4710
857.263	4736
857.397	4805
857.53	4611
857.664	4698
857.797	4744
857.931	4782
858.064	4694
858.197	4763
858.331	4641
858.464	4584
858.597	4497
858.731	4596
858.864	4634
858.997	4607
859.13	4691
859.263	4672
859.396	4653
859.529	4546
859.662	4550
859.795	4489
859.928	4630
860.061	4778
860.194	4748
860.327	4607
860.46	4584
860.592	4656
860.725	4721
860.858	4748
860.99	4527
861.123	4493
861.256	4504
861.388	4599
861.521	5303
861.653	4432
861.786	4481
861.918	4436
862.05	4485
862.183	4470
862.315	4538
862.447	4615
862.58	4577
862.712	4379
862.844	4325
862.976	4474
863.108	4436
863.24	4892
863.372	4360
863.504	4405
863.636	4409
863.768	4466
863.9	4398
864.032	4356
864.164	4417
864.296	4500
864.428	4561
864.559	4519
864.691	4523
864.823	4485
864.954	4485
865.086	4497
865.217	4402
865.349	4413
865.48	4455
865.612	4455
865.743	4596
865.875	4443
866.006	4462
866.137	4455
866.269	4375
866.4	4402
866.531	4413
866.662	4383
866.793	4379
866.924	4402
867.055	4531
867.186	4447
867.317	4383
867.448	4356
867.579	4398
867.71	4398
867.841	4367
867.972	4504
868.103	4432
868.233	4417
868.364	4455
868.495	4466
868.625	4641
868.756	4717
868.886	4550
869.017	4603
869.147	4786
869.278	4793
869.408	4611
869.539	4618
869.669	4736
869.799	4660
869.929	4767
870.06	4698
870.19	4930
870.32	4915
870.45	4946
870.58	4972
870.71	5094
870.84	5151
870.97	4934
871.1	4908
871.23	5159
871.36	5102
871.489	5025
871.619	5060
871.749	5105
871.879	5132
872.008	5136
872.138	5029
872.267	4968
872.397	4839
872.526	4763
872.656	4710
872.785	4771
872.915	4946
873.044	4980
873.173	4946
873.303	4923
873.432	4965
873.561	4946
873.69	4892
873.819	4896
873.948	4908
874.077	4877
874.206	4740
874.335	4793
874.464	4885
874.593	5083
874.722	4965
874.851	5105
874.979	5083
875.108	4984
875.237	4904
875.365	4839
875.494	4896
875.623	4965
875.751	4816
875.88	4850
876.008	4976
876.136	4980
876.265	5178
876.393	5341
876.521	5258
876.65	5185
876.778	5151
876.906	5060
877.034	5025
877.162	5022
877.29	4991
877.418	5022
877.546	5025
877.674	4999
877.802	5025
877.93	4991
878.058	4900
878.185	4843
878.313	4949
878.441	4930
878.568	4763
878.696	4854
878.824	4980
878.951	5006
879.079	5105
879.206	5239
879.333	5079
879.461	4919
879.588	4999
879.715	5090
879.842	5201
879.97	4972
880.097	4778
880.224	4763
880.351	4759
880.478	4839
880.605	4801
880.732	4740
880.859	5121
880.986	4900
881.112	4866
881.239	4771
881.366	4706
881.493	4611
881.619	4550
881.746	4634
881.872	4615
881.999	4584
882.125	4675
882.252	4801
882.378	4831
882.505	4949
882.631	4763
882.757	4641
882.883	4675
883.01	4721
883.136	4641
883.262	4599
883.388	4596
883.514	4797
883.64	4873
883.766	4805
883.892	4679
884.018	4759
884.143	4870
884.269	5006
884.395	4649
884.52	4622
884.646	4668
884.772	4569
884.897	4558
885.023	4645
885.148	4816
885.274	4858
885.399	4782
885.524	4691
885.65	4687
885.775	4736
885.9	4714
886.025	4889
886.15	4736
886.275	4729
886.4	4634
886.525	4721
886.65	4694
886.775	4660
886.9	4889
887.025	4976
887.149	4744
887.274	4596
887.399	4592
887.523	4588
887.648	4565
887.773	4569
887.897	4702
888.021	4759
888.146	4645
888.27	4774
888.395	4915
888.519	4733
888.643	4774
888.767	4809
888.891	4679
889.015	4592
889.139	4675
889.263	4603
889.387	4752
889.511	4828
889.635	4767
889.759	4588
889.883	4687
890.006	4714
890.13	4858
890.254	4626
890.377	4702
890.501	4535
890.624	4508
890.748	4630
890.871	4497
890.995	4352
891.118	4405
891.241	4542
891.364	4519
891.488	4611
891.611	4421
891.734	4478
891.857	4573
891.98	4565
892.103	4599
892.226	4577
892.349	4531
892.471	4462
892.594	4512
892.717	4588
892.839	4550
892.962	4573
893.085	4675
893.207	4641
893.33	4440
893.452	4485
893.575	4683
893.697	4573
893.819	4805
893.941	4831
894.064	4740
894.186	4577
894.308	4577
894.43	4721
894.552	4820
894.674	4721
894.796	4554
894.918	4599
895.04	4554
895.161	4675
895.283	4668
895.405	4561
895.526	4630
895.648	4649
895.769	4691
895.891	4706
896.012	4733
896.134	4679
896.255	4683
896.376	4615
896.498	4580
896.619	4679
896.74	4634
896.861	4622
896.982	4953
897.103	5041
897.224	4812
897.345	4714
897.466	4653
897.587	4725
897.708	4866
897.828	4759
897.949	4679
898.07	4573
898.19	4634
898.311	4805
898.431	4622
898.552	4729
898.672	4812
898.792	4805
898.913	4714
899.033	4596
899.153	4489
899.273	4386
899.393	4489
899.513	4497
899.633	4462
899.753	4504
899.873	4531
899.993	4592
900.113	4523
900.232	4531
900.352	4516
900.472	4455
900.591	4421
900.711	4481
900.83	4402
900.95	4634
901.069	4710
901.189	4493
901.308	4379
901.427	4303
901.546	4398
901.665	4451
901.784	4516
901.904	4352
902.023	4337
902.141	4207
902.26	4166
902.379	4291
902.498	4253
902.617	4219
902.735	4375
902.854	4424
902.973	4299
903.091	4215
903.21	4188
903.328	4257
903.446	4265
903.565	4249
903.683	4360
903.801	4303
903.919	4367
904.038	4398
904.156	4325
904.274	4428
904.392	4371
904.51	4466
904.627	4478
904.745	4588
904.863	4626
904.981	4360
905.098	4325
905.216	4360
905.334	4527
905.451	4474
905.569	4413
905.686	4561
905.803	4565
905.921	4421
906.038	4519
906.155	4508
906.272	4379
906.389	4516
906.506	4371
906.623	4329
906.74	4352
906.857	4287
906.974	4344
907.091	4565
907.208	4626
907.324	4542
907.441	4493
907.557	4318
907.674	4383
907.79	4276
907.907	4394
908.023	4508
908.139	4432
908.256	4432
908.372	4443
908.488	4447
908.604	4318
908.72	4348
908.836	4360
908.952	4360
909.068	4413
909.184	4558
909.3	4485
909.415	4596
909.531	4569
909.647	4383
909.762	4363
909.878	4318
909.993	4417
910.108	4383
910.224	4398
910.339	4497
910.454	4394
910.57	4371
910.685	4303
910.8	4615
910.915	4618
911.03	4478
911.145	4344
911.259	4356
911.374	4360
911.489	4303
911.604	4291
911.718	4158
911.833	4188
911.947	4040
912.062	4059
912.176	4230
912.291	4234
912.405	4207
912.519	4440
912.633	4481
912.748	4375
912.862	4318
912.976	4234
913.09	4093
913.204	4188
913.318	4295
913.431	4371
913.545	4344
913.659	4428
913.772	4314
913.886	4238
914	4223
914.113	4390
914.226	4451
914.34	4390
914.453	4162
914.566	4421
914.68	4337
914.793	4344
914.906	4158
915.019	4143
915.132	4093
915.245	4181
915.358	4196
915.47	4227
915.583	4284
915.696	4287
915.809	4371
915.921	4398
916.034	4230
916.146	4268
916.259	4227
916.371	4390
916.483	4375
916.595	4257
916.708	4333
916.82	4303
916.932	4287
917.044	4284
917.156	4318
917.268	4238
917.38	4246
917.491	4314
917.603	4261
917.715	4409
917.826	4405
917.938	4314
918.049	4211
918.161	4379
918.272	4546
918.384	4504
918.495	4443
918.606	4287
918.717	4242
918.828	4341
918.939	4348
919.05	4253
919.161	4318
919.272	4143
919.383	4192
919.494	4402
919.604	4599
919.715	4402
919.826	4284
919.936	4363
920.047	4519
920.157	4493
920.267	4675
920.378	4527
920.488	4493
920.598	4702
920.708	4858
920.818	4725
920.928	4763
921.038	4919
921.148	4915
921.258	4649
921.368	4573
921.477	4493
921.587	4485
921.697	4356
921.806	4546
921.916	4451
922.025	4287
922.134	4257
922.244	4204
922.353	4322
922.462	4173
922.571	4143
922.68	4006
922.789	3998
922.898	4010
923.007	4036
923.116	4071
923.224	4074
923.333	4071
923.442	3956
923.55	3953
923.659	4006
923.767	4093
923.876	3991
923.984	4097
924.092	4006
924.201	4059
924.309	4097
924.417	4143
924.525	4055
924.633	4124
924.741	4968
924.849	3888
924.956	4097
925.064	3903
925.172	3861
925.279	3930
925.387	4032
925.494	4013
925.602	4173
925.709	4150
925.816	4071
925.924	4166
926.031	4207
926.138	4162
926.245	4173
926.352	4071
926.459	4261
926.566	4344
926.673	4154
926.779	4055
926.886	4032
926.993	3941
927.099	3907
927.206	3937
927.312	3979
927.419	4101
927.525	4010
927.631	4067
927.737	3937
927.843	3949
927.95	3850
928.056	3949
928.162	4017
928.267	4010
928.373	4672
928.479	4128
928.585	3880
928.69	4025
928.796	4040
928.901	3975
929.007	3835
929.112	4013
929.218	3960
929.323	3911
929.428	3941
929.533	4105
929.638	3876
929.743	3964
929.848	3994
929.953	3968
930.058	3941
930.163	3709
930.267	3819
930.372	3975
930.477	3759
930.581	4067
930.685	3983
930.79	3781
930.894	3850
930.998	3831
931.103	4036
931.207	3717
931.311	3709
931.415	3667
931.519	3507
931.623	3557
