Data from test_V78500241_1140.txt Node
Date: Fri Mar 25 16:56:55 CST 2022
User: usil
Spectrometer: V785-0024
Trigger mode: 0
Integration Time (sec): 4.000000E-1
Scans to average: 1
Nonlinearity correction enabled: false
Boxcar width: 0
Storing dark spectrum: false
XAxis mode: Wavelengths
Number of Pixels in Spectrum: 1024
>>>>>Begin Spectral Data<<<<<
801.071	8005
801.214	8012
801.356	7852
801.499	7845
801.641	7784
801.783	7795
801.926	7917
802.068	7940
802.211	7955
802.353	7986
802.496	7818
802.638	7814
802.78	7887
802.923	7898
803.065	7871
803.208	7837
803.35	7909
803.492	8043
803.635	8164
803.777	7978
803.919	8103
804.061	8457
804.204	8126
804.346	8039
804.488	8054
804.63	8130
804.773	7997
804.915	8058
805.057	8244
805.199	8195
805.341	8259
805.483	8275
805.626	8145
805.768	8115
805.91	8149
806.052	8157
806.194	8077
806.336	8267
806.478	8008
806.62	8123
806.762	8081
806.904	8248
807.046	8484
807.188	8317
807.33	8248
807.472	8366
807.614	8073
807.756	8111
807.898	7967
808.04	7947
808.182	7932
808.324	7871
808.465	7818
808.607	8084
808.749	8096
808.891	8195
809.033	8195
809.174	8157
809.316	8012
809.458	7951
809.6	7947
809.741	8027
809.883	8012
810.025	8039
810.166	8020
810.308	8020
810.45	8027
810.591	7852
810.733	7704
810.875	7658
811.016	7499
811.158	7476
811.299	7594
811.441	7753
811.582	7723
811.724	7571
811.865	7476
812.007	7556
812.148	7578
812.29	7578
812.431	7780
812.573	7902
812.714	7970
812.855	8115
812.997	8237
813.138	8286
813.279	8126
813.421	8111
813.562	7955
813.703	7826
813.845	7715
813.986	7438
814.127	7289
814.268	7187
814.41	7202
814.551	7164
814.692	7152
814.833	7012
814.974	7050
815.115	7118
815.256	6985
815.397	6894
815.539	6932
815.68	6772
815.821	6753
815.962	6871
816.103	6806
816.244	6692
816.385	6608
816.526	6585
816.666	6525
816.807	6304
816.948	6395
817.089	6403
817.23	6475
817.371	6365
817.512	6338
817.653	6372
817.793	6342
817.934	6388
818.075	6467
818.216	6422
818.356	6395
818.497	6197
818.638	6140
818.778	6121
818.919	6148
819.06	6106
819.2	6292
819.341	6300
819.481	6350
819.622	6502
819.762	6779
819.903	6707
820.043	6574
820.184	6574
820.324	6475
820.465	6631
820.605	6642
820.746	6620
820.886	6498
821.026	6631
821.167	6631
821.307	6806
821.447	6700
821.588	6692
821.728	6521
821.868	6483
822.008	6281
822.149	6391
822.289	6327
822.429	6155
822.569	6106
822.709	6083
822.849	5946
822.99	5870
823.13	5912
823.27	5923
823.41	5786
823.55	5745
823.69	5745
823.83	5824
823.97	5638
824.11	5532
824.25	5482
824.389	5535
824.529	5554
824.669	5471
824.809	5657
824.949	5729
825.089	5570
825.228	5520
825.368	5379
825.508	5318
825.648	5330
825.787	5299
825.927	5341
826.067	5261
826.206	5265
826.346	5414
826.485	5398
826.625	5383
826.765	5505
826.904	5463
827.044	5223
827.183	5159
827.323	5113
827.462	5174
827.601	5140
827.741	5201
827.88	5170
828.02	5124
828.159	5220
828.298	5242
828.437	5315
828.577	5326
828.716	5429
828.855	5299
828.994	5166
829.134	5121
829.273	5166
829.412	5128
829.551	5105
829.69	5086
829.829	5280
829.968	5307
830.107	5212
830.246	5227
830.385	5143
830.524	5140
830.663	5010
830.802	4961
830.941	4927
831.08	4854
831.219	4934
831.357	4957
831.496	5109
831.635	4908
831.774	4850
831.913	4862
832.051	4675
832.19	4683
832.329	4782
832.467	4744
832.606	4603
832.744	4717
832.883	4660
833.022	4714
833.16	4755
833.299	4824
833.437	4828
833.576	4812
833.714	4850
833.852	4824
833.991	4889
834.129	4927
834.267	4953
834.406	4858
834.544	4881
834.682	4938
834.821	4938
834.959	5155
835.097	5006
835.235	5086
835.373	5045
835.511	5090
835.65	4995
835.788	5075
835.926	4854
836.064	4866
836.202	4911
836.34	5174
836.478	5254
836.615	5143
836.753	5189
836.891	5265
837.029	5269
837.167	5204
837.305	5102
837.443	5147
837.58	5064
837.718	5242
837.856	5155
837.993	5128
838.131	5220
838.269	5193
838.406	5227
838.544	5197
838.681	5045
838.819	5045
838.956	4881
839.094	4858
839.231	4942
839.369	5064
839.506	5452
839.643	5216
839.781	5006
839.918	4980
840.055	5052
840.193	5052
840.33	5037
840.467	5121
840.604	5181
840.742	5357
840.879	5052
841.016	5075
841.153	5136
841.29	5376
841.427	5322
841.564	5292
841.701	5337
841.838	5208
841.975	5223
842.112	5231
842.249	5105
842.385	5109
842.522	5334
842.659	5185
842.796	5117
842.933	5181
843.069	5113
843.206	5174
843.343	5254
843.479	5166
843.616	5197
843.752	5033
843.889	5006
844.025	5166
844.162	4984
844.298	5185
844.435	5117
844.571	5094
844.708	5181
844.844	5246
844.98	5326
845.117	5265
845.253	5162
845.389	5094
845.525	5113
845.661	5117
845.798	4984
845.934	5193
846.07	5010
846.206	5181
846.342	5269
846.478	5174
846.614	4961
846.75	5010
846.886	4908
847.022	5113
847.158	5014
847.294	5045
847.429	5121
847.565	5033
847.701	5239
847.837	4866
847.972	4771
848.108	4930
848.244	4911
848.379	4721
848.515	4733
848.65	4675
848.786	4710
848.921	4744
849.057	4854
849.192	4892
849.328	4778
849.463	4805
849.598	4767
849.734	4672
849.869	4656
850.004	4660
850.14	4637
850.275	4577
850.41	4489
850.545	4599
850.68	4615
850.815	4580
850.95	4656
851.085	4831
851.22	4736
851.355	4672
851.49	4622
851.625	4607
851.76	4622
851.895	4558
852.03	4478
852.165	4615
852.299	4660
852.434	4759
852.569	4698
852.703	4763
852.838	4790
852.973	4900
853.107	4885
853.242	4691
853.376	4660
853.511	4542
853.645	4622
853.78	4778
853.914	4679
854.048	4622
854.183	4645
854.317	4706
854.451	4816
854.585	4630
854.72	4588
854.854	4729
854.988	4588
855.122	4607
855.256	4497
855.39	4637
855.524	4748
855.658	4729
855.792	4698
855.926	4702
856.06	4752
856.194	4752
856.327	4668
856.461	4622
856.595	4660
856.729	4622
856.862	4733
856.996	4710
857.13	4782
857.263	4729
857.397	4805
857.53	4618
857.664	4698
857.797	4729
857.931	4748
858.064	4653
858.197	4733
858.331	4611
858.464	4588
858.597	4508
858.731	4603
858.864	4580
858.997	4603
859.13	4634
859.263	4683
859.396	4687
859.529	4569
859.662	4577
859.795	4481
859.928	4622
860.061	4717
860.194	4748
860.327	4596
860.46	4603
860.592	4694
860.725	4733
860.858	4660
860.99	4615
861.123	4542
861.256	4542
861.388	4569
861.521	5353
861.653	4481
861.786	4421
861.918	4474
862.05	4535
862.183	4561
862.315	4569
862.447	4618
862.58	4516
862.712	4367
862.844	4318
862.976	4478
863.108	4421
863.24	4820
863.372	4352
863.504	4402
863.636	4383
863.768	4493
863.9	4424
864.032	4352
864.164	4417
864.296	4474
864.428	4558
864.559	4500
864.691	4508
864.823	4500
864.954	4478
865.086	4535
865.217	4451
865.349	4383
865.48	4493
865.612	4440
865.743	4573
865.875	4474
866.006	4402
866.137	4459
866.269	4428
866.4	4440
866.531	4417
866.662	4367
866.793	4367
866.924	4436
867.055	4519
867.186	4398
867.317	4413
867.448	4371
867.579	4428
867.71	4386
867.841	4356
867.972	4436
868.103	4428
868.233	4432
868.364	4447
868.495	4413
868.625	4615
868.756	4694
868.886	4538
869.017	4618
869.147	4740
869.278	4729
869.408	4645
869.539	4649
869.669	4717
869.799	4592
869.929	4778
870.06	4717
870.19	4904
870.32	4923
870.45	4957
870.58	4965
870.71	5064
870.84	5090
870.97	4942
871.1	4885
871.23	5113
871.36	5052
871.489	5022
871.619	5079
871.749	5094
871.879	5132
872.008	5174
872.138	5056
872.267	4987
872.397	4824
872.526	4771
872.656	4679
872.785	4782
872.915	4984
873.044	5018
873.173	4930
873.303	4965
873.432	4946
873.561	4949
873.69	4854
873.819	4866
873.948	4908
874.077	4809
874.206	4721
874.335	4778
874.464	4927
874.593	5067
874.722	4927
874.851	5094
874.979	5075
875.108	5025
875.237	4915
875.365	4835
875.494	4862
875.623	4919
875.751	4793
875.88	4862
876.008	5014
876.136	5018
876.265	5170
876.393	5307
876.521	5239
876.65	5216
876.778	5159
876.906	5056
877.034	5010
877.162	5025
877.29	4991
877.418	5048
877.546	5060
877.674	5006
877.802	5006
877.93	5010
878.058	4923
878.185	4854
878.313	4923
878.441	4976
878.568	4774
878.696	4877
878.824	4961
878.951	4957
879.079	5102
879.206	5299
879.333	5105
879.461	4957
879.588	4965
879.715	5105
879.842	5254
879.97	5014
880.097	4786
880.224	4710
880.351	4752
880.478	4790
880.605	4793
880.732	4782
880.859	5052
880.986	4873
881.112	4976
881.239	4778
881.366	4637
881.493	4607
881.619	4569
881.746	4630
881.872	4637
881.999	4618
882.125	4675
882.252	4759
882.378	4805
882.505	4938
882.631	4797
882.757	4683
882.883	4668
883.01	4755
883.136	4660
883.262	4634
883.388	4611
883.514	4786
883.64	4847
883.766	4729
883.892	4622
884.018	4679
884.143	4915
884.269	4934
884.395	4668
884.52	4626
884.646	4596
884.772	4580
884.897	4527
885.023	4664
885.148	4782
885.274	4847
885.399	4793
885.524	4683
885.65	4706
885.775	4736
885.9	4668
886.025	4812
886.15	4801
886.275	4725
886.4	4599
886.525	4717
886.65	4668
886.775	4637
886.9	4881
887.025	4995
887.149	4816
887.274	4664
887.399	4603
887.523	4611
887.648	4573
887.773	4607
887.897	4733
888.021	4767
888.146	4672
888.27	4797
888.395	4866
888.519	4786
888.643	4797
888.767	4820
888.891	4618
889.015	4584
889.139	4615
889.263	4603
889.387	4763
889.511	4843
889.635	4801
889.759	4645
889.883	4641
890.006	4706
890.13	4805
890.254	4599
890.377	4645
890.501	4546
890.624	4497
890.748	4634
890.871	4470
890.995	4432
891.118	4367
891.241	4527
891.364	4542
891.488	4630
891.611	4478
891.734	4512
891.857	4584
891.98	4538
892.103	4634
892.226	4508
892.349	4497
892.471	4440
892.594	4516
892.717	4558
892.839	4542
892.962	4611
893.085	4622
893.207	4580
893.33	4421
893.452	4523
893.575	4626
893.697	4577
893.819	4774
893.941	4862
894.064	4721
894.186	4634
894.308	4588
894.43	4736
894.552	4801
894.674	4740
894.796	4527
894.918	4565
895.04	4565
895.161	4744
895.283	4626
895.405	4523
895.526	4649
895.648	4672
895.769	4702
895.891	4755
896.012	4694
896.134	4664
896.255	4664
896.376	4641
896.498	4630
896.619	4649
896.74	4592
896.861	4569
896.982	4911
897.103	5071
897.224	4793
897.345	4752
897.466	4668
897.587	4733
897.708	4805
897.828	4748
897.949	4672
898.07	4527
898.19	4596
898.311	4778
898.431	4668
898.552	4736
898.672	4801
898.792	4752
898.913	4782
899.033	4577
899.153	4527
899.273	4394
899.393	4478
899.513	4470
899.633	4481
899.753	4527
899.873	4493
899.993	4577
900.113	4531
900.232	4538
900.352	4527
900.472	4462
900.591	4333
900.711	4466
900.83	4409
900.95	4554
901.069	4672
901.189	4481
901.308	4367
901.427	4306
901.546	4325
901.665	4447
901.784	4493
901.904	4367
902.023	4310
902.141	4173
902.26	4147
902.379	4265
902.498	4246
902.617	4227
902.735	4383
902.854	4413
902.973	4360
903.091	4192
903.21	4188
903.328	4306
903.446	4230
903.565	4249
903.683	4344
903.801	4272
903.919	4424
904.038	4409
904.156	4318
904.274	4398
904.392	4413
904.51	4440
904.627	4474
904.745	4592
904.863	4569
904.981	4375
905.098	4280
905.216	4363
905.334	4417
905.451	4436
905.569	4481
905.686	4573
905.803	4558
905.921	4413
906.038	4508
906.155	4504
906.272	4424
906.389	4455
906.506	4356
906.623	4333
906.74	4344
906.857	4322
906.974	4352
907.091	4599
907.208	4672
907.324	4569
907.441	4523
907.557	4306
907.674	4310
907.79	4276
907.907	4363
908.023	4470
908.139	4474
908.256	4459
908.372	4443
908.488	4478
908.604	4352
908.72	4352
908.836	4356
908.952	4322
909.068	4417
909.184	4527
909.3	4405
909.415	4615
909.531	4519
909.647	4367
909.762	4394
909.878	4363
909.993	4428
910.108	4413
910.224	4379
910.339	4481
910.454	4371
910.57	4363
910.685	4303
910.8	4618
910.915	4554
911.03	4512
911.145	4314
911.259	4261
911.374	4333
911.489	4318
911.604	4249
911.718	4131
911.833	4181
911.947	4109
912.062	3953
912.176	4131
912.291	4211
912.405	4234
912.519	4440
912.633	4466
912.748	4329
912.862	4306
912.976	4181
913.09	4131
913.204	4143
913.318	4215
913.431	4337
913.545	4344
913.659	4440
913.772	4356
913.886	4265
914	4173
914.113	4360
914.226	4436
914.34	4352
914.453	4185
914.566	4383
914.68	4295
914.793	4318
914.906	4150
915.019	4074
915.132	4063
915.245	4177
915.358	4177
915.47	4181
915.583	4242
915.696	4230
915.809	4371
915.921	4402
916.034	4227
916.146	4234
916.259	4192
916.371	4306
916.483	4383
916.595	4234
916.708	4318
916.82	4295
916.932	4333
917.044	4291
917.156	4287
917.268	4215
917.38	4227
917.491	4261
917.603	4318
917.715	4394
917.826	4417
917.938	4325
918.049	4234
918.161	4379
918.272	4493
918.384	4512
918.495	4417
918.606	4249
918.717	4249
918.828	4318
918.939	4405
919.05	4230
919.161	4333
919.272	4112
919.383	4215
919.494	4417
919.604	4660
919.715	4428
919.826	4371
919.936	4440
920.047	4504
920.157	4443
920.267	4660
920.378	4554
920.488	4478
920.598	4710
920.708	4885
920.818	4759
920.928	4790
921.038	4953
921.148	4953
921.258	4626
921.368	4565
921.477	4508
921.587	4424
921.697	4409
921.806	4565
921.916	4462
922.025	4325
922.134	4295
922.244	4291
922.353	4383
922.462	4223
922.571	4162
922.68	4048
922.789	3998
922.898	4086
923.007	4048
923.116	4128
923.224	4071
923.333	4101
923.442	3991
923.55	3983
923.659	4059
923.767	4131
923.876	4063
923.984	4166
924.092	4017
924.201	4120
924.309	4112
924.417	4150
924.525	4063
924.633	4162
924.741	5132
924.849	3922
924.956	4150
925.064	3972
925.172	3922
925.279	4048
925.387	4105
925.494	4093
925.602	4272
925.709	4185
925.816	4105
925.924	4116
926.031	4253
926.138	4185
926.245	4287
926.352	4147
926.459	4299
926.566	4348
926.673	4204
926.779	4147
926.886	4097
926.993	4010
927.099	3968
927.206	3956
927.312	3983
927.419	4097
927.525	4040
927.631	4154
927.737	3975
927.843	3983
927.95	3876
928.056	3998
928.162	3983
928.267	4120
928.373	4721
928.479	4150
928.585	3896
928.69	4044
928.796	4086
928.901	4032
929.007	3880
929.112	4067
929.218	3998
929.323	3945
929.428	4013
929.533	4120
929.638	3960
929.743	3949
929.848	4071
929.953	4029
930.058	4002
930.163	3838
930.267	3880
930.372	4032
930.477	3838
930.581	4055
930.685	3911
930.79	3873
930.894	3922
930.998	3876
931.103	4074
931.207	3720
931.311	3701
931.415	3682
931.519	3576
931.623	3519
