Data from test_V78500241_1653.txt Node
Date: Fri Mar 25 17:00:29 CST 2022
User: usil
Spectrometer: V785-0024
Trigger mode: 0
Integration Time (sec): 4.000000E-1
Scans to average: 1
Nonlinearity correction enabled: false
Boxcar width: 0
Storing dark spectrum: false
XAxis mode: Wavelengths
Number of Pixels in Spectrum: 1024
>>>>>Begin Spectral Data<<<<<
801.071	8081
801.214	8046
801.356	7890
801.499	7868
801.641	7826
801.783	7871
801.926	8016
802.068	7951
802.211	8077
802.353	7986
802.496	7936
802.638	7822
802.78	8001
802.923	7951
803.065	7898
803.208	7894
803.35	7955
803.492	8107
803.635	8199
803.777	8065
803.919	8164
804.061	8385
804.204	8138
804.346	8100
804.488	7970
804.63	8107
804.773	8054
804.915	8172
805.057	8271
805.199	8199
805.341	8218
805.483	8320
805.626	8229
805.768	8111
805.91	8275
806.052	8256
806.194	8130
806.336	8305
806.478	8088
806.62	8081
806.762	8206
806.904	8347
807.046	8484
807.188	8469
807.33	8301
807.472	8358
807.614	8282
807.756	8119
807.898	7982
808.04	7928
808.182	7898
808.324	7902
808.465	7944
808.607	8084
808.749	8180
808.891	8267
809.033	8343
809.174	8206
809.316	8096
809.458	8130
809.6	7982
809.741	8054
809.883	8062
810.025	8142
810.166	8107
810.308	8054
810.45	7963
810.591	7864
810.733	7734
810.875	7696
811.016	7586
811.158	7472
811.299	7571
811.441	7685
811.582	7670
811.724	7594
811.865	7529
812.007	7548
812.148	7616
812.29	7613
812.431	7803
812.573	7970
812.714	7963
812.855	8145
812.997	8221
813.138	8347
813.279	8282
813.421	8115
813.562	7967
813.703	7868
813.845	7799
813.986	7419
814.127	7278
814.268	7251
814.41	7175
814.551	7179
814.692	7308
814.833	7179
814.974	7137
815.115	7198
815.256	7061
815.397	6932
815.539	6985
815.68	6878
815.821	6779
815.962	6867
816.103	6798
816.244	6741
816.385	6639
816.526	6650
816.666	6471
816.807	6285
816.948	6429
817.089	6456
817.23	6509
817.371	6384
817.512	6376
817.653	6410
817.793	6414
817.934	6448
818.075	6532
818.216	6471
818.356	6410
818.497	6266
818.638	6163
818.778	6182
818.919	6197
819.06	6194
819.2	6300
819.341	6353
819.481	6380
819.622	6555
819.762	6783
819.903	6753
820.043	6665
820.184	6582
820.324	6608
820.465	6772
820.605	6757
820.746	6684
820.886	6612
821.026	6673
821.167	6654
821.307	6810
821.447	6829
821.588	6623
821.728	6612
821.868	6589
822.008	6327
822.149	6372
822.289	6372
822.429	6136
822.569	6125
822.709	6140
822.849	5950
822.99	5942
823.13	5908
823.27	5897
823.41	5786
823.55	5847
823.69	5745
823.83	5760
823.97	5695
824.11	5535
824.25	5566
824.389	5581
824.529	5646
824.669	5562
824.809	5649
824.949	5745
825.089	5600
825.228	5562
825.368	5330
825.508	5360
825.648	5398
825.787	5349
825.927	5379
826.067	5311
826.206	5364
826.346	5379
826.485	5421
826.625	5395
826.765	5604
826.904	5440
827.044	5220
827.183	5250
827.323	5121
827.462	5261
827.601	5212
827.741	5197
827.88	5284
828.02	5098
828.159	5265
828.298	5303
828.437	5353
828.577	5326
828.716	5512
828.855	5311
828.994	5147
829.134	5155
829.273	5250
829.412	5193
829.551	5128
829.69	5254
829.829	5246
829.968	5368
830.107	5280
830.246	5250
830.385	5212
830.524	5204
830.663	5041
830.802	5003
830.941	4892
831.08	4930
831.219	4968
831.357	4942
831.496	5201
831.635	4991
831.774	4896
831.913	4866
832.051	4797
832.19	4725
832.329	4896
832.467	4698
832.606	4637
832.744	4710
832.883	4736
833.022	4691
833.16	4816
833.299	4923
833.437	4877
833.576	4839
833.714	4911
833.852	4908
833.991	4892
834.129	4980
834.267	4904
834.406	4915
834.544	5045
834.682	5033
834.821	5003
834.959	5178
835.097	4991
835.235	5128
835.373	5067
835.511	5060
835.65	5003
835.788	5003
835.926	4976
836.064	4896
836.202	4938
836.34	5178
836.478	5193
836.615	5136
836.753	5216
836.891	5326
837.029	5284
837.167	5132
837.305	5170
837.443	5185
837.58	5067
837.718	5277
837.856	5197
837.993	5170
838.131	5242
838.269	5212
838.406	5280
838.544	5208
838.681	5056
838.819	5025
838.956	4877
839.094	4957
839.231	5014
839.369	5124
839.506	5436
839.643	5258
839.781	5075
839.918	5048
840.055	5117
840.193	5060
840.33	5067
840.467	5178
840.604	5185
840.742	5463
840.879	5090
841.016	5124
841.153	5170
841.29	5376
841.427	5330
841.564	5280
841.701	5360
841.838	5299
841.975	5326
842.112	5288
842.249	5181
842.385	5132
842.522	5326
842.659	5174
842.796	5178
842.933	5235
843.069	5140
843.206	5212
843.343	5307
843.479	5258
843.616	5269
843.752	5006
843.889	4995
844.025	5185
844.162	5025
844.298	5231
844.435	5083
844.571	5075
844.708	5212
844.844	5322
844.98	5376
845.117	5349
845.253	5128
845.389	5056
845.525	5201
845.661	5136
845.798	5056
845.934	5170
846.07	5071
846.206	5212
846.342	5307
846.478	5204
846.614	5064
846.75	4930
846.886	4957
847.022	5151
847.158	5025
847.294	5067
847.429	5170
847.565	5025
847.701	5318
847.837	4873
847.972	4877
848.108	4938
848.244	4976
848.379	4809
848.515	4759
848.65	4790
848.786	4771
848.921	4797
849.057	4885
849.192	4885
849.328	4809
849.463	4858
849.598	4805
849.734	4767
849.869	4656
850.004	4637
850.14	4691
850.275	4615
850.41	4538
850.545	4565
850.68	4622
850.815	4664
850.95	4649
851.085	4892
851.22	4748
851.355	4714
851.49	4656
851.625	4656
851.76	4603
851.895	4554
852.03	4554
852.165	4649
852.299	4698
852.434	4847
852.569	4714
852.703	4774
852.838	4854
852.973	4923
853.107	4919
853.242	4767
853.376	4702
853.511	4561
853.645	4626
853.78	4831
853.914	4714
854.048	4645
854.183	4660
854.317	4725
854.451	4801
854.585	4706
854.72	4683
854.854	4752
854.988	4588
855.122	4630
855.256	4558
855.39	4664
855.524	4771
855.658	4748
855.792	4683
855.926	4740
856.06	4759
856.194	4847
856.327	4672
856.461	4687
856.595	4580
856.729	4615
856.862	4816
856.996	4691
857.13	4778
857.263	4755
857.397	4824
857.53	4630
857.664	4744
857.797	4771
857.931	4828
858.064	4717
858.197	4755
858.331	4626
858.464	4603
858.597	4550
858.731	4637
858.864	4694
858.997	4630
859.13	4668
859.263	4675
859.396	4736
859.529	4615
859.662	4554
859.795	4558
859.928	4653
860.061	4755
860.194	4771
860.327	4618
860.46	4599
860.592	4725
860.725	4736
860.858	4691
860.99	4569
861.123	4538
861.256	4527
861.388	4603
861.521	5223
861.653	4516
861.786	4451
861.918	4421
862.05	4561
862.183	4497
862.315	4634
862.447	4607
862.58	4565
862.712	4371
862.844	4348
862.976	4531
863.108	4466
863.24	4793
863.372	4287
863.504	4447
863.636	4424
863.768	4474
863.9	4455
864.032	4383
864.164	4436
864.296	4478
864.428	4531
864.559	4561
864.691	4554
864.823	4527
864.954	4535
865.086	4523
865.217	4485
865.349	4413
865.48	4493
865.612	4508
865.743	4664
865.875	4459
866.006	4459
866.137	4466
866.269	4470
866.4	4462
866.531	4394
866.662	4421
866.793	4443
866.924	4428
867.055	4512
867.186	4428
867.317	4428
867.448	4390
867.579	4383
867.71	4398
867.841	4409
867.972	4466
868.103	4535
868.233	4474
868.364	4455
868.495	4474
868.625	4626
868.756	4778
868.886	4519
869.017	4626
869.147	4797
869.278	4835
869.408	4679
869.539	4672
869.669	4702
869.799	4630
869.929	4771
870.06	4725
870.19	4908
870.32	4949
870.45	4904
870.58	5003
870.71	5090
870.84	5071
870.97	4972
871.1	4919
871.23	5132
871.36	5113
871.489	5033
871.619	5086
871.749	5117
871.879	5090
872.008	5170
872.138	5033
872.267	4911
872.397	4828
872.526	4812
872.656	4679
872.785	4805
872.915	4942
873.044	5018
873.173	4904
873.303	4953
873.432	4938
873.561	4965
873.69	4824
873.819	4858
873.948	4885
874.077	4786
874.206	4771
874.335	4809
874.464	4953
874.593	5083
874.722	5010
874.851	5140
874.979	5105
875.108	5033
875.237	4953
875.365	4870
875.494	4885
875.623	4976
875.751	4854
875.88	4911
876.008	4999
876.136	4995
876.265	5265
876.393	5345
876.521	5220
876.65	5212
876.778	5212
876.906	5075
877.034	5022
877.162	5048
877.29	5041
877.418	5102
877.546	5029
877.674	5060
877.802	5029
877.93	5098
878.058	4889
878.185	4873
878.313	4968
878.441	4980
878.568	4790
878.696	4847
878.824	5003
878.951	4980
879.079	5162
879.206	5280
879.333	5079
879.461	4961
879.588	5033
879.715	5132
879.842	5254
879.97	4984
880.097	4759
880.224	4721
880.351	4774
880.478	4870
880.605	4790
880.732	4752
880.859	5086
880.986	4866
881.112	4904
881.239	4755
881.366	4649
881.493	4641
881.619	4569
881.746	4618
881.872	4645
881.999	4675
882.125	4687
882.252	4744
882.378	4793
882.505	4923
882.631	4835
882.757	4679
882.883	4778
883.01	4748
883.136	4672
883.262	4573
883.388	4649
883.514	4862
883.64	4835
883.766	4755
883.892	4618
884.018	4679
884.143	4870
884.269	4984
884.395	4687
884.52	4649
884.646	4656
884.772	4577
884.897	4523
885.023	4622
885.148	4835
885.274	4854
885.399	4805
885.524	4714
885.65	4698
885.775	4774
885.9	4702
886.025	4850
886.15	4793
886.275	4706
886.4	4634
886.525	4710
886.65	4691
886.775	4717
886.9	4889
887.025	5045
887.149	4790
887.274	4634
887.399	4546
887.523	4580
887.648	4519
887.773	4569
887.897	4748
888.021	4763
888.146	4679
888.27	4839
888.395	4862
888.519	4801
888.643	4790
888.767	4816
888.891	4675
889.015	4584
889.139	4637
889.263	4645
889.387	4771
889.511	4908
889.635	4763
889.759	4641
889.883	4672
890.006	4733
890.13	4835
890.254	4645
890.377	4694
890.501	4554
890.624	4466
890.748	4607
890.871	4497
890.995	4428
891.118	4379
891.241	4493
891.364	4474
891.488	4649
891.611	4508
891.734	4519
891.857	4603
891.98	4577
892.103	4634
892.226	4630
892.349	4508
892.471	4409
892.594	4535
892.717	4599
892.839	4577
892.962	4592
893.085	4656
893.207	4653
893.33	4470
893.452	4580
893.575	4645
893.697	4599
893.819	4797
893.941	4816
894.064	4786
894.186	4554
894.308	4554
894.43	4736
894.552	4782
894.674	4774
894.796	4527
894.918	4584
895.04	4584
895.161	4660
895.283	4630
895.405	4626
895.526	4626
895.648	4694
895.769	4668
895.891	4702
896.012	4748
896.134	4748
896.255	4679
896.376	4641
896.498	4611
896.619	4649
896.74	4569
896.861	4649
896.982	4923
897.103	5075
897.224	4774
897.345	4748
897.466	4691
897.587	4710
897.708	4847
897.828	4828
897.949	4626
898.07	4584
898.19	4622
898.311	4816
898.431	4687
898.552	4656
898.672	4809
898.792	4740
898.913	4710
899.033	4653
899.153	4481
899.273	4356
899.393	4481
899.513	4523
899.633	4497
899.753	4504
899.873	4497
899.993	4588
900.113	4523
900.232	4603
900.352	4497
900.472	4443
900.591	4402
900.711	4504
900.83	4432
900.95	4573
901.069	4660
901.189	4519
901.308	4371
901.427	4379
901.546	4394
901.665	4478
901.784	4516
901.904	4390
902.023	4352
902.141	4166
902.26	4211
902.379	4329
902.498	4242
902.617	4242
902.735	4325
902.854	4409
902.973	4379
903.091	4204
903.21	4211
903.328	4287
903.446	4246
903.565	4257
903.683	4318
903.801	4314
903.919	4398
904.038	4440
904.156	4310
904.274	4405
904.392	4409
904.51	4436
904.627	4455
904.745	4561
904.863	4618
904.981	4386
905.098	4306
905.216	4417
905.334	4451
905.451	4497
905.569	4447
905.686	4542
905.803	4611
905.921	4402
906.038	4523
906.155	4504
906.272	4421
906.389	4497
906.506	4375
906.623	4325
906.74	4360
906.857	4306
906.974	4363
907.091	4569
907.208	4649
907.324	4588
907.441	4497
907.557	4344
907.674	4352
907.79	4325
907.907	4413
908.023	4440
908.139	4470
908.256	4466
908.372	4519
908.488	4462
908.604	4333
908.72	4318
908.836	4333
908.952	4386
909.068	4405
909.184	4561
909.3	4485
909.415	4580
909.531	4565
909.647	4329
909.762	4379
909.878	4310
909.993	4398
910.108	4417
910.224	4432
910.339	4500
910.454	4409
910.57	4322
910.685	4314
910.8	4599
910.915	4630
911.03	4519
911.145	4322
911.259	4329
911.374	4344
911.489	4333
911.604	4246
911.718	4188
911.833	4219
911.947	4071
912.062	3975
912.176	4219
912.291	4192
912.405	4276
912.519	4485
912.633	4508
912.748	4348
912.862	4337
912.976	4207
913.09	4150
913.204	4158
913.318	4230
913.431	4375
913.545	4409
913.659	4421
913.772	4383
913.886	4211
914	4211
914.113	4402
914.226	4413
914.34	4356
914.453	4234
914.566	4409
914.68	4322
914.793	4356
914.906	4162
915.019	4086
915.132	4093
915.245	4204
915.358	4200
915.47	4227
915.583	4284
915.696	4253
915.809	4402
915.921	4402
916.034	4272
916.146	4219
916.259	4211
916.371	4394
916.483	4379
916.595	4265
916.708	4287
916.82	4257
916.932	4284
917.044	4318
917.156	4363
917.268	4234
917.38	4261
917.491	4242
917.603	4352
917.715	4367
917.826	4451
917.938	4318
918.049	4265
918.161	4390
918.272	4508
918.384	4512
918.495	4421
918.606	4280
918.717	4238
918.828	4337
918.939	4337
919.05	4246
919.161	4306
919.272	4105
919.383	4261
919.494	4443
919.604	4599
919.715	4447
919.826	4367
919.936	4371
920.047	4478
920.157	4478
920.267	4752
920.378	4519
920.488	4474
920.598	4706
920.708	4896
920.818	4778
920.928	4759
921.038	4961
921.148	4923
921.258	4596
921.368	4512
921.477	4519
921.587	4470
921.697	4318
921.806	4558
921.916	4405
922.025	4284
922.134	4272
922.244	4192
922.353	4303
922.462	4147
922.571	4143
922.68	4010
922.789	4002
922.898	4036
923.007	4010
923.116	4055
923.224	4071
923.333	4109
923.442	3956
923.55	3964
923.659	3991
923.767	4109
923.876	4025
923.984	4124
924.092	3994
924.201	4101
924.309	4082
924.417	4105
924.525	4048
924.633	4124
924.741	4877
924.849	3880
924.956	4166
925.064	3953
925.172	3953
925.279	3922
925.387	4021
925.494	4074
925.602	4253
925.709	4139
925.816	4010
925.924	4078
926.031	4185
926.138	4181
926.245	4234
926.352	4135
926.459	4261
926.566	4322
926.673	4120
926.779	4059
926.886	4078
926.993	3949
927.099	4010
927.206	3934
927.312	3960
927.419	4086
927.525	4021
927.631	4059
927.737	3949
927.843	3945
927.95	3816
928.056	3964
928.162	3979
928.267	4055
928.373	4573
928.479	4139
928.585	3888
928.69	3991
928.796	4105
928.901	3991
929.007	3846
929.112	3972
929.218	3945
929.323	3937
929.428	3918
929.533	4105
929.638	3869
929.743	3930
929.848	3991
929.953	3972
930.058	3945
930.163	3793
930.267	3861
930.372	3960
930.477	3808
930.581	4040
930.685	3922
930.79	3835
930.894	3869
930.998	3827
931.103	4032
931.207	3736
931.311	3694
931.415	3667
931.519	3526
931.623	3526
