Data from test_V78500241_1169.txt Node
Date: Fri Mar 25 16:57:07 CST 2022
User: usil
Spectrometer: V785-0024
Trigger mode: 0
Integration Time (sec): 4.000000E-1
Scans to average: 1
Nonlinearity correction enabled: false
Boxcar width: 0
Storing dark spectrum: false
XAxis mode: Wavelengths
Number of Pixels in Spectrum: 1024
>>>>>Begin Spectral Data<<<<<
801.071	8043
801.214	8027
801.356	7925
801.499	7750
801.641	7776
801.783	7788
801.926	7955
802.068	7883
802.211	7887
802.353	7963
802.496	7833
802.638	7898
802.78	7856
802.923	7898
803.065	7871
803.208	7879
803.35	7967
803.492	8096
803.635	8062
803.777	8020
803.919	8107
804.061	8434
804.204	8130
804.346	8100
804.488	7982
804.63	8130
804.773	7974
804.915	8123
805.057	8317
805.199	8187
805.341	8244
805.483	8256
805.626	8206
805.768	8115
805.91	8176
806.052	8168
806.194	8111
806.336	8240
806.478	8050
806.62	8077
806.762	8126
806.904	8259
807.046	8457
807.188	8343
807.33	8244
807.472	8305
807.614	8077
807.756	8103
807.898	7982
808.04	7830
808.182	7841
808.324	7830
808.465	7890
808.607	8092
808.749	8145
808.891	8172
809.033	8221
809.174	8221
809.316	8065
809.458	8081
809.6	7932
809.741	8012
809.883	7967
810.025	8092
810.166	8050
810.308	8020
810.45	7932
810.591	7883
810.733	7727
810.875	7609
811.016	7510
811.158	7449
811.299	7609
811.441	7704
811.582	7674
811.724	7525
811.865	7464
812.007	7571
812.148	7628
812.29	7601
812.431	7727
812.573	7894
812.714	8012
812.855	8142
812.997	8145
813.138	8271
813.279	8164
813.421	8027
813.562	8020
813.703	7921
813.845	7746
813.986	7464
814.127	7255
814.268	7244
814.41	7179
814.551	7050
814.692	7194
814.833	7053
814.974	7122
815.115	7107
815.256	6935
815.397	6951
815.539	6973
815.68	6783
815.821	6776
815.962	6837
816.103	6905
816.244	6711
816.385	6688
816.526	6593
816.666	6464
816.807	6235
816.948	6407
817.089	6502
817.23	6460
817.371	6380
817.512	6441
817.653	6395
817.793	6319
817.934	6414
818.075	6418
818.216	6388
818.356	6357
818.497	6262
818.638	6087
818.778	6098
818.919	6083
819.06	6167
819.2	6357
819.341	6346
819.481	6407
819.622	6494
819.762	6764
819.903	6684
820.043	6612
820.184	6555
820.324	6551
820.465	6734
820.605	6608
820.746	6597
820.886	6479
821.026	6654
821.167	6707
821.307	6791
821.447	6730
821.588	6601
821.728	6540
821.868	6433
822.008	6304
822.149	6357
822.289	6311
822.429	6114
822.569	6041
822.709	6072
822.849	5916
822.99	5935
823.13	5965
823.27	5874
823.41	5794
823.55	5786
823.69	5771
823.83	5783
823.97	5623
824.11	5512
824.25	5516
824.389	5532
824.529	5581
824.669	5497
824.809	5634
824.949	5684
825.089	5577
825.228	5558
825.368	5299
825.508	5364
825.648	5292
825.787	5387
825.927	5292
826.067	5296
826.206	5322
826.346	5357
826.485	5372
826.625	5425
826.765	5501
826.904	5402
827.044	5250
827.183	5174
827.323	5151
827.462	5197
827.601	5170
827.741	5201
827.88	5250
828.02	5136
828.159	5250
828.298	5307
828.437	5326
828.577	5330
828.716	5471
828.855	5353
828.994	5174
829.134	5178
829.273	5185
829.412	5174
829.551	5143
829.69	5201
829.829	5231
829.968	5406
830.107	5299
830.246	5288
830.385	5140
830.524	5105
830.663	5098
830.802	4938
830.941	4885
831.08	4881
831.219	4987
831.357	4965
831.496	5143
831.635	4968
831.774	4858
831.913	4866
832.051	4782
832.19	4809
832.329	4862
832.467	4786
832.606	4672
832.744	4702
832.883	4774
833.022	4755
833.16	4790
833.299	4889
833.437	4835
833.576	4835
833.714	4889
833.852	4896
833.991	4949
834.129	4972
834.267	4980
834.406	4999
834.544	5037
834.682	5048
834.821	5022
834.959	5204
835.097	5022
835.235	5162
835.373	5143
835.511	5185
835.65	5052
835.788	5067
835.926	4908
836.064	4911
836.202	4957
836.34	5223
836.478	5292
836.615	5162
836.753	5223
836.891	5296
837.029	5216
837.167	5254
837.305	5201
837.443	5220
837.58	5121
837.718	5284
837.856	5254
837.993	5212
838.131	5299
838.269	5201
838.406	5265
838.544	5273
838.681	5140
838.819	4999
838.956	4968
839.094	4934
839.231	5022
839.369	5090
839.506	5452
839.643	5258
839.781	5079
839.918	5086
840.055	5151
840.193	5109
840.33	5124
840.467	5201
840.604	5193
840.742	5482
840.879	5086
841.016	5147
841.153	5189
841.29	5391
841.427	5311
841.564	5353
841.701	5357
841.838	5322
841.975	5261
842.112	5299
842.249	5162
842.385	5083
842.522	5372
842.659	5174
842.796	5162
842.933	5254
843.069	5140
843.206	5162
843.343	5307
843.479	5296
843.616	5337
843.752	5025
843.889	5037
844.025	5231
844.162	5029
844.298	5258
844.435	5086
844.571	5056
844.708	5216
844.844	5322
844.98	5337
845.117	5307
845.253	5178
845.389	5140
845.525	5166
845.661	5162
845.798	5064
845.934	5170
846.07	5060
846.206	5201
846.342	5307
846.478	5162
846.614	5006
846.75	5014
846.886	4999
847.022	5174
847.158	5067
847.294	5124
847.429	5094
847.565	5136
847.701	5364
847.837	4904
847.972	4816
848.108	4968
848.244	5003
848.379	4797
848.515	4782
848.65	4763
848.786	4782
848.921	4771
849.057	4900
849.192	4938
849.328	4839
849.463	4885
849.598	4824
849.734	4774
849.869	4740
850.004	4630
850.14	4706
850.275	4622
850.41	4584
850.545	4615
850.68	4649
850.815	4660
850.95	4611
851.085	4896
851.22	4752
851.355	4698
851.49	4687
851.625	4634
851.76	4691
851.895	4542
852.03	4561
852.165	4637
852.299	4778
852.434	4793
852.569	4786
852.703	4790
852.838	4896
852.973	4927
853.107	4980
853.242	4694
853.376	4660
853.511	4599
853.645	4615
853.78	4805
853.914	4645
854.048	4710
854.183	4656
854.317	4725
854.451	4889
854.585	4729
854.72	4664
854.854	4835
854.988	4649
855.122	4641
855.256	4580
855.39	4668
855.524	4790
855.658	4733
855.792	4725
855.926	4759
856.06	4778
856.194	4850
856.327	4717
856.461	4656
856.595	4637
856.729	4656
856.862	4774
856.996	4714
857.13	4755
857.263	4786
857.397	4828
857.53	4679
857.664	4759
857.797	4820
857.931	4793
858.064	4729
858.197	4736
858.331	4706
858.464	4630
858.597	4546
858.731	4672
858.864	4694
858.997	4672
859.13	4653
859.263	4679
859.396	4694
859.529	4645
859.662	4577
859.795	4550
859.928	4656
860.061	4809
860.194	4774
860.327	4672
860.46	4596
860.592	4733
860.725	4748
860.858	4763
860.99	4596
861.123	4527
861.256	4497
861.388	4660
861.521	5296
861.653	4527
861.786	4424
861.918	4546
862.05	4508
862.183	4531
862.315	4615
862.447	4660
862.58	4565
862.712	4432
862.844	4322
862.976	4440
863.108	4493
863.24	4911
863.372	4367
863.504	4428
863.636	4489
863.768	4485
863.9	4451
864.032	4352
864.164	4424
864.296	4500
864.428	4531
864.559	4641
864.691	4550
864.823	4573
864.954	4478
865.086	4554
865.217	4489
865.349	4394
865.48	4459
865.612	4523
865.743	4615
865.875	4470
866.006	4459
866.137	4500
866.269	4402
866.4	4466
866.531	4421
866.662	4394
866.793	4440
866.924	4466
867.055	4481
867.186	4504
867.317	4424
867.448	4424
867.579	4405
867.71	4417
867.841	4333
867.972	4447
868.103	4485
868.233	4493
868.364	4466
868.495	4508
868.625	4675
868.756	4759
868.886	4573
869.017	4622
869.147	4782
869.278	4744
869.408	4702
869.539	4672
869.669	4668
869.799	4649
869.929	4793
870.06	4725
870.19	5006
870.32	4995
870.45	4904
870.58	5029
870.71	5124
870.84	5140
870.97	4965
871.1	4938
871.23	5155
871.36	5052
871.489	5018
871.619	5083
871.749	5136
871.879	5147
872.008	5170
872.138	5052
872.267	4987
872.397	4816
872.526	4847
872.656	4717
872.785	4786
872.915	4961
873.044	4984
873.173	4961
873.303	4938
873.432	4980
873.561	4987
873.69	4858
873.819	4854
873.948	4972
874.077	4850
874.206	4748
874.335	4820
874.464	4987
874.593	5086
874.722	4968
874.851	5147
874.979	5048
875.108	5067
875.237	4904
875.365	4934
875.494	4881
875.623	4938
875.751	4835
875.88	4858
876.008	4995
876.136	5075
876.265	5227
876.393	5368
876.521	5261
876.65	5242
876.778	5136
876.906	5083
877.034	5033
877.162	5052
877.29	5010
877.418	5090
877.546	5075
877.674	5056
877.802	5048
877.93	5075
878.058	4984
878.185	4892
878.313	4968
878.441	5006
878.568	4793
878.696	4881
878.824	5018
878.951	5033
879.079	5189
879.206	5307
879.333	5143
879.461	4991
879.588	5041
879.715	5098
879.842	5246
879.97	5037
880.097	4805
880.224	4763
880.351	4801
880.478	4850
880.605	4809
880.732	4824
880.859	5079
880.986	4896
881.112	4949
881.239	4812
881.366	4687
881.493	4603
881.619	4603
881.746	4675
881.872	4675
881.999	4675
882.125	4653
882.252	4824
882.378	4812
882.505	4942
882.631	4828
882.757	4683
882.883	4759
883.01	4729
883.136	4691
883.262	4580
883.388	4637
883.514	4809
883.64	4889
883.766	4809
883.892	4683
884.018	4710
884.143	4873
884.269	4991
884.395	4725
884.52	4630
884.646	4660
884.772	4615
884.897	4588
885.023	4641
885.148	4748
885.274	4877
885.399	4835
885.524	4725
885.65	4706
885.775	4748
885.9	4725
886.025	4889
886.15	4793
886.275	4691
886.4	4672
886.525	4736
886.65	4683
886.775	4672
886.9	4866
887.025	5071
887.149	4793
887.274	4656
887.399	4584
887.523	4649
887.648	4558
887.773	4569
887.897	4744
888.021	4805
888.146	4714
888.27	4839
888.395	4930
888.519	4786
888.643	4847
888.767	4816
888.891	4714
889.015	4626
889.139	4664
889.263	4618
889.387	4752
889.511	4850
889.635	4809
889.759	4645
889.883	4687
890.006	4717
890.13	4805
890.254	4611
890.377	4679
890.501	4546
890.624	4516
890.748	4641
890.871	4527
890.995	4466
891.118	4424
891.241	4512
891.364	4630
891.488	4615
891.611	4481
891.734	4580
891.857	4618
891.98	4569
892.103	4641
892.226	4569
892.349	4546
892.471	4447
892.594	4569
892.717	4569
892.839	4599
892.962	4641
893.085	4630
893.207	4561
893.33	4443
893.452	4558
893.575	4653
893.697	4607
893.819	4793
893.941	4870
894.064	4782
894.186	4603
894.308	4538
894.43	4721
894.552	4809
894.674	4755
894.796	4542
894.918	4577
895.04	4538
895.161	4717
895.283	4626
895.405	4569
895.526	4645
895.648	4702
895.769	4702
895.891	4752
896.012	4721
896.134	4706
896.255	4622
896.376	4630
896.498	4580
896.619	4683
896.74	4630
896.861	4656
896.982	4946
897.103	5086
897.224	4873
897.345	4748
897.466	4698
897.587	4748
897.708	4843
897.828	4733
897.949	4698
898.07	4618
898.19	4668
898.311	4820
898.431	4645
898.552	4744
898.672	4824
898.792	4793
898.913	4786
899.033	4679
899.153	4500
899.273	4447
899.393	4527
899.513	4603
899.633	4580
899.753	4550
899.873	4519
899.993	4577
900.113	4527
900.232	4569
900.352	4523
900.472	4443
900.591	4443
900.711	4512
900.83	4436
900.95	4637
901.069	4687
901.189	4538
901.308	4409
901.427	4341
901.546	4367
901.665	4508
901.784	4516
901.904	4402
902.023	4333
902.141	4173
902.26	4162
902.379	4306
902.498	4238
902.617	4234
902.735	4360
902.854	4428
902.973	4337
903.091	4188
903.21	4204
903.328	4318
903.446	4284
903.565	4265
903.683	4341
903.801	4348
903.919	4375
904.038	4424
904.156	4322
904.274	4417
904.392	4352
904.51	4398
904.627	4455
904.745	4584
904.863	4641
904.981	4424
905.098	4325
905.216	4367
905.334	4432
905.451	4424
905.569	4432
905.686	4561
905.803	4596
905.921	4383
906.038	4527
906.155	4512
906.272	4348
906.389	4451
906.506	4390
906.623	4386
906.74	4356
906.857	4333
906.974	4375
907.091	4615
907.208	4691
907.324	4565
907.441	4516
907.557	4337
907.674	4348
907.79	4322
907.907	4371
908.023	4516
908.139	4508
908.256	4466
908.372	4478
908.488	4478
908.604	4344
908.72	4318
908.836	4394
908.952	4428
909.068	4413
909.184	4542
909.3	4470
909.415	4573
909.531	4569
909.647	4337
909.762	4367
909.878	4314
909.993	4424
910.108	4443
910.224	4394
910.339	4500
910.454	4424
910.57	4371
910.685	4333
910.8	4634
910.915	4542
911.03	4462
911.145	4375
911.259	4325
911.374	4367
911.489	4284
911.604	4261
911.718	4181
911.833	4234
911.947	4105
912.062	4040
912.176	4188
912.291	4185
912.405	4246
912.519	4478
912.633	4512
912.748	4417
912.862	4291
912.976	4219
913.09	4109
913.204	4128
913.318	4276
913.431	4383
913.545	4390
913.659	4451
913.772	4314
913.886	4287
914	4234
914.113	4405
914.226	4424
914.34	4360
914.453	4246
914.566	4443
914.68	4341
914.793	4303
914.906	4147
915.019	4131
915.132	4040
915.245	4246
915.358	4188
915.47	4257
915.583	4303
915.696	4306
915.809	4409
915.921	4440
916.034	4265
916.146	4253
916.259	4261
916.371	4337
916.483	4348
916.595	4230
916.708	4310
916.82	4325
916.932	4329
917.044	4329
917.156	4291
917.268	4234
917.38	4287
917.491	4287
917.603	4341
917.715	4409
917.826	4451
917.938	4405
918.049	4253
918.161	4409
918.272	4546
918.384	4516
918.495	4462
918.606	4371
918.717	4223
918.828	4344
918.939	4341
919.05	4246
919.161	4280
919.272	4135
919.383	4238
919.494	4405
919.604	4630
919.715	4424
919.826	4325
919.936	4405
920.047	4538
920.157	4485
920.267	4645
920.378	4516
920.488	4489
920.598	4748
920.708	4919
920.818	4778
920.928	4717
921.038	4980
921.148	4949
921.258	4668
921.368	4561
921.477	4459
921.587	4451
921.697	4386
921.806	4493
921.916	4428
922.025	4242
922.134	4257
922.244	4242
922.353	4310
922.462	4166
922.571	4090
922.68	4021
922.789	3956
922.898	4017
923.007	3968
923.116	4090
923.224	4071
923.333	4093
923.442	3960
923.55	3975
923.659	4021
923.767	4086
923.876	3987
923.984	4112
924.092	3994
924.201	4059
924.309	4128
924.417	4128
924.525	4074
924.633	4105
924.741	5048
924.849	3903
924.956	4154
925.064	3983
925.172	3880
925.279	3983
925.387	4051
925.494	4002
925.602	4230
925.709	4177
925.816	4097
925.924	4074
926.031	4223
926.138	4131
926.245	4173
926.352	4067
926.459	4223
926.566	4299
926.673	4173
926.779	4086
926.886	4150
926.993	4006
927.099	3975
927.206	3930
927.312	3896
927.419	4071
927.525	4040
927.631	4090
927.737	3964
927.843	3979
927.95	3838
928.056	3972
928.162	4010
928.267	4036
928.373	4645
928.479	4097
928.585	3869
928.69	4036
928.796	4059
928.901	3960
929.007	3861
929.112	4006
929.218	4010
929.323	3972
929.428	3953
929.533	4082
929.638	3918
929.743	3994
929.848	4013
929.953	3975
930.058	3956
930.163	3823
930.267	3827
930.372	4006
930.477	3797
930.581	4071
930.685	3968
930.79	3797
930.894	3888
930.998	3846
931.103	4074
931.207	3705
931.311	3720
931.415	3648
931.519	3530
931.623	3584
