Data from test_V78500241_2577.txt Node
Date: Fri Mar 25 17:06:55 CST 2022
User: usil
Spectrometer: V785-0024
Trigger mode: 0
Integration Time (sec): 4.000000E-1
Scans to average: 1
Nonlinearity correction enabled: false
Boxcar width: 0
Storing dark spectrum: false
XAxis mode: Wavelengths
Number of Pixels in Spectrum: 1024
>>>>>Begin Spectral Data<<<<<
801.071	7986
801.214	7951
801.356	7818
801.499	7940
801.641	7792
801.783	7799
801.926	7940
802.068	7879
802.211	7921
802.353	8046
802.496	7864
802.638	7890
802.78	7967
802.923	7925
803.065	7883
803.208	7841
803.35	7974
803.492	8130
803.635	8195
803.777	8024
803.919	8145
804.061	8431
804.204	8153
804.346	8012
804.488	7902
804.63	8157
804.773	8054
804.915	8062
805.057	8313
805.199	8123
805.341	8115
805.483	8271
805.626	8309
805.768	8157
805.91	8229
806.052	8225
806.194	8115
806.336	8263
806.478	8031
806.62	8058
806.762	8084
806.904	8275
807.046	8431
807.188	8305
807.33	8210
807.472	8309
807.614	8138
807.756	8058
807.898	8008
808.04	7830
808.182	7852
808.324	7883
808.465	7906
808.607	8077
808.749	8062
808.891	8237
809.033	8279
809.174	8225
809.316	8130
809.458	8084
809.6	8001
809.741	7989
809.883	8005
810.025	8069
810.166	8115
810.308	7974
810.45	7970
810.591	7925
810.733	7715
810.875	7636
811.016	7525
811.158	7457
811.299	7601
811.441	7727
811.582	7738
811.724	7540
811.865	7563
812.007	7586
812.148	7674
812.29	7613
812.431	7723
812.573	7875
812.714	7913
812.855	8103
812.997	8206
813.138	8305
813.279	8103
813.421	8073
813.562	8027
813.703	7799
813.845	7712
813.986	7510
814.127	7251
814.268	7244
814.41	7240
814.551	7145
814.692	7194
814.833	7114
814.974	7126
815.115	7194
815.256	6909
815.397	6962
815.539	6996
815.68	6772
815.821	6821
815.962	6856
816.103	6848
816.244	6684
816.385	6650
816.526	6711
816.666	6456
816.807	6308
816.948	6467
817.089	6475
817.23	6388
817.371	6410
817.512	6418
817.653	6365
817.793	6369
817.934	6376
818.075	6464
818.216	6384
818.356	6338
818.497	6292
818.638	6152
818.778	6163
818.919	6175
819.06	6175
819.2	6327
819.341	6357
819.481	6361
819.622	6528
819.762	6696
819.903	6730
820.043	6650
820.184	6604
820.324	6612
820.465	6719
820.605	6665
820.746	6662
820.886	6555
821.026	6722
821.167	6738
821.307	6810
821.447	6734
821.588	6642
821.728	6604
821.868	6464
822.008	6429
822.149	6380
822.289	6384
822.429	6155
822.569	6102
822.709	6087
822.849	5954
822.99	5939
823.13	5969
823.27	5939
823.41	5821
823.55	5714
823.69	5802
823.83	5756
823.97	5627
824.11	5452
824.25	5528
824.389	5585
824.529	5615
824.669	5459
824.809	5646
824.949	5646
825.089	5638
825.228	5547
825.368	5478
825.508	5353
825.648	5326
825.787	5410
825.927	5368
826.067	5273
826.206	5261
826.346	5353
826.485	5387
826.625	5376
826.765	5482
826.904	5474
827.044	5204
827.183	5174
827.323	5098
827.462	5242
827.601	5155
827.741	5185
827.88	5261
828.02	5105
828.159	5231
828.298	5337
828.437	5353
828.577	5334
828.716	5486
828.855	5292
828.994	5140
829.134	5128
829.273	5147
829.412	5117
829.551	5140
829.69	5155
829.829	5246
829.968	5322
830.107	5246
830.246	5288
830.385	5178
830.524	5140
830.663	5102
830.802	4987
830.941	4908
831.08	4881
831.219	4980
831.357	4934
831.496	5128
831.635	4980
831.774	4866
831.913	4892
832.051	4763
832.19	4687
832.329	4797
832.467	4672
832.606	4611
832.744	4702
832.883	4694
833.022	4714
833.16	4759
833.299	4801
833.437	4809
833.576	4824
833.714	4866
833.852	4873
833.991	4862
834.129	4938
834.267	4961
834.406	4930
834.544	4946
834.682	4957
834.821	5010
834.959	5090
835.097	4961
835.235	5147
835.373	5132
835.511	5075
835.65	5018
835.788	4991
835.926	4904
836.064	4854
836.202	4911
836.34	5124
836.478	5231
836.615	5113
836.753	5223
836.891	5239
837.029	5246
837.167	5170
837.305	5143
837.443	5117
837.58	5105
837.718	5296
837.856	5254
837.993	5170
838.131	5246
838.269	5208
838.406	5166
838.544	5166
838.681	5041
838.819	5010
838.956	4904
839.094	4930
839.231	4984
839.369	5033
839.506	5368
839.643	5277
839.781	5071
839.918	4957
840.055	5113
840.193	5090
840.33	5124
840.467	5117
840.604	5193
840.742	5425
840.879	5086
841.016	5109
841.153	5136
841.29	5368
841.427	5311
841.564	5292
841.701	5292
841.838	5299
841.975	5208
842.112	5246
842.249	5162
842.385	5140
842.522	5280
842.659	5212
842.796	5143
842.933	5151
843.069	5121
843.206	5197
843.343	5299
843.479	5280
843.616	5292
843.752	5071
843.889	4980
844.025	5242
844.162	5052
844.298	5197
844.435	5086
844.571	5003
844.708	5181
844.844	5307
844.98	5349
845.117	5315
845.253	5151
845.389	5102
845.525	5140
845.661	5113
845.798	5064
845.934	5109
846.07	5102
846.206	5223
846.342	5296
846.478	5178
846.614	5079
846.75	4972
846.886	4904
847.022	5132
847.158	4995
847.294	5090
847.429	5094
847.565	5037
847.701	5265
847.837	4847
847.972	4782
848.108	4957
848.244	4915
848.379	4812
848.515	4733
848.65	4687
848.786	4755
848.921	4812
849.057	4881
849.192	4896
849.328	4839
849.463	4809
849.598	4797
849.734	4771
849.869	4710
850.004	4611
850.14	4618
850.275	4603
850.41	4554
850.545	4599
850.68	4618
850.815	4577
850.95	4672
851.085	4843
851.22	4771
851.355	4714
851.49	4622
851.625	4596
851.76	4618
851.895	4550
852.03	4558
852.165	4611
852.299	4714
852.434	4812
852.569	4714
852.703	4767
852.838	4870
852.973	4911
853.107	4881
853.242	4679
853.376	4622
853.511	4519
853.645	4649
853.78	4771
853.914	4656
854.048	4664
854.183	4641
854.317	4721
854.451	4862
854.585	4656
854.72	4622
854.854	4767
854.988	4599
855.122	4637
855.256	4546
855.39	4675
855.524	4786
855.658	4717
855.792	4691
855.926	4721
856.06	4774
856.194	4801
856.327	4664
856.461	4607
856.595	4630
856.729	4649
856.862	4740
856.996	4714
857.13	4683
857.263	4744
857.397	4809
857.53	4637
857.664	4714
857.797	4778
857.931	4805
858.064	4717
858.197	4752
858.331	4668
858.464	4630
858.597	4527
858.731	4615
858.864	4649
858.997	4592
859.13	4721
859.263	4694
859.396	4645
859.529	4607
859.662	4611
859.795	4565
859.928	4626
860.061	4752
860.194	4767
860.327	4580
860.46	4599
860.592	4660
860.725	4698
860.858	4717
860.99	4569
861.123	4550
861.256	4535
861.388	4637
861.521	5288
861.653	4516
861.786	4462
861.918	4451
862.05	4508
862.183	4565
862.315	4603
862.447	4599
862.58	4512
862.712	4428
862.844	4272
862.976	4489
863.108	4470
863.24	4729
863.372	4322
863.504	4390
863.636	4386
863.768	4489
863.9	4481
864.032	4318
864.164	4402
864.296	4474
864.428	4489
864.559	4565
864.691	4508
864.823	4523
864.954	4466
865.086	4573
865.217	4447
865.349	4417
865.48	4459
865.612	4478
865.743	4607
865.875	4512
866.006	4417
866.137	4470
866.269	4436
866.4	4462
866.531	4424
866.662	4421
866.793	4390
866.924	4379
867.055	4489
867.186	4440
867.317	4421
867.448	4352
867.579	4402
867.71	4390
867.841	4356
867.972	4497
868.103	4432
868.233	4436
868.364	4413
868.495	4516
868.625	4656
868.756	4736
868.886	4584
869.017	4656
869.147	4774
869.278	4771
869.408	4645
869.539	4679
869.669	4702
869.799	4702
869.929	4771
870.06	4706
870.19	4938
870.32	4919
870.45	4953
870.58	4999
870.71	5056
870.84	5136
870.97	4942
871.1	4904
871.23	5117
871.36	5113
871.489	4987
871.619	5109
871.749	5086
871.879	5105
872.008	5185
872.138	5010
872.267	5010
872.397	4877
872.526	4805
872.656	4660
872.785	4831
872.915	4968
873.044	5079
873.173	4961
873.303	5006
873.432	4987
873.561	4961
873.69	4820
873.819	4850
873.948	4862
874.077	4816
874.206	4782
874.335	4793
874.464	4923
874.593	5045
874.722	4980
874.851	5105
874.979	5079
875.108	5033
875.237	4946
875.365	4900
875.494	4877
875.623	4980
875.751	4835
875.88	4850
876.008	4965
876.136	4965
876.265	5189
876.393	5322
876.521	5254
876.65	5235
876.778	5136
876.906	5041
877.034	5003
877.162	5018
877.29	4980
877.418	5052
877.546	5048
877.674	5105
877.802	5025
877.93	5018
878.058	4965
878.185	4881
878.313	4961
878.441	4930
878.568	4790
878.696	4938
878.824	4934
878.951	4968
879.079	5113
879.206	5296
879.333	5102
879.461	5029
879.588	5014
879.715	5117
879.842	5220
879.97	4976
880.097	4805
880.224	4698
880.351	4816
880.478	4797
880.605	4805
880.732	4771
880.859	5086
880.986	4866
881.112	4873
881.239	4752
881.366	4687
881.493	4599
881.619	4622
881.746	4626
881.872	4630
881.999	4653
882.125	4714
882.252	4797
882.378	4835
882.505	4972
882.631	4771
882.757	4691
882.883	4691
883.01	4748
883.136	4687
883.262	4542
883.388	4607
883.514	4862
883.64	4877
883.766	4786
883.892	4698
884.018	4714
884.143	4866
884.269	5022
884.395	4721
884.52	4668
884.646	4675
884.772	4611
884.897	4565
885.023	4649
885.148	4820
885.274	4858
885.399	4839
885.524	4782
885.65	4702
885.775	4755
885.9	4725
886.025	4847
886.15	4820
886.275	4752
886.4	4653
886.525	4694
886.65	4649
886.775	4714
886.9	4896
887.025	5052
887.149	4816
887.274	4656
887.399	4607
887.523	4649
887.648	4653
887.773	4603
887.897	4755
888.021	4790
888.146	4656
888.27	4771
888.395	4900
888.519	4782
888.643	4824
888.767	4862
888.891	4717
889.015	4615
889.139	4687
889.263	4599
889.387	4793
889.511	4816
889.635	4774
889.759	4634
889.883	4618
890.006	4729
890.13	4858
890.254	4630
890.377	4717
890.501	4558
890.624	4516
890.748	4637
890.871	4462
890.995	4383
891.118	4363
891.241	4523
891.364	4550
891.488	4611
891.611	4504
891.734	4519
891.857	4615
891.98	4611
892.103	4630
892.226	4615
892.349	4497
892.471	4447
892.594	4546
892.717	4596
892.839	4615
892.962	4584
893.085	4656
893.207	4554
893.33	4481
893.452	4512
893.575	4637
893.697	4607
893.819	4847
893.941	4801
894.064	4782
894.186	4611
894.308	4599
894.43	4736
894.552	4831
894.674	4687
894.796	4558
894.918	4565
895.04	4596
895.161	4698
895.283	4656
895.405	4599
895.526	4607
895.648	4714
895.769	4710
895.891	4687
896.012	4706
896.134	4717
896.255	4687
896.376	4634
896.498	4596
896.619	4675
896.74	4584
896.861	4664
896.982	4896
897.103	5025
897.224	4835
897.345	4736
897.466	4668
897.587	4721
897.708	4824
897.828	4763
897.949	4675
898.07	4554
898.19	4672
898.311	4835
898.431	4672
898.552	4706
898.672	4843
898.792	4771
898.913	4752
899.033	4611
899.153	4497
899.273	4451
899.393	4500
899.513	4538
899.633	4519
899.753	4542
899.873	4519
899.993	4580
900.113	4542
900.232	4577
900.352	4558
900.472	4500
900.591	4424
900.711	4504
900.83	4443
900.95	4675
901.069	4611
901.189	4512
901.308	4348
901.427	4329
901.546	4352
901.665	4466
901.784	4527
901.904	4409
902.023	4318
902.141	4188
902.26	4192
902.379	4272
902.498	4246
902.617	4257
902.735	4360
902.854	4440
902.973	4367
903.091	4207
903.21	4219
903.328	4261
903.446	4261
903.565	4211
903.683	4333
903.801	4272
903.919	4363
904.038	4474
904.156	4348
904.274	4409
904.392	4413
904.51	4413
904.627	4432
904.745	4569
904.863	4630
904.981	4409
905.098	4276
905.216	4379
905.334	4443
905.451	4455
905.569	4417
905.686	4611
905.803	4565
905.921	4413
906.038	4565
906.155	4462
906.272	4386
906.389	4413
906.506	4352
906.623	4390
906.74	4386
906.857	4344
906.974	4318
907.091	4542
907.208	4679
907.324	4527
907.441	4531
907.557	4337
907.674	4337
907.79	4299
907.907	4424
908.023	4459
908.139	4474
908.256	4432
908.372	4428
908.488	4447
908.604	4344
908.72	4318
908.836	4383
908.952	4367
909.068	4440
909.184	4558
909.3	4462
909.415	4596
909.531	4573
909.647	4398
909.762	4352
909.878	4344
909.993	4424
910.108	4424
910.224	4375
910.339	4481
910.454	4383
910.57	4337
910.685	4280
910.8	4668
910.915	4588
911.03	4542
911.145	4306
911.259	4280
911.374	4329
911.489	4284
911.604	4295
911.718	4204
911.833	4215
911.947	4036
912.062	4051
912.176	4238
912.291	4272
912.405	4242
912.519	4466
912.633	4500
912.748	4402
912.862	4318
912.976	4223
913.09	4059
913.204	4185
913.318	4215
913.431	4405
913.545	4383
913.659	4436
913.772	4329
913.886	4268
914	4143
914.113	4379
914.226	4455
914.34	4413
914.453	4287
914.566	4417
914.68	4299
914.793	4299
914.906	4139
915.019	4139
915.132	4071
915.245	4177
915.358	4188
915.47	4238
915.583	4322
915.696	4344
915.809	4409
915.921	4443
916.034	4238
916.146	4253
916.259	4211
916.371	4390
916.483	4398
916.595	4261
916.708	4306
916.82	4322
916.932	4333
917.044	4329
917.156	4303
917.268	4215
917.38	4238
917.491	4268
917.603	4367
917.715	4413
917.826	4447
917.938	4314
918.049	4227
918.161	4402
918.272	4558
918.384	4535
918.495	4379
918.606	4287
918.717	4268
918.828	4329
918.939	4344
919.05	4280
919.161	4337
919.272	4090
919.383	4215
919.494	4432
919.604	4668
919.715	4428
919.826	4322
919.936	4405
920.047	4561
920.157	4493
920.267	4691
920.378	4573
920.488	4527
920.598	4733
920.708	4858
920.818	4755
920.928	4729
921.038	4927
921.148	4873
921.258	4645
921.368	4588
921.477	4447
921.587	4451
921.697	4333
921.806	4592
921.916	4428
922.025	4268
922.134	4261
922.244	4211
922.353	4291
922.462	4147
922.571	4093
922.68	4017
922.789	3975
922.898	4059
923.007	3987
923.116	4078
923.224	4101
923.333	4067
923.442	3979
923.55	3964
923.659	4051
923.767	4097
923.876	3972
923.984	4109
924.092	4010
924.201	4101
924.309	4086
924.417	4135
924.525	4063
924.633	4074
924.741	5056
924.849	3937
924.956	4143
925.064	3994
925.172	3926
925.279	3937
925.387	4032
925.494	4040
925.602	4227
925.709	4173
925.816	4006
925.924	4147
926.031	4223
926.138	4154
926.245	4143
926.352	4112
926.459	4215
926.566	4325
926.673	4120
926.779	4059
926.886	4051
926.993	3956
927.099	3972
927.206	3964
927.312	3918
927.419	4021
927.525	4017
927.631	4051
927.737	3926
927.843	3915
927.95	3899
928.056	3934
928.162	4002
928.267	4051
928.373	4649
928.479	4105
928.585	3896
928.69	3998
928.796	4071
928.901	3991
929.007	3816
929.112	4013
929.218	4017
929.323	3930
929.428	3926
929.533	4090
929.638	3934
929.743	3922
929.848	4013
929.953	3983
930.058	3956
930.163	3759
930.267	3842
930.372	3945
930.477	3808
930.581	4124
930.685	3907
930.79	3850
930.894	3907
930.998	3827
931.103	4074
931.207	3759
931.311	3740
931.415	3660
931.519	3496
931.623	3584
