Data from test_V78500241_1419.txt Node
Date: Fri Mar 25 16:58:52 CST 2022
User: usil
Spectrometer: V785-0024
Trigger mode: 0
Integration Time (sec): 4.000000E-1
Scans to average: 1
Nonlinearity correction enabled: false
Boxcar width: 0
Storing dark spectrum: false
XAxis mode: Wavelengths
Number of Pixels in Spectrum: 1024
>>>>>Begin Spectral Data<<<<<
801.071	8050
801.214	7993
801.356	7906
801.499	7856
801.641	7811
801.783	7864
801.926	7963
802.068	7902
802.211	8012
802.353	7993
802.496	7871
802.638	7913
802.78	7909
802.923	7925
803.065	7887
803.208	7849
803.35	7928
803.492	8031
803.635	8134
803.777	8062
803.919	8119
804.061	8469
804.204	8187
804.346	7993
804.488	7955
804.63	8058
804.773	8024
804.915	8077
805.057	8252
805.199	8157
805.341	8218
805.483	8275
805.626	8195
805.768	8142
805.91	8263
806.052	8252
806.194	8123
806.336	8229
806.478	8084
806.62	8046
806.762	7997
806.904	8305
807.046	8438
807.188	8332
807.33	8229
807.472	8294
807.614	8221
807.756	8161
807.898	8001
808.04	7959
808.182	7951
808.324	7890
808.465	7864
808.607	8073
808.749	8126
808.891	8145
809.033	8279
809.174	8206
809.316	8058
809.458	8103
809.6	7989
809.741	8016
809.883	8005
810.025	8035
810.166	8024
810.308	8065
810.45	7947
810.591	7814
810.733	7738
810.875	7658
811.016	7491
811.158	7502
811.299	7567
811.441	7746
811.582	7674
811.724	7533
811.865	7499
812.007	7563
812.148	7552
812.29	7586
812.431	7746
812.573	7879
812.714	7989
812.855	8077
812.997	8263
813.138	8275
813.279	8176
813.421	8058
813.562	7917
813.703	7864
813.845	7761
813.986	7411
814.127	7255
814.268	7179
814.41	7171
814.551	7110
814.692	7263
814.833	7038
814.974	7114
815.115	7069
815.256	6989
815.397	6947
815.539	6916
815.68	6791
815.821	6749
815.962	6875
816.103	6806
816.244	6722
816.385	6597
816.526	6570
816.666	6445
816.807	6338
816.948	6479
817.089	6441
817.23	6399
817.371	6338
817.512	6353
817.653	6395
817.793	6372
817.934	6346
818.075	6467
818.216	6429
818.356	6422
818.497	6266
818.638	6129
818.778	6194
818.919	6129
819.06	6083
819.2	6331
819.341	6277
819.481	6372
819.622	6486
819.762	6730
819.903	6703
820.043	6612
820.184	6589
820.324	6601
820.465	6700
820.605	6662
820.746	6597
820.886	6525
821.026	6620
821.167	6684
821.307	6768
821.447	6814
821.588	6582
821.728	6585
821.868	6448
822.008	6357
822.149	6365
822.289	6327
822.429	6140
822.569	6106
822.709	6095
822.849	5935
822.99	5931
823.13	5893
823.27	5897
823.41	5824
823.55	5745
823.69	5756
823.83	5729
823.97	5638
824.11	5589
824.25	5444
824.389	5585
824.529	5589
824.669	5509
824.809	5630
824.949	5642
825.089	5573
825.228	5539
825.368	5357
825.508	5402
825.648	5315
825.787	5353
825.927	5383
826.067	5288
826.206	5258
826.346	5345
826.485	5364
826.625	5364
826.765	5524
826.904	5474
827.044	5288
827.183	5201
827.323	5121
827.462	5250
827.601	5128
827.741	5151
827.88	5201
828.02	5075
828.159	5250
828.298	5261
828.437	5296
828.577	5277
828.716	5455
828.855	5341
828.994	5162
829.134	5132
829.273	5151
829.412	5094
829.551	5086
829.69	5181
829.829	5250
829.968	5379
830.107	5216
830.246	5296
830.385	5178
830.524	5132
830.663	5033
830.802	4976
830.941	4866
831.08	4858
831.219	4972
831.357	4968
831.496	5143
831.635	4896
831.774	4828
831.913	4850
832.051	4694
832.19	4721
832.329	4850
832.467	4618
832.606	4645
832.744	4725
832.883	4679
833.022	4729
833.16	4752
833.299	4816
833.437	4809
833.576	4824
833.714	4839
833.852	4843
833.991	4873
834.129	4984
834.267	4908
834.406	4915
834.544	5022
834.682	4987
834.821	4946
834.959	5193
835.097	4957
835.235	5155
835.373	5067
835.511	5079
835.65	5010
835.788	5048
835.926	4839
836.064	4873
836.202	4915
836.34	5117
836.478	5216
836.615	5140
836.753	5143
836.891	5280
837.029	5250
837.167	5239
837.305	5159
837.443	5155
837.58	5067
837.718	5258
837.856	5193
837.993	5140
838.131	5212
838.269	5201
838.406	5208
838.544	5159
838.681	5018
838.819	5010
838.956	4847
839.094	4877
839.231	4965
839.369	5033
839.506	5410
839.643	5197
839.781	5060
839.918	4991
840.055	5075
840.193	5098
840.33	5064
840.467	5132
840.604	5178
840.742	5440
840.879	5102
841.016	5105
841.153	5117
841.29	5376
841.427	5337
841.564	5341
841.701	5360
841.838	5292
841.975	5204
842.112	5273
842.249	5113
842.385	5090
842.522	5326
842.659	5155
842.796	5151
842.933	5174
843.069	5181
843.206	5132
843.343	5334
843.479	5181
843.616	5299
843.752	5060
843.889	5045
844.025	5220
844.162	4976
844.298	5143
844.435	5098
844.571	5041
844.708	5178
844.844	5364
844.98	5318
845.117	5261
845.253	5121
845.389	5060
845.525	5151
845.661	5105
845.798	5048
845.934	5181
846.07	5060
846.206	5143
846.342	5246
846.478	5128
846.614	5033
846.75	4995
846.886	4946
847.022	5143
847.158	5006
847.294	5048
847.429	5079
847.565	5052
847.701	5326
847.837	4847
847.972	4801
848.108	4961
848.244	4904
848.379	4805
848.515	4714
848.65	4706
848.786	4725
848.921	4755
849.057	4839
849.192	4919
849.328	4835
849.463	4828
849.598	4820
849.734	4714
849.869	4691
850.004	4626
850.14	4660
850.275	4584
850.41	4504
850.545	4531
850.68	4615
850.815	4603
850.95	4641
851.085	4801
851.22	4740
851.355	4687
851.49	4622
851.625	4603
851.76	4615
851.895	4554
852.03	4523
852.165	4607
852.299	4706
852.434	4816
852.569	4717
852.703	4759
852.838	4805
852.973	4923
853.107	4938
853.242	4755
853.376	4687
853.511	4538
853.645	4546
853.78	4828
853.914	4691
854.048	4656
854.183	4637
854.317	4736
854.451	4809
854.585	4721
854.72	4615
854.854	4759
854.988	4577
855.122	4634
855.256	4500
855.39	4679
855.524	4786
855.658	4729
855.792	4702
855.926	4736
856.06	4721
856.194	4793
856.327	4679
856.461	4561
856.595	4596
856.729	4626
856.862	4763
856.996	4683
857.13	4733
857.263	4763
857.397	4767
857.53	4611
857.664	4710
857.797	4744
857.931	4771
858.064	4660
858.197	4740
858.331	4607
858.464	4573
858.597	4500
858.731	4679
858.864	4599
858.997	4561
859.13	4672
859.263	4672
859.396	4710
859.529	4546
859.662	4550
859.795	4508
859.928	4637
860.061	4767
860.194	4748
860.327	4596
860.46	4538
860.592	4668
860.725	4710
860.858	4710
860.99	4611
861.123	4485
861.256	4531
861.388	4588
861.521	5425
861.653	4459
861.786	4489
861.918	4436
862.05	4455
862.183	4558
862.315	4569
862.447	4656
862.58	4546
862.712	4455
862.844	4325
862.976	4447
863.108	4428
863.24	4911
863.372	4344
863.504	4402
863.636	4375
863.768	4459
863.9	4405
864.032	4322
864.164	4405
864.296	4497
864.428	4504
864.559	4531
864.691	4588
864.823	4504
864.954	4459
865.086	4561
865.217	4424
865.349	4379
865.48	4413
865.612	4466
865.743	4637
865.875	4462
866.006	4440
866.137	4447
866.269	4436
866.4	4447
866.531	4451
866.662	4409
866.793	4379
866.924	4405
867.055	4508
867.186	4447
867.317	4386
867.448	4348
867.579	4379
867.71	4375
867.841	4379
867.972	4459
868.103	4489
868.233	4474
868.364	4398
868.495	4481
868.625	4668
868.756	4778
868.886	4569
869.017	4618
869.147	4774
869.278	4801
869.408	4607
869.539	4603
869.669	4679
869.799	4630
869.929	4733
870.06	4721
870.19	4881
870.32	4908
870.45	4946
870.58	5014
870.71	5102
870.84	5060
870.97	4908
871.1	4900
871.23	5147
871.36	5113
871.489	5006
871.619	5083
871.749	5109
871.879	5155
872.008	5242
872.138	5025
872.267	4938
872.397	4831
872.526	4755
872.656	4729
872.785	4782
872.915	4938
873.044	5029
873.173	4889
873.303	4953
873.432	4991
873.561	4949
873.69	4877
873.819	4835
873.948	4862
874.077	4809
874.206	4801
874.335	4782
874.464	4930
874.593	5018
874.722	4965
874.851	5079
874.979	5064
875.108	5037
875.237	4930
875.365	4862
875.494	4805
875.623	4942
875.751	4805
875.88	4835
876.008	4999
876.136	5006
876.265	5166
876.393	5318
876.521	5223
876.65	5208
876.778	5155
876.906	5071
877.034	5025
877.162	5045
877.29	4961
877.418	5094
877.546	5029
877.674	5033
877.802	5014
877.93	5018
878.058	4915
878.185	4870
878.313	4927
878.441	4908
878.568	4801
878.696	4858
878.824	4904
878.951	4938
879.079	5197
879.206	5277
879.333	5124
879.461	4999
879.588	4980
879.715	5090
879.842	5223
879.97	5006
880.097	4809
880.224	4694
880.351	4835
880.478	4831
880.605	4797
880.732	4793
880.859	5056
880.986	4927
881.112	4877
881.239	4767
881.366	4702
881.493	4561
881.619	4584
881.746	4641
881.872	4668
881.999	4611
882.125	4645
882.252	4797
882.378	4820
882.505	4976
882.631	4771
882.757	4672
882.883	4721
883.01	4714
883.136	4645
883.262	4580
883.388	4603
883.514	4793
883.64	4858
883.766	4759
883.892	4675
884.018	4683
884.143	4896
884.269	5037
884.395	4668
884.52	4626
884.646	4672
884.772	4558
884.897	4550
885.023	4664
885.148	4793
885.274	4870
885.399	4774
885.524	4691
885.65	4668
885.775	4748
885.9	4691
886.025	4877
886.15	4759
886.275	4706
886.4	4679
886.525	4687
886.65	4702
886.775	4694
886.9	4968
887.025	5071
887.149	4847
887.274	4637
887.399	4554
887.523	4565
887.648	4603
887.773	4546
887.897	4767
888.021	4820
888.146	4641
888.27	4786
888.395	4881
888.519	4824
888.643	4778
888.767	4858
888.891	4649
889.015	4592
889.139	4679
889.263	4577
889.387	4736
889.511	4866
889.635	4816
889.759	4592
889.883	4634
890.006	4679
890.13	4809
890.254	4637
890.377	4653
890.501	4512
890.624	4504
890.748	4622
890.871	4512
890.995	4424
891.118	4394
891.241	4478
891.364	4546
891.488	4615
891.611	4500
891.734	4550
891.857	4588
891.98	4565
892.103	4653
892.226	4630
892.349	4554
892.471	4386
892.594	4535
892.717	4580
892.839	4577
892.962	4611
893.085	4675
893.207	4561
893.33	4489
893.452	4550
893.575	4641
893.697	4538
893.819	4763
893.941	4847
894.064	4793
894.186	4546
894.308	4542
894.43	4714
894.552	4812
894.674	4740
894.796	4535
894.918	4607
895.04	4565
895.161	4736
895.283	4675
895.405	4569
895.526	4603
895.648	4725
895.769	4668
895.891	4618
896.012	4744
896.134	4717
896.255	4687
896.376	4649
896.498	4565
896.619	4672
896.74	4580
896.861	4664
896.982	4892
897.103	5067
897.224	4854
897.345	4706
897.466	4634
897.587	4733
897.708	4835
897.828	4786
897.949	4664
898.07	4622
898.19	4603
898.311	4843
898.431	4717
898.552	4706
898.672	4809
898.792	4759
898.913	4759
899.033	4599
899.153	4489
899.273	4402
899.393	4489
899.513	4535
899.633	4493
899.753	4470
899.873	4527
899.993	4542
900.113	4481
900.232	4554
900.352	4550
900.472	4474
900.591	4432
900.711	4478
900.83	4405
900.95	4618
901.069	4694
901.189	4573
901.308	4447
901.427	4314
901.546	4363
901.665	4417
901.784	4519
901.904	4405
902.023	4318
902.141	4219
902.26	4143
902.379	4310
902.498	4230
902.617	4207
902.735	4383
902.854	4371
902.973	4386
903.091	4238
903.21	4230
903.328	4295
903.446	4230
903.565	4234
903.683	4344
903.801	4253
903.919	4379
904.038	4459
904.156	4295
904.274	4447
904.392	4413
904.51	4398
904.627	4447
904.745	4565
904.863	4626
904.981	4341
905.098	4299
905.216	4386
905.334	4386
905.451	4367
905.569	4402
905.686	4508
905.803	4588
905.921	4394
906.038	4550
906.155	4500
906.272	4421
906.389	4424
906.506	4344
906.623	4310
906.74	4409
906.857	4314
906.974	4337
907.091	4493
907.208	4675
907.324	4523
907.441	4451
907.557	4360
907.674	4314
907.79	4337
907.907	4443
908.023	4474
908.139	4493
908.256	4371
908.372	4455
908.488	4428
908.604	4352
908.72	4318
908.836	4375
908.952	4402
909.068	4455
909.184	4558
909.3	4474
909.415	4558
909.531	4527
909.647	4348
909.762	4405
909.878	4337
909.993	4459
910.108	4375
910.224	4402
910.339	4478
910.454	4379
910.57	4341
910.685	4318
910.8	4626
910.915	4596
911.03	4531
911.145	4344
911.259	4280
911.374	4322
911.489	4341
911.604	4196
911.718	4207
911.833	4185
911.947	4082
912.062	4040
912.176	4162
912.291	4207
912.405	4261
912.519	4455
912.633	4489
912.748	4356
912.862	4268
912.976	4211
913.09	4131
913.204	4143
913.318	4261
913.431	4379
913.545	4360
913.659	4405
913.772	4367
913.886	4230
914	4204
914.113	4344
914.226	4432
914.34	4375
914.453	4238
914.566	4466
914.68	4253
914.793	4310
914.906	4143
915.019	4128
915.132	4055
915.245	4181
915.358	4158
915.47	4276
915.583	4310
915.696	4257
915.809	4337
915.921	4428
916.034	4261
916.146	4268
916.259	4196
916.371	4348
916.483	4329
916.595	4265
916.708	4337
916.82	4284
916.932	4337
917.044	4295
917.156	4363
917.268	4230
917.38	4268
917.491	4234
917.603	4348
917.715	4409
917.826	4424
917.938	4337
918.049	4207
918.161	4424
918.272	4519
918.384	4538
918.495	4432
918.606	4291
918.717	4223
918.828	4398
918.939	4329
919.05	4230
919.161	4303
919.272	4169
919.383	4211
919.494	4405
919.604	4573
919.715	4390
919.826	4322
919.936	4341
920.047	4584
920.157	4497
920.267	4706
920.378	4558
920.488	4535
920.598	4717
920.708	4919
920.818	4755
920.928	4801
921.038	4965
921.148	4862
921.258	4618
921.368	4592
921.477	4512
921.587	4462
921.697	4329
921.806	4538
921.916	4405
922.025	4257
922.134	4268
922.244	4249
922.353	4360
922.462	4207
922.571	4097
922.68	4017
922.789	3926
922.898	4010
923.007	4013
923.116	4078
923.224	4067
923.333	4112
923.442	3960
923.55	3987
923.659	3972
923.767	4139
923.876	4021
923.984	4135
924.092	3987
924.201	4059
924.309	4097
924.417	4124
924.525	4006
924.633	4055
924.741	5064
924.849	3899
924.956	4147
925.064	3930
925.172	3903
925.279	3983
925.387	4048
925.494	4090
925.602	4230
925.709	4207
925.816	4044
925.924	4154
926.031	4188
926.138	4177
926.245	4173
926.352	4093
926.459	4238
926.566	4272
926.673	4177
926.779	4078
926.886	4116
926.993	3918
927.099	3968
927.206	3926
927.312	3960
927.419	4051
927.525	4021
927.631	4105
927.737	3945
927.843	3937
927.95	3850
928.056	3903
928.162	3979
928.267	4090
928.373	4561
928.479	4082
928.585	3850
928.69	3987
928.796	4112
928.901	3941
929.007	3827
929.112	3968
929.218	3979
929.323	3953
929.428	3911
929.533	4116
929.638	3918
929.743	3960
929.848	4010
929.953	4040
930.058	3945
930.163	3778
930.267	3819
930.372	3983
930.477	3797
930.581	4044
930.685	3911
930.79	3831
930.894	3911
930.998	3857
931.103	4021
931.207	3709
931.311	3698
931.415	3648
931.519	3504
931.623	3519
