Data from test_V78500241_2670.txt Node
Date: Fri Mar 25 17:07:34 CST 2022
User: usil
Spectrometer: V785-0024
Trigger mode: 0
Integration Time (sec): 4.000000E-1
Scans to average: 1
Nonlinearity correction enabled: false
Boxcar width: 0
Storing dark spectrum: false
XAxis mode: Wavelengths
Number of Pixels in Spectrum: 1024
>>>>>Begin Spectral Data<<<<<
801.071	8001
801.214	7970
801.356	7837
801.499	7890
801.641	7826
801.783	7811
801.926	7997
802.068	7932
802.211	8020
802.353	8035
802.496	7868
802.638	7894
802.78	7928
802.923	7940
803.065	7864
803.208	7860
803.35	8012
803.492	8123
803.635	8191
803.777	8020
803.919	8157
804.061	8488
804.204	8100
804.346	8073
804.488	8065
804.63	8176
804.773	8065
804.915	8096
805.057	8301
805.199	8142
805.341	8282
805.483	8305
805.626	8218
805.768	8183
805.91	8187
806.052	8256
806.194	8107
806.336	8298
806.478	8054
806.62	8005
806.762	8119
806.904	8271
807.046	8492
807.188	8366
807.33	8305
807.472	8366
807.614	8191
807.756	8195
807.898	8024
808.04	7917
808.182	7932
808.324	7921
808.465	7928
808.607	8092
808.749	8130
808.891	8172
809.033	8282
809.174	8233
809.316	8088
809.458	8062
809.6	7974
809.741	8046
809.883	8069
810.025	8096
810.166	8024
810.308	8008
810.45	8027
810.591	7913
810.733	7765
810.875	7696
811.016	7563
811.158	7464
811.299	7613
811.441	7727
811.582	7727
811.724	7597
811.865	7578
812.007	7655
812.148	7590
812.29	7616
812.431	7765
812.573	7871
812.714	8005
812.855	8153
812.997	8218
813.138	8339
813.279	8180
813.421	8062
813.562	7997
813.703	7925
813.845	7761
813.986	7388
814.127	7305
814.268	7217
814.41	7198
814.551	7187
814.692	7266
814.833	7069
814.974	7114
815.115	7103
815.256	6920
815.397	6928
815.539	6928
815.68	6814
815.821	6787
815.962	6913
816.103	6833
816.244	6734
816.385	6616
816.526	6692
816.666	6509
816.807	6304
816.948	6388
817.089	6513
817.23	6422
817.371	6372
817.512	6395
817.653	6448
817.793	6429
817.934	6437
818.075	6494
818.216	6464
818.356	6376
818.497	6273
818.638	6159
818.778	6152
818.919	6194
819.06	6201
819.2	6395
819.341	6254
819.481	6338
819.622	6570
819.762	6734
819.903	6654
820.043	6631
820.184	6612
820.324	6608
820.465	6715
820.605	6730
820.746	6642
820.886	6521
821.026	6726
821.167	6768
821.307	6818
821.447	6779
821.588	6681
821.728	6616
821.868	6486
822.008	6342
822.149	6391
822.289	6384
822.429	6121
822.569	6079
822.709	6125
822.849	5927
822.99	5916
823.13	5984
823.27	5912
823.41	5722
823.55	5805
823.69	5745
823.83	5783
823.97	5668
824.11	5535
824.25	5520
824.389	5512
824.529	5581
824.669	5554
824.809	5661
824.949	5657
825.089	5608
825.228	5528
825.368	5425
825.508	5303
825.648	5318
825.787	5349
825.927	5349
826.067	5303
826.206	5261
826.346	5292
826.485	5387
826.625	5376
826.765	5570
826.904	5433
827.044	5261
827.183	5239
827.323	5067
827.462	5258
827.601	5189
827.741	5174
827.88	5242
828.02	5155
828.159	5216
828.298	5269
828.437	5330
828.577	5265
828.716	5535
828.855	5372
828.994	5162
829.134	5121
829.273	5170
829.412	5178
829.551	5124
829.69	5201
829.829	5216
829.968	5376
830.107	5280
830.246	5250
830.385	5178
830.524	5064
830.663	5079
830.802	4995
830.941	4900
831.08	4896
831.219	4976
831.357	4984
831.496	5105
831.635	4904
831.774	4843
831.913	4850
832.051	4755
832.19	4778
832.329	4850
832.467	4694
832.606	4645
832.744	4729
832.883	4755
833.022	4714
833.16	4793
833.299	4805
833.437	4809
833.576	4885
833.714	4839
833.852	4873
833.991	4866
834.129	4995
834.267	4949
834.406	4896
834.544	4934
834.682	4927
834.821	4972
834.959	5128
835.097	5003
835.235	5170
835.373	5098
835.511	5086
835.65	4965
835.788	4953
835.926	4900
836.064	4881
836.202	4911
836.34	5216
836.478	5197
836.615	5105
836.753	5162
836.891	5235
837.029	5246
837.167	5189
837.305	5170
837.443	5170
837.58	5075
837.718	5261
837.856	5178
837.993	5170
838.131	5223
838.269	5197
838.406	5250
838.544	5216
838.681	5018
838.819	5048
838.956	4900
839.094	4919
839.231	4995
839.369	5083
839.506	5395
839.643	5254
839.781	5071
839.918	5029
840.055	5060
840.193	5102
840.33	5113
840.467	5132
840.604	5155
840.742	5482
840.879	5045
841.016	5086
841.153	5159
841.29	5349
841.427	5337
841.564	5307
841.701	5334
841.838	5315
841.975	5227
842.112	5299
842.249	5151
842.385	5067
842.522	5303
842.659	5185
842.796	5124
842.933	5170
843.069	5140
843.206	5181
843.343	5334
843.479	5231
843.616	5223
843.752	5033
843.889	5003
844.025	5204
844.162	5003
844.298	5216
844.435	5121
844.571	5079
844.708	5159
844.844	5326
844.98	5429
845.117	5326
845.253	5045
845.389	5079
845.525	5193
845.661	5147
845.798	5071
845.934	5094
846.07	5056
846.206	5189
846.342	5280
846.478	5181
846.614	4999
846.75	4961
846.886	4987
847.022	5098
847.158	5025
847.294	5052
847.429	5136
847.565	5025
847.701	5345
847.837	4847
847.972	4839
848.108	4949
848.244	4942
848.379	4793
848.515	4736
848.65	4740
848.786	4721
848.921	4816
849.057	4889
849.192	4923
849.328	4835
849.463	4850
849.598	4839
849.734	4763
849.869	4698
850.004	4641
850.14	4653
850.275	4599
850.41	4523
850.545	4596
850.68	4630
850.815	4649
850.95	4641
851.085	4850
851.22	4740
851.355	4649
851.49	4656
851.625	4672
851.76	4603
851.895	4580
852.03	4504
852.165	4668
852.299	4725
852.434	4793
852.569	4721
852.703	4733
852.838	4858
852.973	4968
853.107	4900
853.242	4778
853.376	4622
853.511	4561
853.645	4626
853.78	4835
853.914	4714
854.048	4698
854.183	4683
854.317	4717
854.451	4831
854.585	4721
854.72	4611
854.854	4714
854.988	4561
855.122	4672
855.256	4523
855.39	4660
855.524	4774
855.658	4706
855.792	4683
855.926	4694
856.06	4824
856.194	4816
856.327	4683
856.461	4611
856.595	4607
856.729	4641
856.862	4687
856.996	4679
857.13	4706
857.263	4736
857.397	4793
857.53	4596
857.664	4691
857.797	4748
857.931	4736
858.064	4687
858.197	4706
858.331	4675
858.464	4672
858.597	4523
858.731	4630
858.864	4637
858.997	4630
859.13	4634
859.263	4668
859.396	4694
859.529	4546
859.662	4558
859.795	4546
859.928	4641
860.061	4725
860.194	4752
860.327	4618
860.46	4588
860.592	4687
860.725	4698
860.858	4706
860.99	4546
861.123	4474
861.256	4573
861.388	4637
861.521	5448
861.653	4523
861.786	4432
861.918	4485
862.05	4512
862.183	4558
862.315	4561
862.447	4656
862.58	4554
862.712	4409
862.844	4325
862.976	4447
863.108	4402
863.24	4714
863.372	4329
863.504	4440
863.636	4440
863.768	4459
863.9	4428
864.032	4356
864.164	4409
864.296	4485
864.428	4592
864.559	4573
864.691	4531
864.823	4542
864.954	4485
865.086	4500
865.217	4451
865.349	4409
865.48	4516
865.612	4470
865.743	4592
865.875	4466
866.006	4394
866.137	4447
866.269	4443
866.4	4402
866.531	4390
866.662	4325
866.793	4375
866.924	4413
867.055	4523
867.186	4440
867.317	4421
867.448	4348
867.579	4394
867.71	4375
867.841	4341
867.972	4455
868.103	4417
868.233	4466
868.364	4436
868.495	4443
868.625	4668
868.756	4721
868.886	4558
869.017	4588
869.147	4759
869.278	4725
869.408	4630
869.539	4615
869.669	4710
869.799	4653
869.929	4790
870.06	4763
870.19	4961
870.32	4885
870.45	4961
870.58	4984
870.71	5094
870.84	5083
870.97	4949
871.1	4900
871.23	5143
871.36	5102
871.489	5006
871.619	5033
871.749	5060
871.879	5162
872.008	5132
872.138	5029
872.267	4991
872.397	4831
872.526	4809
872.656	4717
872.785	4790
872.915	4972
873.044	5060
873.173	4942
873.303	4984
873.432	4927
873.561	4953
873.69	4885
873.819	4809
873.948	4896
874.077	4854
874.206	4805
874.335	4771
874.464	4919
874.593	5037
874.722	5003
874.851	5124
874.979	5086
875.108	5064
875.237	4919
875.365	4896
875.494	4892
875.623	4980
875.751	4820
875.88	4896
876.008	5010
876.136	5067
876.265	5159
876.393	5326
876.521	5334
876.65	5216
876.778	5151
876.906	5113
877.034	4987
877.162	5056
877.29	4961
877.418	5025
877.546	5067
877.674	5098
877.802	4991
877.93	5041
878.058	4927
878.185	4892
878.313	4980
878.441	4968
878.568	4774
878.696	4885
878.824	4984
878.951	4965
879.079	5140
879.206	5330
879.333	5109
879.461	4991
879.588	5010
879.715	5124
879.842	5220
879.97	4984
880.097	4793
880.224	4755
880.351	4790
880.478	4843
880.605	4816
880.732	4805
880.859	5094
880.986	4919
881.112	4908
881.239	4755
881.366	4694
881.493	4596
881.619	4535
881.746	4641
881.872	4561
881.999	4660
882.125	4672
882.252	4778
882.378	4816
882.505	4938
882.631	4801
882.757	4675
882.883	4748
883.01	4710
883.136	4626
883.262	4592
883.388	4672
883.514	4858
883.64	4900
883.766	4816
883.892	4679
884.018	4698
884.143	4892
884.269	5010
884.395	4668
884.52	4660
884.646	4679
884.772	4573
884.897	4599
885.023	4660
885.148	4771
885.274	4816
885.399	4797
885.524	4740
885.65	4714
885.775	4691
885.9	4714
886.025	4858
886.15	4786
886.275	4717
886.4	4660
886.525	4698
886.65	4653
886.775	4691
886.9	4885
887.025	5014
887.149	4824
887.274	4675
887.399	4580
887.523	4580
887.648	4565
887.773	4596
887.897	4793
888.021	4725
888.146	4736
888.27	4809
888.395	4911
888.519	4797
888.643	4870
888.767	4805
888.891	4710
889.015	4588
889.139	4664
889.263	4611
889.387	4786
889.511	4847
889.635	4801
889.759	4580
889.883	4675
890.006	4672
890.13	4824
890.254	4599
890.377	4729
890.501	4512
890.624	4546
890.748	4626
890.871	4535
890.995	4447
891.118	4409
891.241	4512
891.364	4546
891.488	4660
891.611	4462
891.734	4500
891.857	4577
891.98	4573
892.103	4710
892.226	4592
892.349	4485
892.471	4440
892.594	4573
892.717	4630
892.839	4538
892.962	4577
893.085	4630
893.207	4611
893.33	4432
893.452	4531
893.575	4710
893.697	4569
893.819	4778
893.941	4820
894.064	4778
894.186	4561
894.308	4580
894.43	4706
894.552	4862
894.674	4797
894.796	4584
894.918	4573
895.04	4580
895.161	4683
895.283	4664
895.405	4622
895.526	4626
895.648	4683
895.769	4698
895.891	4694
896.012	4729
896.134	4721
896.255	4641
896.376	4630
896.498	4596
896.619	4664
896.74	4607
896.861	4702
896.982	4923
897.103	5041
897.224	4873
897.345	4721
897.466	4641
897.587	4706
897.708	4831
897.828	4767
897.949	4668
898.07	4607
898.19	4653
898.311	4782
898.431	4656
898.552	4733
898.672	4816
898.792	4767
898.913	4736
899.033	4607
899.153	4516
899.273	4428
899.393	4493
899.513	4508
899.633	4508
899.753	4554
899.873	4478
899.993	4542
900.113	4535
900.232	4588
900.352	4580
900.472	4466
900.591	4379
900.711	4497
900.83	4402
900.95	4599
901.069	4668
901.189	4584
901.308	4383
901.427	4314
901.546	4356
901.665	4459
901.784	4542
901.904	4360
902.023	4325
902.141	4207
902.26	4154
902.379	4322
902.498	4219
902.617	4249
902.735	4367
902.854	4421
902.973	4325
903.091	4188
903.21	4181
903.328	4322
903.446	4268
903.565	4276
903.683	4375
903.801	4257
903.919	4375
904.038	4421
904.156	4341
904.274	4474
904.392	4386
904.51	4402
904.627	4481
904.745	4596
904.863	4675
904.981	4360
905.098	4257
905.216	4322
905.334	4447
905.451	4375
905.569	4432
905.686	4542
905.803	4584
905.921	4409
906.038	4592
906.155	4485
906.272	4348
906.389	4432
906.506	4383
906.623	4363
906.74	4417
906.857	4322
906.974	4367
907.091	4580
907.208	4668
907.324	4611
907.441	4508
907.557	4344
907.674	4352
907.79	4318
907.907	4398
908.023	4497
908.139	4466
908.256	4428
908.372	4455
908.488	4432
908.604	4352
908.72	4299
908.836	4337
908.952	4341
909.068	4462
909.184	4561
909.3	4504
909.415	4622
909.531	4569
909.647	4341
909.762	4337
909.878	4363
909.993	4417
910.108	4413
910.224	4417
910.339	4478
910.454	4398
910.57	4367
910.685	4280
910.8	4641
910.915	4607
911.03	4493
911.145	4360
911.259	4337
911.374	4371
911.489	4257
911.604	4242
911.718	4169
911.833	4192
911.947	4116
912.062	4063
912.176	4173
912.291	4196
912.405	4234
912.519	4455
912.633	4546
912.748	4424
912.862	4322
912.976	4204
913.09	4109
913.204	4147
913.318	4272
913.431	4367
913.545	4363
913.659	4489
913.772	4356
913.886	4227
914	4223
914.113	4383
914.226	4367
914.34	4394
914.453	4268
914.566	4405
914.68	4291
914.793	4348
914.906	4109
915.019	4166
915.132	4048
915.245	4173
915.358	4253
915.47	4219
915.583	4257
915.696	4333
915.809	4398
915.921	4417
916.034	4268
916.146	4265
916.259	4249
916.371	4383
916.483	4409
916.595	4238
916.708	4306
916.82	4329
916.932	4284
917.044	4375
917.156	4322
917.268	4204
917.38	4246
917.491	4303
917.603	4341
917.715	4436
917.826	4459
917.938	4333
918.049	4249
918.161	4371
918.272	4554
918.384	4569
918.495	4455
918.606	4287
918.717	4223
918.828	4287
918.939	4363
919.05	4257
919.161	4303
919.272	4150
919.383	4242
919.494	4421
919.604	4630
919.715	4432
919.826	4409
919.936	4402
920.047	4535
920.157	4512
920.267	4706
920.378	4569
920.488	4481
920.598	4714
920.708	4908
920.818	4767
920.928	4721
921.038	4961
921.148	4934
921.258	4645
921.368	4580
921.477	4466
921.587	4466
921.697	4348
921.806	4531
921.916	4417
922.025	4306
922.134	4242
922.244	4261
922.353	4318
922.462	4150
922.571	4143
922.68	3994
922.789	4006
922.898	4032
923.007	3975
923.116	4078
923.224	4093
923.333	4074
923.442	3987
923.55	3979
923.659	4006
923.767	4131
923.876	4006
923.984	4124
924.092	3998
924.201	4116
924.309	4101
924.417	4143
924.525	4078
924.633	4090
924.741	5105
924.849	3896
924.956	4139
925.064	3949
925.172	3922
925.279	3960
925.387	4048
925.494	4067
925.602	4219
925.709	4135
925.816	4048
925.924	4139
926.031	4234
926.138	4227
926.245	4234
926.352	4067
926.459	4268
926.566	4295
926.673	4162
926.779	4082
926.886	4067
926.993	3953
927.099	3941
927.206	3907
927.312	3937
927.419	4017
927.525	4006
927.631	4086
927.737	3945
927.843	3960
927.95	3800
928.056	3926
928.162	3964
928.267	4082
928.373	4577
928.479	4090
928.585	3892
928.69	3983
928.796	4090
928.901	3972
929.007	3850
929.112	3979
929.218	3979
929.323	3953
929.428	3994
929.533	4116
929.638	3922
929.743	3934
929.848	4093
929.953	3991
930.058	3918
930.163	3789
930.267	3823
930.372	3930
930.477	3827
930.581	4082
930.685	3922
930.79	3793
930.894	3903
930.998	3869
931.103	4036
931.207	3717
931.311	3709
931.415	3679
931.519	3553
931.623	3534
