Data from test_V78500241_1314.txt Node
Date: Fri Mar 25 16:58:08 CST 2022
User: usil
Spectrometer: V785-0024
Trigger mode: 0
Integration Time (sec): 4.000000E-1
Scans to average: 1
Nonlinearity correction enabled: false
Boxcar width: 0
Storing dark spectrum: false
XAxis mode: Wavelengths
Number of Pixels in Spectrum: 1024
>>>>>Begin Spectral Data<<<<<
801.071	7997
801.214	8027
801.356	7879
801.499	7868
801.641	7822
801.783	7712
801.926	7883
802.068	7940
802.211	8046
802.353	7932
802.496	7841
802.638	7913
802.78	7936
802.923	7967
803.065	7898
803.208	7856
803.35	7967
803.492	8130
803.635	8168
803.777	8081
803.919	8130
804.061	8469
804.204	8130
804.346	8111
804.488	7936
804.63	8092
804.773	8054
804.915	8123
805.057	8347
805.199	8115
805.341	8214
805.483	8305
805.626	8237
805.768	8210
805.91	8237
806.052	8282
806.194	8176
806.336	8290
806.478	8081
806.62	8039
806.762	8126
806.904	8301
807.046	8415
807.188	8377
807.33	8290
807.472	8324
807.614	8157
807.756	8161
807.898	8035
808.04	7856
808.182	7947
808.324	7887
808.465	7932
808.607	8096
808.749	8100
808.891	8176
809.033	8317
809.174	8134
809.316	7982
809.458	8096
809.6	7944
809.741	8008
809.883	8062
810.025	8073
810.166	8111
810.308	7993
810.45	8054
810.591	7928
810.733	7696
810.875	7700
811.016	7533
811.158	7480
811.299	7601
811.441	7731
811.582	7708
811.724	7590
811.865	7529
812.007	7540
812.148	7639
812.29	7616
812.431	7715
812.573	7833
812.714	7963
812.855	8084
812.997	8218
813.138	8328
813.279	8202
813.421	8092
813.562	8058
813.703	7871
813.845	7738
813.986	7419
814.127	7274
814.268	7282
814.41	7194
814.551	7133
814.692	7171
814.833	7088
814.974	7050
815.115	7057
815.256	6985
815.397	6897
815.539	6970
815.68	6840
815.821	6760
815.962	6897
816.103	6783
816.244	6734
816.385	6627
816.526	6532
816.666	6464
816.807	6342
816.948	6471
817.089	6460
817.23	6433
817.371	6342
817.512	6395
817.653	6384
817.793	6353
817.934	6388
818.075	6395
818.216	6395
818.356	6350
818.497	6266
818.638	6175
818.778	6178
818.919	6106
819.06	6190
819.2	6342
819.341	6338
819.481	6395
819.622	6528
819.762	6726
819.903	6688
820.043	6525
820.184	6608
820.324	6536
820.465	6715
820.605	6650
820.746	6574
820.886	6471
821.026	6604
821.167	6662
821.307	6753
821.447	6779
821.588	6608
821.728	6536
821.868	6460
822.008	6289
822.149	6372
822.289	6331
822.429	6152
822.569	6057
822.709	6072
822.849	5851
822.99	5908
823.13	5832
823.27	5855
823.41	5733
823.55	5779
823.69	5767
823.83	5767
823.97	5653
824.11	5535
824.25	5551
824.389	5547
824.529	5581
824.669	5486
824.809	5604
824.949	5676
825.089	5596
825.228	5558
825.368	5406
825.508	5353
825.648	5357
825.787	5357
825.927	5406
826.067	5318
826.206	5322
826.346	5391
826.485	5364
826.625	5383
826.765	5490
826.904	5402
827.044	5265
827.183	5197
827.323	5143
827.462	5246
827.601	5109
827.741	5193
827.88	5162
828.02	5132
828.159	5265
828.298	5273
828.437	5345
828.577	5280
828.716	5497
828.855	5280
828.994	5113
829.134	5185
829.273	5189
829.412	5105
829.551	5124
829.69	5181
829.829	5242
829.968	5414
830.107	5212
830.246	5299
830.385	5178
830.524	5064
830.663	5010
830.802	4987
830.941	4854
831.08	4908
831.219	4957
831.357	4961
831.496	5151
831.635	4904
831.774	4797
831.913	4778
832.051	4687
832.19	4729
832.329	4820
832.467	4672
832.606	4675
832.744	4752
832.883	4736
833.022	4664
833.16	4748
833.299	4831
833.437	4793
833.576	4835
833.714	4828
833.852	4839
833.991	4927
834.129	4900
834.267	4927
834.406	4870
834.544	4968
834.682	4953
834.821	4961
834.959	5083
835.097	4980
835.235	5151
835.373	5102
835.511	5071
835.65	4968
835.788	4987
835.926	4854
836.064	4820
836.202	4889
836.34	5155
836.478	5204
836.615	5060
836.753	5181
836.891	5235
837.029	5250
837.167	5178
837.305	5166
837.443	5121
837.58	5048
837.718	5261
837.856	5147
837.993	5056
838.131	5174
838.269	5189
838.406	5204
838.544	5204
838.681	5071
838.819	4991
838.956	4866
839.094	4908
839.231	4965
839.369	5086
839.506	5410
839.643	5246
839.781	5060
839.918	4991
840.055	5067
840.193	5067
840.33	5071
840.467	5090
840.604	5155
840.742	5379
840.879	5033
841.016	5090
841.153	5102
841.29	5345
841.427	5318
841.564	5311
841.701	5383
841.838	5239
841.975	5201
842.112	5299
842.249	5181
842.385	5075
842.522	5337
842.659	5117
842.796	5170
842.933	5227
843.069	5155
843.206	5162
843.343	5254
843.479	5235
843.616	5292
843.752	5033
843.889	4968
844.025	5212
844.162	5045
844.298	5174
844.435	5098
844.571	5045
844.708	5174
844.844	5334
844.98	5315
845.117	5284
845.253	5079
845.389	5037
845.525	5170
845.661	5086
845.798	4995
845.934	5098
846.07	5056
846.206	5208
846.342	5261
846.478	5185
846.614	5018
846.75	4938
846.886	4911
847.022	5121
847.158	5022
847.294	5025
847.429	5086
847.565	5041
847.701	5280
847.837	4839
847.972	4778
848.108	4965
848.244	4938
848.379	4763
848.515	4710
848.65	4752
848.786	4752
848.921	4733
849.057	4824
849.192	4908
849.328	4793
849.463	4843
849.598	4797
849.734	4729
849.869	4675
850.004	4641
850.14	4641
850.275	4615
850.41	4519
850.545	4538
850.68	4592
850.815	4584
850.95	4641
851.085	4847
851.22	4774
851.355	4668
851.49	4634
851.625	4622
851.76	4634
851.895	4538
852.03	4550
852.165	4649
852.299	4706
852.434	4816
852.569	4748
852.703	4763
852.838	4828
852.973	4889
853.107	4900
853.242	4668
853.376	4656
853.511	4516
853.645	4569
853.78	4816
853.914	4645
854.048	4656
854.183	4618
854.317	4668
854.451	4805
854.585	4710
854.72	4603
854.854	4759
854.988	4611
855.122	4615
855.256	4527
855.39	4626
855.524	4740
855.658	4679
855.792	4683
855.926	4725
856.06	4763
856.194	4786
856.327	4691
856.461	4558
856.595	4577
856.729	4611
856.862	4763
856.996	4596
857.13	4679
857.263	4771
857.397	4790
857.53	4599
857.664	4691
857.797	4725
857.931	4782
858.064	4675
858.197	4664
858.331	4687
858.464	4634
858.597	4481
858.731	4637
858.864	4626
858.997	4577
859.13	4664
859.263	4653
859.396	4729
859.529	4596
859.662	4546
859.795	4558
859.928	4656
860.061	4691
860.194	4793
860.327	4603
860.46	4565
860.592	4729
860.725	4668
860.858	4729
860.99	4580
861.123	4516
861.256	4519
861.388	4546
861.521	5136
861.653	4440
861.786	4405
861.918	4474
862.05	4474
862.183	4531
862.315	4596
862.447	4611
862.58	4531
862.712	4402
862.844	4295
862.976	4440
863.108	4443
863.24	4847
863.372	4325
863.504	4363
863.636	4421
863.768	4466
863.9	4371
864.032	4398
864.164	4394
864.296	4455
864.428	4516
864.559	4527
864.691	4508
864.823	4546
864.954	4481
865.086	4493
865.217	4485
865.349	4348
865.48	4459
865.612	4500
865.743	4615
865.875	4478
866.006	4447
866.137	4428
866.269	4443
866.4	4455
866.531	4424
866.662	4394
866.793	4371
866.924	4363
867.055	4512
867.186	4455
867.317	4386
867.448	4344
867.579	4360
867.71	4421
867.841	4383
867.972	4421
868.103	4447
868.233	4432
868.364	4470
868.495	4493
868.625	4649
868.756	4748
868.886	4500
869.017	4607
869.147	4733
869.278	4755
869.408	4615
869.539	4550
869.669	4702
869.799	4649
869.929	4687
870.06	4748
870.19	4927
870.32	4877
870.45	4892
870.58	4938
870.71	5124
870.84	5060
870.97	4927
871.1	4873
871.23	5102
871.36	5102
871.489	5006
871.619	5052
871.749	5060
871.879	5102
872.008	5155
872.138	5025
872.267	4946
872.397	4824
872.526	4824
872.656	4664
872.785	4786
872.915	4949
873.044	4965
873.173	4934
873.303	4927
873.432	4915
873.561	4934
873.69	4862
873.819	4839
873.948	4938
874.077	4786
874.206	4786
874.335	4740
874.464	4942
874.593	5045
874.722	4972
874.851	5094
874.979	5048
875.108	5025
875.237	4934
875.365	4877
875.494	4850
875.623	4999
875.751	4820
875.88	4873
876.008	4949
876.136	5003
876.265	5212
876.393	5318
876.521	5220
876.65	5231
876.778	5132
876.906	5090
877.034	5090
877.162	4999
877.29	5037
877.418	5033
877.546	4991
877.674	4980
877.802	5003
877.93	5025
878.058	4938
878.185	4828
878.313	4942
878.441	4911
878.568	4801
878.696	4862
878.824	4953
878.951	4976
879.079	5178
879.206	5311
879.333	5128
879.461	5006
879.588	5003
879.715	5159
879.842	5223
879.97	5033
880.097	4771
880.224	4691
880.351	4809
880.478	4835
880.605	4755
880.732	4805
880.859	5075
880.986	4889
881.112	4923
881.239	4771
881.366	4691
881.493	4546
881.619	4641
881.746	4656
881.872	4618
881.999	4622
882.125	4706
882.252	4725
882.378	4835
882.505	4919
882.631	4831
882.757	4649
882.883	4714
883.01	4748
883.136	4622
883.262	4618
883.388	4653
883.514	4790
883.64	4862
883.766	4759
883.892	4706
884.018	4714
884.143	4885
884.269	5048
884.395	4626
884.52	4607
884.646	4592
884.772	4577
884.897	4584
885.023	4615
885.148	4809
885.274	4915
885.399	4778
885.524	4687
885.65	4706
885.775	4714
885.9	4664
886.025	4828
886.15	4752
886.275	4755
886.4	4649
886.525	4733
886.65	4675
886.775	4653
886.9	4870
887.025	5067
887.149	4824
887.274	4664
887.399	4573
887.523	4577
887.648	4569
887.773	4538
887.897	4714
888.021	4729
888.146	4694
888.27	4797
888.395	4870
888.519	4828
888.643	4854
888.767	4797
888.891	4672
889.015	4584
889.139	4592
889.263	4622
889.387	4721
889.511	4850
889.635	4767
889.759	4611
889.883	4641
890.006	4714
890.13	4812
890.254	4607
890.377	4649
890.501	4508
890.624	4527
890.748	4656
890.871	4527
890.995	4405
891.118	4371
891.241	4516
891.364	4538
891.488	4592
891.611	4481
891.734	4535
891.857	4618
891.98	4538
892.103	4634
892.226	4573
892.349	4519
892.471	4462
892.594	4500
892.717	4596
892.839	4558
892.962	4584
893.085	4656
893.207	4569
893.33	4447
893.452	4538
893.575	4626
893.697	4607
893.819	4831
893.941	4847
894.064	4759
894.186	4538
894.308	4546
894.43	4675
894.552	4812
894.674	4752
894.796	4569
894.918	4558
895.04	4542
895.161	4725
895.283	4611
895.405	4550
895.526	4675
895.648	4694
895.769	4618
895.891	4721
896.012	4710
896.134	4759
896.255	4683
896.376	4637
896.498	4607
896.619	4679
896.74	4603
896.861	4626
896.982	4896
897.103	5060
897.224	4816
897.345	4721
897.466	4641
897.587	4744
897.708	4797
897.828	4786
897.949	4637
898.07	4538
898.19	4630
898.311	4812
898.431	4660
898.552	4702
898.672	4782
898.792	4740
898.913	4771
899.033	4611
899.153	4478
899.273	4405
899.393	4493
899.513	4508
899.633	4512
899.753	4523
899.873	4531
899.993	4558
900.113	4580
900.232	4500
900.352	4550
900.472	4466
900.591	4371
900.711	4493
900.83	4421
900.95	4607
901.069	4649
901.189	4573
901.308	4367
901.427	4337
901.546	4360
901.665	4462
901.784	4493
901.904	4337
902.023	4287
902.141	4154
902.26	4162
902.379	4322
902.498	4242
902.617	4246
902.735	4371
902.854	4375
902.973	4356
903.091	4215
903.21	4227
903.328	4318
903.446	4265
903.565	4230
903.683	4417
903.801	4249
903.919	4436
904.038	4409
904.156	4287
904.274	4436
904.392	4383
904.51	4398
904.627	4478
904.745	4558
904.863	4588
904.981	4390
905.098	4234
905.216	4352
905.334	4386
905.451	4413
905.569	4436
905.686	4565
905.803	4542
905.921	4379
906.038	4527
906.155	4474
906.272	4371
906.389	4424
906.506	4299
906.623	4329
906.74	4413
906.857	4265
906.974	4360
907.091	4546
907.208	4615
907.324	4611
907.441	4497
907.557	4360
907.674	4325
907.79	4337
907.907	4402
908.023	4504
908.139	4436
908.256	4421
908.372	4466
908.488	4466
908.604	4318
908.72	4337
908.836	4375
908.952	4386
909.068	4436
909.184	4527
909.3	4451
909.415	4577
909.531	4573
909.647	4367
909.762	4383
909.878	4318
909.993	4474
910.108	4379
910.224	4440
910.339	4470
910.454	4432
910.57	4344
910.685	4265
910.8	4615
910.915	4558
911.03	4478
911.145	4303
911.259	4306
911.374	4360
911.489	4265
911.604	4249
911.718	4166
911.833	4162
911.947	4090
912.062	4055
912.176	4169
912.291	4204
912.405	4215
912.519	4493
912.633	4493
912.748	4375
912.862	4318
912.976	4207
913.09	4040
913.204	4154
913.318	4242
913.431	4386
913.545	4333
913.659	4417
913.772	4360
913.886	4238
914	4215
914.113	4363
914.226	4443
914.34	4398
914.453	4204
914.566	4436
914.68	4314
914.793	4344
914.906	4150
915.019	4105
915.132	4086
915.245	4166
915.358	4185
915.47	4230
915.583	4284
915.696	4337
915.809	4375
915.921	4424
916.034	4257
916.146	4249
916.259	4200
916.371	4383
916.483	4383
916.595	4257
916.708	4306
916.82	4299
916.932	4333
917.044	4356
917.156	4314
917.268	4249
917.38	4265
917.491	4234
917.603	4352
917.715	4432
917.826	4424
917.938	4356
918.049	4227
918.161	4363
918.272	4535
918.384	4535
918.495	4466
918.606	4261
918.717	4223
918.828	4322
918.939	4360
919.05	4272
919.161	4306
919.272	4139
919.383	4238
919.494	4428
919.604	4584
919.715	4390
919.826	4367
919.936	4371
920.047	4500
920.157	4497
920.267	4683
920.378	4519
920.488	4470
920.598	4702
920.708	4870
920.818	4725
920.928	4717
921.038	4949
921.148	4911
921.258	4603
921.368	4550
921.477	4527
921.587	4470
921.697	4318
921.806	4485
921.916	4440
922.025	4280
922.134	4268
922.244	4219
922.353	4325
922.462	4143
922.571	4147
922.68	4017
922.789	3949
922.898	4032
923.007	3968
923.116	4067
923.224	4059
923.333	4112
923.442	3960
923.55	3994
923.659	4051
923.767	4105
923.876	4025
923.984	4120
924.092	3960
924.201	4124
924.309	4074
924.417	4139
924.525	4036
924.633	4051
924.741	4843
924.849	3896
924.956	4181
925.064	3975
925.172	3915
925.279	3945
925.387	4067
925.494	4021
925.602	4223
925.709	4154
925.816	3987
925.924	4150
926.031	4162
926.138	4120
926.245	4227
926.352	4109
926.459	4284
926.566	4318
926.673	4143
926.779	4071
926.886	4074
926.993	3979
927.099	3975
927.206	3911
927.312	3949
927.419	4074
927.525	4063
927.631	4105
927.737	3941
927.843	3941
927.95	3827
928.056	3975
928.162	3991
928.267	4101
928.373	4679
928.479	4097
928.585	3857
928.69	4036
928.796	4082
928.901	3964
929.007	3842
929.112	4010
929.218	3918
929.323	3911
929.428	3937
929.533	4135
929.638	3907
929.743	3968
929.848	4051
929.953	3991
930.058	3918
930.163	3766
930.267	3789
930.372	3987
930.477	3838
930.581	4093
930.685	3926
930.79	3827
930.894	3907
930.998	3797
931.103	4036
931.207	3713
931.311	3679
931.415	3701
931.519	3515
931.623	3530
