Data from test_V78500241_1806.txt Node
Date: Fri Mar 25 17:01:33 CST 2022
User: usil
Spectrometer: V785-0024
Trigger mode: 0
Integration Time (sec): 4.000000E-1
Scans to average: 1
Nonlinearity correction enabled: false
Boxcar width: 0
Storing dark spectrum: false
XAxis mode: Wavelengths
Number of Pixels in Spectrum: 1024
>>>>>Begin Spectral Data<<<<<
801.071	7974
801.214	8001
801.356	7871
801.499	7864
801.641	7727
801.783	7734
801.926	8005
802.068	7936
802.211	8012
802.353	8027
802.496	7864
802.638	7833
802.78	7913
802.923	7879
803.065	7845
803.208	7784
803.35	7928
803.492	7997
803.635	8069
803.777	8008
803.919	8145
804.061	8393
804.204	8202
804.346	8084
804.488	7913
804.63	8084
804.773	8031
804.915	8027
805.057	8317
805.199	8081
805.341	8145
805.483	8271
805.626	8180
805.768	8069
805.91	8218
806.052	8229
806.194	8123
806.336	8248
806.478	8103
806.62	8031
806.762	8096
806.904	8267
807.046	8530
807.188	8355
807.33	8298
807.472	8233
807.614	8161
807.756	8115
807.898	8043
808.04	7902
808.182	7860
808.324	7887
808.465	7921
808.607	8065
808.749	8100
808.891	8191
809.033	8279
809.174	8195
809.316	8054
809.458	8024
809.6	7989
809.741	8024
809.883	8012
810.025	8123
810.166	8043
810.308	8027
810.45	7993
810.591	7913
810.733	7662
810.875	7647
811.016	7559
811.158	7476
811.299	7529
811.441	7655
811.582	7597
811.724	7601
811.865	7525
812.007	7666
812.148	7544
812.29	7624
812.431	7750
812.573	7898
812.714	7986
812.855	8111
812.997	8157
813.138	8259
813.279	8191
813.421	8054
813.562	7963
813.703	7883
813.845	7738
813.986	7419
814.127	7274
814.268	7160
814.41	7206
814.551	7160
814.692	7213
814.833	7133
814.974	7057
815.115	7137
815.256	6993
815.397	6947
815.539	6913
815.68	6776
815.821	6711
815.962	6894
816.103	6802
816.244	6738
816.385	6597
816.526	6627
816.666	6479
816.807	6323
816.948	6433
817.089	6456
817.23	6437
817.371	6369
817.512	6311
817.653	6353
817.793	6331
817.934	6403
818.075	6448
818.216	6407
818.356	6399
818.497	6232
818.638	6106
818.778	6186
818.919	6133
819.06	6083
819.2	6319
819.341	6281
819.481	6372
819.622	6525
819.762	6764
819.903	6730
820.043	6623
820.184	6555
820.324	6532
820.465	6650
820.605	6684
820.746	6642
820.886	6582
821.026	6654
821.167	6700
821.307	6768
821.447	6795
821.588	6700
821.728	6570
821.868	6483
822.008	6243
822.149	6357
822.289	6369
822.429	6163
822.569	6148
822.709	6125
822.849	5908
822.99	5882
823.13	5942
823.27	5984
823.41	5771
823.55	5767
823.69	5741
823.83	5741
823.97	5688
824.11	5505
824.25	5554
824.389	5570
824.529	5592
824.669	5509
824.809	5600
824.949	5699
825.089	5611
825.228	5551
825.368	5417
825.508	5292
825.648	5360
825.787	5395
825.927	5379
826.067	5296
826.206	5273
826.346	5414
826.485	5357
826.625	5391
826.765	5524
826.904	5482
827.044	5212
827.183	5201
827.323	5212
827.462	5261
827.601	5181
827.741	5269
827.88	5284
828.02	5128
828.159	5261
828.298	5318
828.437	5368
828.577	5326
828.716	5535
828.855	5353
828.994	5155
829.134	5185
829.273	5181
829.412	5246
829.551	5136
829.69	5185
829.829	5254
829.968	5425
830.107	5330
830.246	5307
830.385	5216
830.524	5227
830.663	5048
830.802	5041
830.941	4908
831.08	4946
831.219	5025
831.357	4987
831.496	5201
831.635	4972
831.774	4915
831.913	4854
832.051	4797
832.19	4824
832.329	4908
832.467	4740
832.606	4653
832.744	4714
832.883	4782
833.022	4771
833.16	4805
833.299	4877
833.437	4847
833.576	4854
833.714	4801
833.852	4919
833.991	4927
834.129	4976
834.267	4984
834.406	4915
834.544	5003
834.682	4987
834.821	5025
834.959	5185
835.097	5033
835.235	5174
835.373	5121
835.511	5136
835.65	5086
835.788	4995
835.926	4949
836.064	4900
836.202	4949
836.34	5212
836.478	5269
836.615	5124
836.753	5235
836.891	5307
837.029	5303
837.167	5212
837.305	5189
837.443	5174
837.58	5147
837.718	5216
837.856	5162
837.993	5189
838.131	5254
838.269	5265
838.406	5181
838.544	5197
838.681	4999
838.819	5048
838.956	4930
839.094	4908
839.231	5037
839.369	5136
839.506	5436
839.643	5364
839.781	5067
839.918	5056
840.055	5128
840.193	5109
840.33	5121
840.467	5216
840.604	5201
840.742	5474
840.879	5105
841.016	5052
841.153	5181
841.29	5414
841.427	5349
841.564	5360
841.701	5357
841.838	5307
841.975	5299
842.112	5250
842.249	5250
842.385	5143
842.522	5330
842.659	5246
842.796	5170
842.933	5185
843.069	5128
843.206	5181
843.343	5326
843.479	5242
843.616	5292
843.752	5037
843.889	5071
844.025	5223
844.162	5090
844.298	5197
844.435	5083
844.571	5060
844.708	5227
844.844	5273
844.98	5395
845.117	5337
845.253	5235
845.389	5105
845.525	5136
845.661	5178
845.798	5132
845.934	5140
846.07	5060
846.206	5227
846.342	5337
846.478	5258
846.614	5033
846.75	4995
846.886	4984
847.022	5132
847.158	5048
847.294	5109
847.429	5181
847.565	5033
847.701	5326
847.837	4862
847.972	4831
848.108	4987
848.244	4991
848.379	4809
848.515	4744
848.65	4740
848.786	4774
848.921	4797
849.057	4885
849.192	4915
849.328	4850
849.463	4911
849.598	4877
849.734	4782
849.869	4706
850.004	4634
850.14	4675
850.275	4622
850.41	4565
850.545	4565
850.68	4691
850.815	4634
850.95	4668
851.085	4873
851.22	4809
851.355	4706
851.49	4668
851.625	4637
851.76	4641
851.895	4588
852.03	4558
852.165	4683
852.299	4744
852.434	4824
852.569	4733
852.703	4816
852.838	4858
852.973	4984
853.107	4961
853.242	4782
853.376	4691
853.511	4588
853.645	4653
853.78	4809
853.914	4736
854.048	4733
854.183	4645
854.317	4759
854.451	4850
854.585	4702
854.72	4664
854.854	4793
854.988	4584
855.122	4645
855.256	4546
855.39	4755
855.524	4755
855.658	4752
855.792	4721
855.926	4809
856.06	4752
856.194	4809
856.327	4679
856.461	4630
856.595	4607
856.729	4679
856.862	4771
856.996	4691
857.13	4755
857.263	4721
857.397	4812
857.53	4702
857.664	4725
857.797	4778
857.931	4809
858.064	4706
858.197	4714
858.331	4683
858.464	4649
858.597	4561
858.731	4710
858.864	4694
858.997	4634
859.13	4683
859.263	4656
859.396	4717
859.529	4599
859.662	4588
859.795	4584
859.928	4656
860.061	4812
860.194	4793
860.327	4626
860.46	4550
860.592	4763
860.725	4752
860.858	4710
860.99	4607
861.123	4527
861.256	4516
861.388	4618
861.521	5372
861.653	4512
861.786	4451
861.918	4485
862.05	4527
862.183	4565
862.315	4645
862.447	4694
862.58	4546
862.712	4402
862.844	4299
862.976	4500
863.108	4443
863.24	4904
863.372	4310
863.504	4489
863.636	4413
863.768	4504
863.9	4478
864.032	4390
864.164	4447
864.296	4485
864.428	4561
864.559	4618
864.691	4588
864.823	4546
864.954	4523
865.086	4565
865.217	4481
865.349	4436
865.48	4500
865.612	4550
865.743	4634
865.875	4516
866.006	4470
866.137	4512
866.269	4478
866.4	4504
866.531	4428
866.662	4375
866.793	4409
866.924	4470
867.055	4523
867.186	4497
867.317	4451
867.448	4443
867.579	4462
867.71	4405
867.841	4462
867.972	4451
868.103	4493
868.233	4428
868.364	4489
868.495	4470
868.625	4698
868.756	4793
868.886	4615
869.017	4668
869.147	4740
869.278	4767
869.408	4653
869.539	4653
869.669	4736
869.799	4679
869.929	4767
870.06	4755
870.19	4923
870.32	4915
870.45	4946
870.58	5018
870.71	5105
870.84	5102
870.97	4938
871.1	4923
871.23	5117
871.36	5155
871.489	5037
871.619	5086
871.749	5143
871.879	5174
872.008	5193
872.138	5052
872.267	4965
872.397	4889
872.526	4858
872.656	4782
872.785	4858
872.915	4968
873.044	5014
873.173	4999
873.303	4938
873.432	4984
873.561	4976
873.69	4919
873.819	4915
873.948	4953
874.077	4854
874.206	4793
874.335	4820
874.464	4961
874.593	5128
874.722	4965
874.851	5090
874.979	5048
875.108	5045
875.237	4968
875.365	4896
875.494	4919
875.623	4949
875.751	4873
875.88	4911
876.008	5006
876.136	5037
876.265	5242
876.393	5349
876.521	5296
876.65	5299
876.778	5189
876.906	5105
877.034	5010
877.162	5071
877.29	4968
877.418	5071
877.546	5041
877.674	5048
877.802	4999
877.93	5025
878.058	4949
878.185	4885
878.313	5025
878.441	4965
878.568	4843
878.696	4870
878.824	4987
878.951	5025
879.079	5105
879.206	5322
879.333	5117
879.461	5010
879.588	5022
879.715	5109
879.842	5212
879.97	5025
880.097	4820
880.224	4786
880.351	4843
880.478	4816
880.605	4797
880.732	4793
880.859	5094
880.986	4885
881.112	4911
881.239	4812
881.366	4691
881.493	4626
881.619	4653
881.746	4664
881.872	4645
881.999	4675
882.125	4725
882.252	4820
882.378	4828
882.505	4953
882.631	4771
882.757	4721
882.883	4767
883.01	4755
883.136	4679
883.262	4580
883.388	4641
883.514	4812
883.64	4870
883.766	4850
883.892	4721
884.018	4752
884.143	4949
884.269	5033
884.395	4687
884.52	4641
884.646	4634
884.772	4626
884.897	4641
885.023	4717
885.148	4771
885.274	4885
885.399	4831
885.524	4721
885.65	4679
885.775	4736
885.9	4763
886.025	4862
886.15	4812
886.275	4733
886.4	4691
886.525	4710
886.65	4740
886.775	4729
886.9	4889
887.025	5018
887.149	4809
887.274	4691
887.399	4607
887.523	4641
887.648	4592
887.773	4596
887.897	4774
888.021	4782
888.146	4702
888.27	4873
888.395	4911
888.519	4835
888.643	4809
888.767	4835
888.891	4691
889.015	4580
889.139	4687
889.263	4634
889.387	4767
889.511	4877
889.635	4843
889.759	4634
889.883	4656
890.006	4740
890.13	4816
890.254	4649
890.377	4694
890.501	4577
890.624	4542
890.748	4630
890.871	4527
890.995	4447
891.118	4375
891.241	4538
891.364	4538
891.488	4653
891.611	4489
891.734	4569
891.857	4611
891.98	4558
892.103	4641
892.226	4573
892.349	4531
892.471	4440
892.594	4538
892.717	4596
892.839	4538
892.962	4637
893.085	4599
893.207	4577
893.33	4493
893.452	4527
893.575	4687
893.697	4626
893.819	4797
893.941	4816
894.064	4748
894.186	4653
894.308	4561
894.43	4755
894.552	4862
894.674	4763
894.796	4519
894.918	4630
895.04	4615
895.161	4683
895.283	4706
895.405	4611
895.526	4611
895.648	4668
895.769	4733
895.891	4763
896.012	4793
896.134	4694
896.255	4679
896.376	4660
896.498	4637
896.619	4698
896.74	4656
896.861	4649
896.982	4938
897.103	5086
897.224	4854
897.345	4729
897.466	4691
897.587	4752
897.708	4839
897.828	4767
897.949	4645
898.07	4569
898.19	4649
898.311	4873
898.431	4706
898.552	4755
898.672	4847
898.792	4790
898.913	4767
899.033	4645
899.153	4512
899.273	4421
899.393	4489
899.513	4493
899.633	4512
899.753	4580
899.873	4561
899.993	4615
900.113	4561
900.232	4630
900.352	4573
900.472	4462
900.591	4421
900.711	4504
900.83	4470
900.95	4641
901.069	4668
901.189	4478
901.308	4390
901.427	4325
901.546	4417
901.665	4443
901.784	4531
901.904	4436
902.023	4333
902.141	4177
902.26	4177
902.379	4280
902.498	4276
902.617	4223
902.735	4367
902.854	4413
902.973	4344
903.091	4272
903.21	4268
903.328	4341
903.446	4265
903.565	4306
903.683	4379
903.801	4280
903.919	4402
904.038	4424
904.156	4348
904.274	4451
904.392	4428
904.51	4440
904.627	4462
904.745	4554
904.863	4660
904.981	4348
905.098	4306
905.216	4371
905.334	4424
905.451	4413
905.569	4402
905.686	4531
905.803	4577
905.921	4417
906.038	4565
906.155	4481
906.272	4428
906.389	4443
906.506	4337
906.623	4390
906.74	4409
906.857	4322
906.974	4356
907.091	4542
907.208	4637
907.324	4588
907.441	4542
907.557	4333
907.674	4325
907.79	4325
907.907	4402
908.023	4504
908.139	4470
908.256	4443
908.372	4474
908.488	4447
908.604	4352
908.72	4360
908.836	4356
908.952	4322
909.068	4474
909.184	4523
909.3	4500
909.415	4569
909.531	4577
909.647	4356
909.762	4371
909.878	4303
909.993	4424
910.108	4409
910.224	4432
910.339	4512
910.454	4390
910.57	4379
910.685	4314
910.8	4668
910.915	4618
911.03	4474
911.145	4314
911.259	4348
911.374	4386
911.489	4276
911.604	4318
911.718	4200
911.833	4227
911.947	4074
912.062	4055
912.176	4215
912.291	4219
912.405	4215
912.519	4459
912.633	4470
912.748	4386
912.862	4303
912.976	4234
913.09	4143
913.204	4150
913.318	4265
913.431	4360
913.545	4360
913.659	4466
913.772	4318
913.886	4196
914	4242
914.113	4390
914.226	4462
914.34	4394
914.453	4223
914.566	4390
914.68	4299
914.793	4318
914.906	4143
915.019	4173
915.132	4032
915.245	4188
915.358	4238
915.47	4261
915.583	4310
915.696	4299
915.809	4390
915.921	4375
916.034	4272
916.146	4238
916.259	4230
916.371	4390
916.483	4333
916.595	4268
916.708	4318
916.82	4371
916.932	4287
917.044	4322
917.156	4280
917.268	4257
917.38	4318
917.491	4261
917.603	4371
917.715	4424
917.826	4436
917.938	4348
918.049	4257
918.161	4440
918.272	4535
918.384	4512
918.495	4428
918.606	4344
918.717	4246
918.828	4322
918.939	4379
919.05	4276
919.161	4352
919.272	4101
919.383	4211
919.494	4424
919.604	4649
919.715	4424
919.826	4333
919.936	4394
920.047	4558
920.157	4485
920.267	4714
920.378	4558
920.488	4535
920.598	4672
920.708	4904
920.818	4771
920.928	4763
921.038	4946
921.148	4889
921.258	4634
921.368	4546
921.477	4481
921.587	4409
921.697	4390
921.806	4519
921.916	4421
922.025	4265
922.134	4227
922.244	4230
922.353	4322
922.462	4177
922.571	4162
922.68	3991
922.789	3979
922.898	4021
923.007	4006
923.116	4093
923.224	4055
923.333	4090
923.442	4002
923.55	3937
923.659	4051
923.767	4135
923.876	3994
923.984	4143
924.092	3964
924.201	4067
924.309	4093
924.417	4135
924.525	4036
924.633	4078
924.741	5025
924.849	3964
924.956	4109
925.064	3968
925.172	3911
925.279	3972
925.387	4021
925.494	4051
925.602	4223
925.709	4169
925.816	4025
925.924	4131
926.031	4253
926.138	4162
926.245	4211
926.352	4128
926.459	4268
926.566	4310
926.673	4181
926.779	4082
926.886	4063
926.993	3979
927.099	3953
927.206	3945
927.312	3945
927.419	4006
927.525	3983
927.631	4082
927.737	3975
927.843	3915
927.95	3850
928.056	3975
928.162	4021
928.267	4086
928.373	4584
928.479	4112
928.585	3819
928.69	4025
928.796	4078
928.901	3983
929.007	3865
929.112	4032
929.218	3934
929.323	3956
929.428	3941
929.533	4116
929.638	3915
929.743	3972
929.848	4078
929.953	4051
930.058	3922
930.163	3774
930.267	3823
930.372	3956
930.477	3819
930.581	4059
930.685	3956
930.79	3857
930.894	3903
930.998	3873
931.103	4074
931.207	3778
931.311	3637
931.415	3694
931.519	3538
931.623	3557
