Data from test_V78500241_114.txt Node
Date: Fri Mar 25 16:49:47 CST 2022
User: usil
Spectrometer: V785-0024
Trigger mode: 0
Integration Time (sec): 4.000000E-1
Scans to average: 1
Nonlinearity correction enabled: false
Boxcar width: 0
Storing dark spectrum: false
XAxis mode: Wavelengths
Number of Pixels in Spectrum: 1024
>>>>>Begin Spectral Data<<<<<
801.071	8126
801.214	7993
801.356	7925
801.499	7906
801.641	7792
801.783	7883
801.926	8020
802.068	7940
802.211	8020
802.353	7955
802.496	7928
802.638	7982
802.78	8001
802.923	7921
803.065	7879
803.208	7833
803.35	8012
803.492	8103
803.635	8138
803.777	7955
803.919	8027
804.061	8343
804.204	8115
804.346	8001
804.488	7909
804.63	8046
804.773	8020
804.915	8096
805.057	8320
805.199	8081
805.341	8187
805.483	8279
805.626	8240
805.768	8115
805.91	8145
806.052	8210
806.194	8138
806.336	8324
806.478	8081
806.62	8157
806.762	8138
806.904	8267
807.046	8522
807.188	8355
807.33	8328
807.472	8313
807.614	8157
807.756	8115
807.898	8012
808.04	7978
808.182	7890
808.324	7811
808.465	7932
808.607	8069
808.749	8100
808.891	8221
809.033	8320
809.174	8183
809.316	8077
809.458	8126
809.6	7959
809.741	8054
809.883	8092
810.025	8142
810.166	8107
810.308	8024
810.45	8050
810.591	7906
810.733	7807
810.875	7662
811.016	7563
811.158	7468
811.299	7643
811.441	7769
811.582	7712
811.724	7643
811.865	7597
812.007	7639
812.148	7605
812.29	7670
812.431	7807
812.573	7902
812.714	8043
812.855	8267
812.997	8309
813.138	8442
813.279	8275
813.421	8168
813.562	8054
813.703	7913
813.845	7799
813.986	7483
814.127	7312
814.268	7251
814.41	7247
814.551	7198
814.692	7232
814.833	7133
814.974	7126
815.115	7206
815.256	6989
815.397	6996
815.539	6981
815.68	6821
815.821	6825
815.962	6856
816.103	6840
816.244	6757
816.385	6612
816.526	6669
816.666	6528
816.807	6331
816.948	6521
817.089	6486
817.23	6544
817.371	6433
817.512	6433
817.653	6395
817.793	6395
817.934	6467
818.075	6517
818.216	6456
818.356	6452
818.497	6289
818.638	6175
818.778	6216
818.919	6209
819.06	6167
819.2	6388
819.341	6273
819.481	6407
819.622	6551
819.762	6711
819.903	6722
820.043	6616
820.184	6582
820.324	6566
820.465	6726
820.605	6715
820.746	6700
820.886	6585
821.026	6681
821.167	6764
821.307	6886
821.447	6806
821.588	6753
821.728	6642
821.868	6547
822.008	6391
822.149	6498
822.289	6414
822.429	6205
822.569	6121
822.709	6224
822.849	6022
822.99	5965
823.13	5958
823.27	5965
823.41	5824
823.55	5882
823.69	5851
823.83	5859
823.97	5748
824.11	5577
824.25	5596
824.389	5596
824.529	5649
824.669	5551
824.809	5653
824.949	5733
825.089	5703
825.228	5665
825.368	5463
825.508	5406
825.648	5433
825.787	5482
825.927	5417
826.067	5372
826.206	5398
826.346	5436
826.485	5486
826.625	5493
826.765	5627
826.904	5551
827.044	5330
827.183	5231
827.323	5246
827.462	5292
827.601	5261
827.741	5235
827.88	5284
828.02	5185
828.159	5227
828.298	5364
828.437	5452
828.577	5330
828.716	5539
828.855	5364
828.994	5208
829.134	5193
829.273	5227
829.412	5231
829.551	5170
829.69	5258
829.829	5326
829.968	5463
830.107	5322
830.246	5311
830.385	5269
830.524	5174
830.663	5113
830.802	5022
830.941	4942
831.08	4862
831.219	5079
831.357	5052
831.496	5227
831.635	4980
831.774	4862
831.913	4942
832.051	4786
832.19	4843
832.329	4942
832.467	4759
832.606	4740
832.744	4797
832.883	4778
833.022	4752
833.16	4870
833.299	4885
833.437	4847
833.576	4870
833.714	4946
833.852	4866
833.991	4953
834.129	5041
834.267	4995
834.406	4961
834.544	5052
834.682	5071
834.821	5033
834.959	5181
835.097	5045
835.235	5250
835.373	5162
835.511	5140
835.65	5071
835.788	5105
835.926	4972
836.064	4946
836.202	4999
836.34	5273
836.478	5318
836.615	5151
836.753	5307
836.891	5368
837.029	5315
837.167	5231
837.305	5231
837.443	5223
837.58	5170
837.718	5315
837.856	5239
837.993	5223
838.131	5269
838.269	5269
838.406	5311
838.544	5284
838.681	5128
838.819	5105
838.956	4984
839.094	4953
839.231	5014
839.369	5155
839.506	5512
839.643	5326
839.781	5113
839.918	5067
840.055	5159
840.193	5178
840.33	5151
840.467	5181
840.604	5208
840.742	5482
840.879	5189
841.016	5124
841.153	5197
841.29	5425
841.427	5383
841.564	5368
841.701	5406
841.838	5322
841.975	5299
842.112	5315
842.249	5178
842.385	5162
842.522	5398
842.659	5220
842.796	5208
842.933	5216
843.069	5201
843.206	5204
843.343	5345
843.479	5261
843.616	5284
843.752	5041
843.889	5094
844.025	5296
844.162	5105
844.298	5273
844.435	5140
844.571	5117
844.708	5246
844.844	5292
844.98	5368
845.117	5341
845.253	5212
845.389	5155
845.525	5220
845.661	5193
845.798	5060
845.934	5189
846.07	5143
846.206	5303
846.342	5337
846.478	5242
846.614	5105
846.75	5018
846.886	4984
847.022	5201
847.158	5025
847.294	5117
847.429	5143
847.565	5117
847.701	5425
847.837	4911
847.972	4911
848.108	5018
848.244	4995
848.379	4809
848.515	4748
848.65	4793
848.786	4790
848.921	4866
849.057	4934
849.192	4987
849.328	4847
849.463	4885
849.598	4877
849.734	4850
849.869	4710
850.004	4660
850.14	4706
850.275	4649
850.41	4577
850.545	4596
850.68	4752
850.815	4721
850.95	4675
851.085	4858
851.22	4812
851.355	4725
851.49	4622
851.625	4637
851.76	4675
851.895	4607
852.03	4596
852.165	4702
852.299	4736
852.434	4812
852.569	4771
852.703	4816
852.838	4915
852.973	5003
853.107	4934
853.242	4767
853.376	4729
853.511	4573
853.645	4653
853.78	4858
853.914	4736
854.048	4740
854.183	4717
854.317	4767
854.451	4896
854.585	4702
854.72	4668
854.854	4782
854.988	4668
855.122	4717
855.256	4573
855.39	4752
855.524	4862
855.658	4782
855.792	4740
855.926	4767
856.06	4793
856.194	4896
856.327	4691
856.461	4710
856.595	4607
856.729	4653
856.862	4820
856.996	4736
857.13	4740
857.263	4778
857.397	4881
857.53	4672
857.664	4733
857.797	4759
857.931	4873
858.064	4748
858.197	4824
858.331	4660
858.464	4668
858.597	4569
858.731	4683
858.864	4656
858.997	4664
859.13	4710
859.263	4710
859.396	4771
859.529	4603
859.662	4641
859.795	4592
859.928	4679
860.061	4801
860.194	4790
860.327	4626
860.46	4630
860.592	4790
860.725	4759
860.858	4748
860.99	4656
861.123	4558
861.256	4550
861.388	4664
861.521	5284
861.653	4508
861.786	4478
861.918	4466
862.05	4565
862.183	4637
862.315	4645
862.447	4694
862.58	4615
862.712	4440
862.844	4390
862.976	4516
863.108	4504
863.24	4923
863.372	4383
863.504	4379
863.636	4432
863.768	4504
863.9	4512
864.032	4440
864.164	4478
864.296	4561
864.428	4607
864.559	4565
864.691	4558
864.823	4588
864.954	4615
865.086	4554
865.217	4497
865.349	4459
865.48	4474
865.612	4569
865.743	4725
865.875	4554
866.006	4489
866.137	4512
866.269	4455
866.4	4478
866.531	4436
866.662	4432
866.793	4519
866.924	4424
867.055	4527
867.186	4485
867.317	4508
867.448	4428
867.579	4478
867.71	4455
867.841	4390
867.972	4493
868.103	4508
868.233	4516
868.364	4489
868.495	4554
868.625	4694
868.756	4771
868.886	4588
869.017	4698
869.147	4816
869.278	4809
869.408	4717
869.539	4759
869.669	4744
869.799	4706
869.929	4797
870.06	4771
870.19	5048
870.32	4961
870.45	4987
870.58	5079
870.71	5121
870.84	5102
870.97	5006
871.1	4961
871.23	5181
871.36	5151
871.489	5102
871.619	5105
871.749	5166
871.879	5185
872.008	5212
872.138	5098
872.267	5079
872.397	4904
872.526	4824
872.656	4744
872.785	4904
872.915	4987
873.044	5075
873.173	4968
873.303	4976
873.432	5006
873.561	4999
873.69	4927
873.819	4953
873.948	4961
874.077	4889
874.206	4862
874.335	4793
874.464	4946
874.593	5083
874.722	4991
874.851	5136
874.979	5113
875.108	5064
875.237	4938
875.365	4915
875.494	4934
875.623	5018
875.751	4847
875.88	4908
876.008	4991
876.136	5098
876.265	5208
876.393	5414
876.521	5235
876.65	5223
876.778	5178
876.906	5083
877.034	5045
877.162	5067
877.29	5037
877.418	5071
877.546	5132
877.674	5140
877.802	5060
877.93	5113
878.058	4949
878.185	4885
878.313	4984
878.441	5006
878.568	4843
878.696	4946
878.824	4953
878.951	5079
879.079	5170
879.206	5326
879.333	5136
879.461	5045
879.588	5033
879.715	5147
879.842	5269
879.97	5022
880.097	4843
880.224	4778
880.351	4812
880.478	4877
880.605	4835
880.732	4873
880.859	5105
880.986	4938
881.112	4965
881.239	4809
881.366	4664
881.493	4668
881.619	4641
881.746	4672
881.872	4691
881.999	4634
882.125	4755
882.252	4831
882.378	4839
882.505	4965
882.631	4839
882.757	4687
882.883	4797
883.01	4801
883.136	4702
883.262	4649
883.388	4653
883.514	4904
883.64	4923
883.766	4870
883.892	4679
884.018	4736
884.143	4911
884.269	5003
884.395	4710
884.52	4679
884.646	4691
884.772	4611
884.897	4538
885.023	4691
885.148	4854
885.274	4870
885.399	4828
885.524	4763
885.65	4710
885.775	4828
885.9	4748
886.025	4938
886.15	4854
886.275	4782
886.4	4679
886.525	4816
886.65	4763
886.775	4763
886.9	4877
887.025	5102
887.149	4831
887.274	4733
887.399	4607
887.523	4626
887.648	4679
887.773	4634
887.897	4748
888.021	4805
888.146	4721
888.27	4816
888.395	4949
888.519	4896
888.643	4843
888.767	4831
888.891	4714
889.015	4622
889.139	4691
889.263	4626
889.387	4835
889.511	4904
889.635	4866
889.759	4687
889.883	4649
890.006	4755
890.13	4862
890.254	4653
890.377	4702
890.501	4558
890.624	4508
890.748	4599
890.871	4519
890.995	4424
891.118	4337
891.241	4538
891.364	4607
891.488	4641
891.611	4519
891.734	4565
891.857	4634
891.98	4637
892.103	4653
892.226	4630
892.349	4569
892.471	4455
892.594	4554
892.717	4645
892.839	4573
892.962	4584
893.085	4672
893.207	4656
893.33	4478
893.452	4592
893.575	4698
893.697	4626
893.819	4873
893.941	4854
894.064	4736
894.186	4641
894.308	4592
894.43	4820
894.552	4908
894.674	4812
894.796	4599
894.918	4596
895.04	4577
895.161	4744
895.283	4744
895.405	4626
895.526	4672
895.648	4733
895.769	4672
895.891	4710
896.012	4740
896.134	4782
896.255	4710
896.376	4668
896.498	4672
896.619	4668
896.74	4656
896.861	4752
896.982	4987
897.103	5124
897.224	4854
897.345	4805
897.466	4733
897.587	4736
897.708	4889
897.828	4820
897.949	4782
898.07	4641
898.19	4687
898.311	4877
898.431	4679
898.552	4755
898.672	4885
898.792	4828
898.913	4793
899.033	4691
899.153	4523
899.273	4493
899.393	4519
899.513	4516
899.633	4538
899.753	4561
899.873	4504
899.993	4599
900.113	4611
900.232	4656
900.352	4584
900.472	4504
900.591	4436
900.711	4504
900.83	4493
900.95	4645
901.069	4733
901.189	4573
901.308	4394
901.427	4344
901.546	4417
901.665	4500
901.784	4538
901.904	4424
902.023	4344
902.141	4227
902.26	4234
902.379	4341
902.498	4265
902.617	4207
902.735	4402
902.854	4386
902.973	4390
903.091	4219
903.21	4253
903.328	4325
903.446	4322
903.565	4322
903.683	4398
903.801	4287
903.919	4443
904.038	4481
904.156	4341
904.274	4474
904.392	4451
904.51	4428
904.627	4535
904.745	4596
904.863	4687
904.981	4421
905.098	4284
905.216	4390
905.334	4413
905.451	4478
905.569	4424
905.686	4577
905.803	4634
905.921	4409
906.038	4588
906.155	4497
906.272	4428
906.389	4527
906.506	4325
906.623	4413
906.74	4421
906.857	4314
906.974	4409
907.091	4580
907.208	4698
907.324	4580
907.441	4569
907.557	4371
907.674	4409
907.79	4341
907.907	4421
908.023	4512
908.139	4508
908.256	4436
908.372	4466
908.488	4459
908.604	4402
908.72	4352
908.836	4417
908.952	4398
909.068	4424
909.184	4626
909.3	4489
909.415	4596
909.531	4634
909.647	4436
909.762	4371
909.878	4344
909.993	4489
910.108	4478
910.224	4451
910.339	4535
910.454	4386
910.57	4386
910.685	4333
910.8	4687
910.915	4653
911.03	4485
911.145	4367
911.259	4314
911.374	4348
911.489	4329
911.604	4291
911.718	4181
911.833	4246
911.947	4109
912.062	4040
912.176	4246
912.291	4257
912.405	4246
912.519	4481
912.633	4546
912.748	4405
912.862	4318
912.976	4223
913.09	4097
913.204	4223
913.318	4303
913.431	4405
913.545	4360
913.659	4478
913.772	4375
913.886	4318
914	4211
914.113	4417
914.226	4462
914.34	4432
914.453	4246
914.566	4379
914.68	4318
914.793	4333
914.906	4196
915.019	4071
915.132	4154
915.245	4219
915.358	4268
915.47	4268
915.583	4280
915.696	4280
915.809	4440
915.921	4459
916.034	4268
916.146	4284
916.259	4215
916.371	4424
916.483	4344
916.595	4303
916.708	4344
916.82	4383
916.932	4356
917.044	4383
917.156	4329
917.268	4299
917.38	4272
917.491	4314
917.603	4371
917.715	4443
917.826	4500
917.938	4405
918.049	4272
918.161	4447
918.272	4550
918.384	4542
918.495	4500
918.606	4322
918.717	4234
918.828	4379
918.939	4413
919.05	4310
919.161	4371
919.272	4166
919.383	4287
919.494	4500
919.604	4683
919.715	4436
919.826	4360
919.936	4443
920.047	4504
920.157	4523
920.267	4725
920.378	4569
920.488	4546
920.598	4793
920.708	4854
920.818	4767
920.928	4831
921.038	4972
921.148	4984
921.258	4637
921.368	4630
921.477	4516
921.587	4554
921.697	4413
921.806	4561
921.916	4440
922.025	4325
922.134	4322
922.244	4196
922.353	4333
922.462	4207
922.571	4158
922.68	4017
922.789	4002
922.898	4032
923.007	3972
923.116	4112
923.224	4139
923.333	4120
923.442	3998
923.55	4032
923.659	4063
923.767	4120
923.876	4032
923.984	4150
924.092	4010
924.201	4139
924.309	4128
924.417	4124
924.525	4090
924.633	4116
924.741	4900
924.849	3899
924.956	4185
925.064	4013
925.172	3926
925.279	4010
925.387	4067
925.494	4116
925.602	4204
925.709	4204
925.816	4071
925.924	4139
926.031	4234
926.138	4204
926.245	4246
926.352	4128
926.459	4299
926.566	4344
926.673	4139
926.779	4093
926.886	4071
926.993	4051
927.099	3972
927.206	3968
927.312	3972
927.419	4101
927.525	4048
927.631	4078
927.737	4013
927.843	3979
927.95	3846
928.056	3964
928.162	4025
928.267	4078
928.373	4592
928.479	4154
928.585	3926
928.69	4029
928.796	4097
928.901	3979
929.007	3861
929.112	4040
929.218	4010
929.323	3964
929.428	3918
929.533	4112
929.638	3945
929.743	3994
929.848	4078
929.953	4032
930.058	3937
930.163	3804
930.267	3850
930.372	3968
930.477	3804
930.581	4078
930.685	3964
930.79	3861
930.894	3880
930.998	3892
931.103	4051
931.207	3717
931.311	3701
931.415	3622
931.519	3572
931.623	3564
