Data from test_V78500241_337.txt Node
Date: Fri Mar 25 16:51:20 CST 2022
User: usil
Spectrometer: V785-0024
Trigger mode: 0
Integration Time (sec): 4.000000E-1
Scans to average: 1
Nonlinearity correction enabled: false
Boxcar width: 0
Storing dark spectrum: false
XAxis mode: Wavelengths
Number of Pixels in Spectrum: 1024
>>>>>Begin Spectral Data<<<<<
801.071	8035
801.214	8016
801.356	7986
801.499	7909
801.641	7776
801.783	7890
801.926	8001
802.068	8012
802.211	8001
802.353	8012
802.496	7879
802.638	7875
802.78	7940
802.923	7909
803.065	7871
803.208	7875
803.35	7932
803.492	8054
803.635	8134
803.777	7902
803.919	8077
804.061	8473
804.204	8180
804.346	8005
804.488	7947
804.63	8096
804.773	7963
804.915	8077
805.057	8294
805.199	8111
805.341	8240
805.483	8229
805.626	8218
805.768	7997
805.91	8259
806.052	8214
806.194	8126
806.336	8324
806.478	8107
806.62	8073
806.762	8199
806.904	8355
807.046	8480
807.188	8347
807.33	8259
807.472	8351
807.614	8126
807.756	8126
807.898	7978
808.04	7890
808.182	7974
808.324	7940
808.465	7928
808.607	8073
808.749	8107
808.891	8229
809.033	8282
809.174	8221
809.316	8084
809.458	8084
809.6	7963
809.741	8062
809.883	7989
810.025	8123
810.166	8092
810.308	8096
810.45	8084
810.591	7906
810.733	7772
810.875	7715
811.016	7537
811.158	7499
811.299	7666
811.441	7746
811.582	7666
811.724	7628
811.865	7620
812.007	7639
812.148	7575
812.29	7632
812.431	7769
812.573	7944
812.714	8001
812.855	8092
812.997	8153
813.138	8279
813.279	8138
813.421	8103
813.562	8077
813.703	7879
813.845	7792
813.986	7483
814.127	7377
814.268	7285
814.41	7183
814.551	7160
814.692	7190
814.833	7088
814.974	7027
815.115	7168
815.256	6977
815.397	6928
815.539	6954
815.68	6848
815.821	6795
815.962	6844
816.103	6840
816.244	6707
816.385	6627
816.526	6681
816.666	6494
816.807	6304
816.948	6464
817.089	6437
817.23	6414
817.371	6380
817.512	6395
817.653	6334
817.793	6350
817.934	6407
818.075	6479
818.216	6403
818.356	6437
818.497	6194
818.638	6072
818.778	6186
818.919	6167
819.06	6125
819.2	6342
819.341	6285
819.481	6334
819.622	6540
819.762	6711
819.903	6681
820.043	6563
820.184	6589
820.324	6604
820.465	6715
820.605	6620
820.746	6688
820.886	6502
821.026	6688
821.167	6696
821.307	6837
821.447	6806
821.588	6715
821.728	6623
821.868	6521
822.008	6338
822.149	6365
822.289	6353
822.429	6155
822.569	6155
822.709	6117
822.849	5992
822.99	5958
823.13	5912
823.27	5961
823.41	5779
823.55	5828
823.69	5764
823.83	5767
823.97	5688
824.11	5581
824.25	5497
824.389	5520
824.529	5577
824.669	5551
824.809	5642
824.949	5703
825.089	5642
825.228	5547
825.368	5417
825.508	5372
825.648	5341
825.787	5368
825.927	5436
826.067	5307
826.206	5284
826.346	5330
826.485	5406
826.625	5490
826.765	5543
826.904	5520
827.044	5231
827.183	5212
827.323	5132
827.462	5288
827.601	5189
827.741	5212
827.88	5250
828.02	5128
828.159	5239
828.298	5330
828.437	5372
828.577	5353
828.716	5532
828.855	5322
828.994	5170
829.134	5128
829.273	5159
829.412	5143
829.551	5170
829.69	5159
829.829	5235
829.968	5368
830.107	5322
830.246	5269
830.385	5170
830.524	5124
830.663	5022
830.802	4953
830.941	4938
831.08	4873
831.219	4968
831.357	4991
831.496	5197
831.635	4889
831.774	4824
831.913	4812
832.051	4740
832.19	4771
832.329	4881
832.467	4687
832.606	4702
832.744	4721
832.883	4790
833.022	4752
833.16	4790
833.299	4824
833.437	4797
833.576	4828
833.714	4858
833.852	4866
833.991	4911
834.129	4999
834.267	4953
834.406	4881
834.544	4923
834.682	4980
834.821	4965
834.959	5204
835.097	4957
835.235	5170
835.373	5067
835.511	5136
835.65	5083
835.788	5033
835.926	4927
836.064	4911
836.202	4873
836.34	5208
836.478	5185
836.615	5162
836.753	5227
836.891	5280
837.029	5280
837.167	5242
837.305	5189
837.443	5136
837.58	5098
837.718	5216
837.856	5181
837.993	5162
838.131	5227
838.269	5231
838.406	5231
838.544	5174
838.681	5086
838.819	5086
838.956	4892
839.094	4904
839.231	5014
839.369	5128
839.506	5448
839.643	5246
839.781	5056
839.918	4984
840.055	5064
840.193	5113
840.33	5113
840.467	5124
840.604	5143
840.742	5459
840.879	5090
841.016	5083
841.153	5121
841.29	5360
841.427	5334
841.564	5349
841.701	5425
841.838	5246
841.975	5204
842.112	5273
842.249	5124
842.385	5094
842.522	5315
842.659	5151
842.796	5162
842.933	5193
843.069	5166
843.206	5197
843.343	5337
843.479	5307
843.616	5280
843.752	5022
843.889	5006
844.025	5227
844.162	5010
844.298	5185
844.435	5090
844.571	5037
844.708	5201
844.844	5296
844.98	5299
845.117	5288
845.253	5147
845.389	5083
845.525	5159
845.661	5132
845.798	5048
845.934	5185
846.07	5064
846.206	5284
846.342	5288
846.478	5132
846.614	5083
846.75	4949
846.886	4934
847.022	5132
847.158	5029
847.294	5064
847.429	5124
847.565	5014
847.701	5341
847.837	4850
847.972	4782
848.108	4908
848.244	4999
848.379	4763
848.515	4740
848.65	4706
848.786	4801
848.921	4729
849.057	4850
849.192	4885
849.328	4805
849.463	4812
849.598	4767
849.734	4778
849.869	4668
850.004	4615
850.14	4668
850.275	4611
850.41	4519
850.545	4489
850.68	4656
850.815	4577
850.95	4649
851.085	4816
851.22	4744
851.355	4683
851.49	4649
851.625	4645
851.76	4584
851.895	4523
852.03	4561
852.165	4660
852.299	4748
852.434	4763
852.569	4752
852.703	4752
852.838	4839
852.973	4942
853.107	4934
853.242	4725
853.376	4641
853.511	4580
853.645	4588
853.78	4778
853.914	4706
854.048	4698
854.183	4622
854.317	4698
854.451	4881
854.585	4672
854.72	4649
854.854	4748
854.988	4615
855.122	4630
855.256	4512
855.39	4691
855.524	4801
855.658	4714
855.792	4702
855.926	4733
856.06	4816
856.194	4805
856.327	4660
856.461	4626
856.595	4630
856.729	4641
856.862	4714
856.996	4736
857.13	4672
857.263	4782
857.397	4812
857.53	4653
857.664	4706
857.797	4790
857.931	4809
858.064	4740
858.197	4698
858.331	4637
858.464	4592
858.597	4466
858.731	4607
858.864	4645
858.997	4554
859.13	4675
859.263	4698
859.396	4691
859.529	4592
859.662	4565
859.795	4504
859.928	4653
860.061	4782
860.194	4717
860.327	4588
860.46	4569
860.592	4645
860.725	4630
860.858	4771
860.99	4546
861.123	4523
861.256	4523
861.388	4596
861.521	5311
861.653	4443
861.786	4459
861.918	4455
862.05	4546
862.183	4516
862.315	4618
862.447	4706
862.58	4527
862.712	4413
862.844	4337
862.976	4489
863.108	4493
863.24	4786
863.372	4352
863.504	4462
863.636	4436
863.768	4531
863.9	4462
864.032	4363
864.164	4409
864.296	4538
864.428	4580
864.559	4573
864.691	4546
864.823	4550
864.954	4497
865.086	4508
865.217	4489
865.349	4447
865.48	4489
865.612	4546
865.743	4656
865.875	4519
866.006	4466
866.137	4550
866.269	4474
866.4	4451
866.531	4466
866.662	4421
866.793	4440
866.924	4447
867.055	4512
867.186	4516
867.317	4440
867.448	4421
867.579	4402
867.71	4428
867.841	4470
867.972	4527
868.103	4500
868.233	4493
868.364	4470
868.495	4519
868.625	4683
868.756	4801
868.886	4611
869.017	4691
869.147	4854
869.278	4812
869.408	4714
869.539	4649
869.669	4740
869.799	4752
869.929	4847
870.06	4774
870.19	4984
870.32	5010
870.45	5018
870.58	5083
870.71	5170
870.84	5162
870.97	4968
871.1	4953
871.23	5124
871.36	5185
871.489	5033
871.619	5128
871.749	5151
871.879	5189
872.008	5246
872.138	5079
872.267	5006
872.397	4919
872.526	4873
872.656	4748
872.785	4877
872.915	5014
873.044	5121
873.173	4984
873.303	5041
873.432	4999
873.561	5029
873.69	4900
873.819	4892
873.948	4980
874.077	4881
874.206	4854
874.335	4889
874.464	4976
874.593	5102
874.722	5014
874.851	5151
874.979	5094
875.108	5056
875.237	4946
875.365	4900
875.494	4896
875.623	5018
875.751	4854
875.88	4930
876.008	5010
876.136	5048
876.265	5204
876.393	5372
876.521	5311
876.65	5261
876.778	5193
876.906	5166
877.034	5045
877.162	5094
877.29	5033
877.418	5094
877.546	5067
877.674	5064
877.802	5071
877.93	5025
878.058	4980
878.185	4919
878.313	4995
878.441	4984
878.568	4831
878.696	4923
878.824	4999
878.951	5090
879.079	5166
879.206	5357
879.333	5155
879.461	5045
879.588	5045
879.715	5208
879.842	5258
879.97	5079
880.097	4854
880.224	4812
880.351	4835
880.478	4889
880.605	4835
880.732	4793
880.859	5102
880.986	4908
881.112	4900
881.239	4835
881.366	4748
881.493	4618
881.619	4656
881.746	4702
881.872	4664
881.999	4717
882.125	4710
882.252	4790
882.378	4889
882.505	4987
882.631	4850
882.757	4675
882.883	4755
883.01	4759
883.136	4774
883.262	4607
883.388	4634
883.514	4828
883.64	4900
883.766	4812
883.892	4683
884.018	4698
884.143	4900
884.269	5022
884.395	4725
884.52	4687
884.646	4698
884.772	4607
884.897	4554
885.023	4748
885.148	4809
885.274	4904
885.399	4862
885.524	4729
885.65	4767
885.775	4714
885.9	4771
886.025	4900
886.15	4839
886.275	4778
886.4	4698
886.525	4820
886.65	4694
886.775	4702
886.9	4930
887.025	5086
887.149	4885
887.274	4687
887.399	4630
887.523	4637
887.648	4637
887.773	4645
887.897	4729
888.021	4831
888.146	4683
888.27	4820
888.395	5029
888.519	4850
888.643	4835
888.767	4900
888.891	4717
889.015	4649
889.139	4721
889.263	4660
889.387	4812
889.511	4862
889.635	4805
889.759	4706
889.883	4717
890.006	4733
890.13	4904
890.254	4656
890.377	4698
890.501	4573
890.624	4558
890.748	4683
890.871	4584
890.995	4478
891.118	4417
891.241	4554
891.364	4611
891.488	4672
891.611	4573
891.734	4577
891.857	4618
891.98	4588
892.103	4721
892.226	4645
892.349	4561
892.471	4455
892.594	4588
892.717	4596
892.839	4630
892.962	4672
893.085	4706
893.207	4622
893.33	4516
893.452	4592
893.575	4706
893.697	4607
893.819	4828
893.941	4824
894.064	4839
894.186	4615
894.308	4634
894.43	4782
894.552	4858
894.674	4752
894.796	4561
894.918	4656
895.04	4573
895.161	4763
895.283	4714
895.405	4626
895.526	4683
895.648	4733
895.769	4694
895.891	4740
896.012	4767
896.134	4744
896.255	4733
896.376	4641
896.498	4611
896.619	4702
896.74	4626
896.861	4683
896.982	4968
897.103	5102
897.224	4908
897.345	4801
897.466	4767
897.587	4763
897.708	4873
897.828	4801
897.949	4729
898.07	4607
898.19	4679
898.311	4892
898.431	4660
898.552	4801
898.672	4896
898.792	4889
898.913	4797
899.033	4675
899.153	4531
899.273	4447
899.393	4538
899.513	4573
899.633	4596
899.753	4569
899.873	4565
899.993	4622
900.113	4565
900.232	4603
900.352	4531
900.472	4535
900.591	4421
900.711	4531
900.83	4470
900.95	4637
901.069	4710
901.189	4622
901.308	4451
901.427	4360
901.546	4421
901.665	4493
901.784	4554
901.904	4421
902.023	4306
902.141	4261
902.26	4219
902.379	4363
902.498	4310
902.617	4253
902.735	4405
902.854	4386
902.973	4451
903.091	4246
903.21	4257
903.328	4329
903.446	4303
903.565	4272
903.683	4375
903.801	4329
903.919	4409
904.038	4455
904.156	4394
904.274	4459
904.392	4413
904.51	4489
904.627	4489
904.745	4584
904.863	4721
904.981	4402
905.098	4310
905.216	4394
905.334	4466
905.451	4493
905.569	4436
905.686	4596
905.803	4630
905.921	4481
906.038	4611
906.155	4470
906.272	4398
906.389	4478
906.506	4375
906.623	4409
906.74	4409
906.857	4322
906.974	4383
907.091	4588
907.208	4759
907.324	4603
907.441	4554
907.557	4383
907.674	4383
907.79	4322
907.907	4375
908.023	4512
908.139	4550
908.256	4459
908.372	4550
908.488	4493
908.604	4348
908.72	4371
908.836	4402
908.952	4375
909.068	4451
909.184	4603
909.3	4546
909.415	4630
909.531	4573
909.647	4379
909.762	4402
909.878	4360
909.993	4432
910.108	4459
910.224	4443
910.339	4504
910.454	4440
910.57	4398
910.685	4352
910.8	4656
910.915	4630
911.03	4516
911.145	4337
911.259	4363
911.374	4455
911.489	4325
911.604	4268
911.718	4215
911.833	4253
911.947	4097
912.062	4059
912.176	4303
912.291	4253
912.405	4276
912.519	4462
912.633	4504
912.748	4356
912.862	4299
912.976	4257
913.09	4105
913.204	4204
913.318	4322
913.431	4356
913.545	4383
913.659	4485
913.772	4367
913.886	4291
914	4249
914.113	4466
914.226	4474
914.34	4409
914.453	4257
914.566	4432
914.68	4318
914.793	4402
914.906	4200
915.019	4143
915.132	4112
915.245	4147
915.358	4223
915.47	4246
915.583	4284
915.696	4337
915.809	4447
915.921	4474
916.034	4295
916.146	4284
916.259	4219
916.371	4398
916.483	4409
916.595	4265
916.708	4314
916.82	4325
916.932	4325
917.044	4363
917.156	4383
917.268	4306
917.38	4348
917.491	4261
917.603	4375
917.715	4474
917.826	4478
917.938	4409
918.049	4314
918.161	4386
918.272	4558
918.384	4519
918.495	4436
918.606	4318
918.717	4227
918.828	4371
918.939	4371
919.05	4249
919.161	4402
919.272	4196
919.383	4253
919.494	4455
919.604	4653
919.715	4451
919.826	4363
919.936	4405
920.047	4500
920.157	4538
920.267	4729
920.378	4569
920.488	4527
920.598	4717
920.708	4957
920.818	4733
920.928	4820
921.038	4949
921.148	4896
921.258	4630
921.368	4561
921.477	4535
921.587	4546
921.697	4360
921.806	4580
921.916	4417
922.025	4265
922.134	4268
922.244	4227
922.353	4386
922.462	4227
922.571	4147
922.68	4036
922.789	4006
922.898	4051
923.007	3979
923.116	4067
923.224	4086
923.333	4059
923.442	3972
923.55	4010
923.659	4059
923.767	4128
923.876	4067
923.984	4143
924.092	4010
924.201	4090
924.309	4105
924.417	4128
924.525	4131
924.633	4116
924.741	4885
924.849	3911
924.956	4185
925.064	3953
925.172	3934
925.279	3979
925.387	4040
925.494	4067
925.602	4204
925.709	4207
925.816	4055
925.924	4124
926.031	4249
926.138	4185
926.245	4185
926.352	4112
926.459	4265
926.566	4265
926.673	4162
926.779	4112
926.886	4078
926.993	3930
927.099	3991
927.206	3945
927.312	3975
927.419	4032
927.525	4063
927.631	4124
927.737	4036
927.843	3964
927.95	3926
928.056	3968
928.162	4021
928.267	4086
928.373	4649
928.479	4124
928.585	3918
928.69	3994
928.796	4078
928.901	3953
929.007	3854
929.112	4010
929.218	4040
929.323	3987
929.428	3960
929.533	4097
929.638	3884
929.743	3991
929.848	4063
929.953	4002
930.058	3949
930.163	3804
930.267	3873
930.372	4017
930.477	3819
930.581	4101
930.685	3979
930.79	3816
930.894	3918
930.998	3892
931.103	4025
931.207	3755
931.311	3736
931.415	3690
931.519	3526
931.623	3576
