Data from test_V78500241_1856.txt Node
Date: Fri Mar 25 17:01:54 CST 2022
User: usil
Spectrometer: V785-0024
Trigger mode: 0
Integration Time (sec): 4.000000E-1
Scans to average: 1
Nonlinearity correction enabled: false
Boxcar width: 0
Storing dark spectrum: false
XAxis mode: Wavelengths
Number of Pixels in Spectrum: 1024
>>>>>Begin Spectral Data<<<<<
801.071	7944
801.214	7989
801.356	7837
801.499	7871
801.641	7894
801.783	7833
801.926	7928
802.068	7928
802.211	8008
802.353	7967
802.496	7902
802.638	7852
802.78	7868
802.923	7974
803.065	7887
803.208	7830
803.35	8031
803.492	8126
803.635	8161
803.777	8069
803.919	8191
804.061	8499
804.204	8168
804.346	8130
804.488	8001
804.63	8096
804.773	8050
804.915	8195
805.057	8343
805.199	8157
805.341	8263
805.483	8229
805.626	8290
805.768	8130
805.91	8301
806.052	8298
806.194	8077
806.336	8317
806.478	8084
806.62	8065
806.762	8210
806.904	8347
807.046	8514
807.188	8450
807.33	8381
807.472	8415
807.614	8237
807.756	8142
807.898	8081
808.04	7951
808.182	7997
808.324	7902
808.465	7951
808.607	8138
808.749	8164
808.891	8199
809.033	8301
809.174	8294
809.316	8050
809.458	8081
809.6	8065
809.741	8054
809.883	8103
810.025	8096
810.166	8157
810.308	8039
810.45	8050
810.591	7909
810.733	7776
810.875	7674
811.016	7544
811.158	7525
811.299	7590
811.441	7738
811.582	7632
811.724	7636
811.865	7518
812.007	7567
812.148	7597
812.29	7651
812.431	7780
812.573	7959
812.714	7997
812.855	8145
812.997	8218
813.138	8332
813.279	8206
813.421	8046
813.562	8020
813.703	7830
813.845	7655
813.986	7438
814.127	7225
814.268	7202
814.41	7202
814.551	7171
814.692	7312
814.833	7126
814.974	7198
815.115	7194
815.256	7065
815.397	6993
815.539	7019
815.68	6779
815.821	6760
815.962	6897
816.103	6852
816.244	6760
816.385	6627
816.526	6642
816.666	6555
816.807	6308
816.948	6437
817.089	6525
817.23	6452
817.371	6372
817.512	6384
817.653	6414
817.793	6407
817.934	6486
818.075	6525
818.216	6429
818.356	6426
818.497	6266
818.638	6140
818.778	6163
818.919	6129
819.06	6209
819.2	6361
819.341	6342
819.481	6410
819.622	6574
819.762	6772
819.903	6715
820.043	6627
820.184	6597
820.324	6566
820.465	6692
820.605	6730
820.746	6650
820.886	6570
821.026	6738
821.167	6745
821.307	6825
821.447	6814
821.588	6650
821.728	6608
821.868	6536
822.008	6395
822.149	6414
822.289	6327
822.429	6194
822.569	6129
822.709	6167
822.849	5912
822.99	5935
823.13	5954
823.27	5977
823.41	5828
823.55	5813
823.69	5779
823.83	5813
823.97	5611
824.11	5581
824.25	5539
824.389	5558
824.529	5611
824.669	5589
824.809	5649
824.949	5649
825.089	5657
825.228	5512
825.368	5452
825.508	5357
825.648	5334
825.787	5425
825.927	5368
826.067	5334
826.206	5303
826.346	5379
826.485	5417
826.625	5429
826.765	5581
826.904	5497
827.044	5292
827.183	5212
827.323	5151
827.462	5330
827.601	5124
827.741	5242
827.88	5181
828.02	5162
828.159	5284
828.298	5357
828.437	5395
828.577	5292
828.716	5516
828.855	5387
828.994	5197
829.134	5155
829.273	5258
829.412	5166
829.551	5189
829.69	5212
829.829	5269
829.968	5353
830.107	5299
830.246	5273
830.385	5201
830.524	5140
830.663	5094
830.802	5033
830.941	4965
831.08	4862
831.219	4991
831.357	4995
831.496	5189
831.635	4946
831.774	4904
831.913	4870
832.051	4790
832.19	4717
832.329	4812
832.467	4733
832.606	4630
832.744	4740
832.883	4767
833.022	4782
833.16	4752
833.299	4843
833.437	4850
833.576	4911
833.714	4881
833.852	4900
833.991	4946
834.129	4953
834.267	4987
834.406	4961
834.544	4984
834.682	4995
834.821	4957
834.959	5170
835.097	5010
835.235	5151
835.373	5098
835.511	5075
835.65	5037
835.788	5010
835.926	4934
836.064	4911
836.202	4938
836.34	5204
836.478	5246
836.615	5162
836.753	5277
836.891	5292
837.029	5265
837.167	5204
837.305	5185
837.443	5140
837.58	5124
837.718	5242
837.856	5181
837.993	5162
838.131	5288
838.269	5166
838.406	5227
838.544	5185
838.681	5037
838.819	5060
838.956	4930
839.094	4934
839.231	4972
839.369	5094
839.506	5463
839.643	5284
839.781	5075
839.918	5045
840.055	5128
840.193	5121
840.33	5071
840.467	5147
840.604	5212
840.742	5509
840.879	5094
841.016	5113
841.153	5166
841.29	5341
841.427	5368
841.564	5322
841.701	5357
841.838	5254
841.975	5254
842.112	5288
842.249	5166
842.385	5113
842.522	5353
842.659	5212
842.796	5124
842.933	5204
843.069	5147
843.206	5162
843.343	5322
843.479	5258
843.616	5258
843.752	4999
843.889	5003
844.025	5246
844.162	5045
844.298	5265
844.435	5132
844.571	5071
844.708	5185
844.844	5292
844.98	5360
845.117	5315
845.253	5140
845.389	5121
845.525	5216
845.661	5128
845.798	5098
845.934	5204
846.07	5090
846.206	5216
846.342	5318
846.478	5189
846.614	5083
846.75	4980
846.886	4995
847.022	5147
847.158	5010
847.294	5010
847.429	5121
847.565	5067
847.701	5349
847.837	4870
847.972	4809
848.108	4961
848.244	4976
848.379	4786
848.515	4759
848.65	4733
848.786	4740
848.921	4835
849.057	4892
849.192	4904
849.328	4793
849.463	4816
849.598	4809
849.734	4763
849.869	4714
850.004	4641
850.14	4653
850.275	4607
850.41	4535
850.545	4603
850.68	4596
850.815	4641
850.95	4603
851.085	4866
851.22	4774
851.355	4656
851.49	4626
851.625	4622
851.76	4717
851.895	4527
852.03	4508
852.165	4675
852.299	4759
852.434	4797
852.569	4767
852.703	4809
852.838	4881
852.973	4911
853.107	4953
853.242	4759
853.376	4710
853.511	4558
853.645	4656
853.78	4816
853.914	4702
854.048	4698
854.183	4630
854.317	4672
854.451	4824
854.585	4717
854.72	4668
854.854	4771
854.988	4611
855.122	4607
855.256	4573
855.39	4634
855.524	4854
855.658	4721
855.792	4714
855.926	4752
856.06	4801
856.194	4809
856.327	4721
856.461	4645
856.595	4668
856.729	4607
856.862	4752
856.996	4721
857.13	4710
857.263	4778
857.397	4881
857.53	4664
857.664	4714
857.797	4805
857.931	4805
858.064	4664
858.197	4755
858.331	4622
858.464	4607
858.597	4523
858.731	4645
858.864	4653
858.997	4637
859.13	4668
859.263	4626
859.396	4744
859.529	4618
859.662	4550
859.795	4516
859.928	4641
860.061	4801
860.194	4729
860.327	4618
860.46	4573
860.592	4683
860.725	4733
860.858	4725
860.99	4542
861.123	4550
861.256	4527
861.388	4607
861.521	5440
861.653	4474
861.786	4447
861.918	4481
862.05	4558
862.183	4580
862.315	4637
862.447	4668
862.58	4546
862.712	4371
862.844	4363
862.976	4489
863.108	4462
863.24	4900
863.372	4352
863.504	4500
863.636	4379
863.768	4481
863.9	4432
864.032	4352
864.164	4409
864.296	4527
864.428	4538
864.559	4569
864.691	4523
864.823	4508
864.954	4500
865.086	4512
865.217	4455
865.349	4489
865.48	4470
865.612	4500
865.743	4641
865.875	4508
866.006	4417
866.137	4485
866.269	4459
866.4	4451
866.531	4402
866.662	4421
866.793	4443
866.924	4424
867.055	4470
867.186	4428
867.317	4424
867.448	4360
867.579	4383
867.71	4462
867.841	4394
867.972	4432
868.103	4462
868.233	4504
868.364	4478
868.495	4489
868.625	4683
868.756	4725
868.886	4531
869.017	4607
869.147	4847
869.278	4752
869.408	4706
869.539	4691
869.669	4717
869.799	4641
869.929	4805
870.06	4733
870.19	5003
870.32	4946
870.45	4915
870.58	5064
870.71	5117
870.84	5121
870.97	4904
871.1	4892
871.23	5117
871.36	5151
871.489	4987
871.619	5109
871.749	5064
871.879	5140
872.008	5220
872.138	5102
872.267	4980
872.397	4896
872.526	4782
872.656	4767
872.785	4774
872.915	4980
873.044	4995
873.173	4934
873.303	4949
873.432	4972
873.561	4984
873.69	4839
873.819	4873
873.948	4938
874.077	4782
874.206	4759
874.335	4809
874.464	4949
874.593	5098
874.722	4949
874.851	5143
874.979	5045
875.108	5060
875.237	4923
875.365	4900
875.494	4866
875.623	4957
875.751	4847
875.88	4896
876.008	4976
876.136	5037
876.265	5223
876.393	5326
876.521	5227
876.65	5231
876.778	5181
876.906	5086
877.034	5014
877.162	5064
877.29	5037
877.418	5105
877.546	5014
877.674	5010
877.802	5075
877.93	5003
878.058	4930
878.185	4866
878.313	4991
878.441	5003
878.568	4793
878.696	4896
878.824	5003
878.951	5018
879.079	5170
879.206	5326
879.333	5124
879.461	5006
879.588	5003
879.715	5140
879.842	5227
879.97	4987
880.097	4831
880.224	4782
880.351	4858
880.478	4790
880.605	4816
880.732	4820
880.859	5098
880.986	4896
881.112	4923
881.239	4805
881.366	4668
881.493	4588
881.619	4611
881.746	4618
881.872	4675
881.999	4618
882.125	4729
882.252	4755
882.378	4824
882.505	4953
882.631	4828
882.757	4603
882.883	4729
883.01	4752
883.136	4683
883.262	4592
883.388	4611
883.514	4786
883.64	4873
883.766	4809
883.892	4698
884.018	4683
884.143	4915
884.269	4961
884.395	4679
884.52	4611
884.646	4626
884.772	4603
884.897	4588
885.023	4656
885.148	4782
885.274	4850
885.399	4854
885.524	4717
885.65	4725
885.775	4740
885.9	4675
886.025	4854
886.15	4744
886.275	4721
886.4	4668
886.525	4793
886.65	4694
886.775	4706
886.9	4911
887.025	5010
887.149	4816
887.274	4675
887.399	4615
887.523	4588
887.648	4584
887.773	4535
887.897	4710
888.021	4797
888.146	4683
888.27	4805
888.395	4870
888.519	4835
888.643	4828
888.767	4812
888.891	4664
889.015	4596
889.139	4630
889.263	4577
889.387	4793
889.511	4881
889.635	4824
889.759	4664
889.883	4672
890.006	4717
890.13	4812
890.254	4611
890.377	4694
890.501	4512
890.624	4554
890.748	4675
890.871	4508
890.995	4462
891.118	4413
891.241	4508
891.364	4550
891.488	4630
891.611	4478
891.734	4554
891.857	4607
891.98	4500
892.103	4630
892.226	4569
892.349	4542
892.471	4394
892.594	4542
892.717	4531
892.839	4550
892.962	4550
893.085	4630
893.207	4630
893.33	4451
893.452	4455
893.575	4679
893.697	4611
893.819	4748
893.941	4801
894.064	4774
894.186	4573
894.308	4554
894.43	4702
894.552	4831
894.674	4755
894.796	4546
894.918	4580
895.04	4588
895.161	4656
895.283	4664
895.405	4596
895.526	4618
895.648	4660
895.769	4694
895.891	4706
896.012	4694
896.134	4710
896.255	4634
896.376	4607
896.498	4607
896.619	4660
896.74	4653
896.861	4634
896.982	4911
897.103	5033
897.224	4801
897.345	4740
897.466	4637
897.587	4744
897.708	4847
897.828	4759
897.949	4675
898.07	4531
898.19	4615
898.311	4809
898.431	4599
898.552	4771
898.672	4790
898.792	4862
898.913	4782
899.033	4615
899.153	4489
899.273	4421
899.393	4451
899.513	4485
899.633	4489
899.753	4554
899.873	4531
899.993	4584
900.113	4558
900.232	4618
900.352	4527
900.472	4504
900.591	4386
900.711	4493
900.83	4440
900.95	4618
901.069	4698
901.189	4542
901.308	4375
901.427	4329
901.546	4367
901.665	4500
901.784	4535
901.904	4371
902.023	4329
902.141	4135
902.26	4196
902.379	4314
902.498	4268
902.617	4223
902.735	4367
902.854	4398
902.973	4325
903.091	4246
903.21	4234
903.328	4303
903.446	4261
903.565	4234
903.683	4314
903.801	4257
903.919	4394
904.038	4421
904.156	4348
904.274	4436
904.392	4348
904.51	4402
904.627	4421
904.745	4599
904.863	4634
904.981	4409
905.098	4344
905.216	4375
905.334	4474
905.451	4436
905.569	4417
905.686	4481
905.803	4519
905.921	4402
906.038	4554
906.155	4466
906.272	4386
906.389	4459
906.506	4333
906.623	4390
906.74	4383
906.857	4322
906.974	4360
907.091	4550
907.208	4687
907.324	4672
907.441	4504
907.557	4371
907.674	4325
907.79	4265
907.907	4386
908.023	4455
908.139	4500
908.256	4478
908.372	4462
908.488	4424
908.604	4356
908.72	4268
908.836	4394
908.952	4352
909.068	4432
909.184	4622
909.3	4466
909.415	4508
909.531	4519
909.647	4341
909.762	4333
909.878	4363
909.993	4436
910.108	4424
910.224	4386
910.339	4516
910.454	4417
910.57	4379
910.685	4325
910.8	4634
910.915	4558
911.03	4516
911.145	4329
911.259	4348
911.374	4417
911.489	4280
911.604	4295
911.718	4105
911.833	4211
911.947	4055
912.062	4010
912.176	4204
912.291	4253
912.405	4295
912.519	4428
912.633	4546
912.748	4386
912.862	4303
912.976	4223
913.09	4055
913.204	4169
913.318	4246
913.431	4348
913.545	4367
913.659	4478
913.772	4405
913.886	4249
914	4207
914.113	4375
914.226	4432
914.34	4375
914.453	4249
914.566	4402
914.68	4265
914.793	4344
914.906	4177
915.019	4090
915.132	4105
915.245	4185
915.358	4242
915.47	4238
915.583	4287
915.696	4318
915.809	4386
915.921	4329
916.034	4303
916.146	4246
916.259	4185
916.371	4310
916.483	4360
916.595	4253
916.708	4329
916.82	4310
916.932	4314
917.044	4333
917.156	4314
917.268	4227
917.38	4303
917.491	4223
917.603	4386
917.715	4405
917.826	4440
917.938	4379
918.049	4268
918.161	4390
918.272	4489
918.384	4531
918.495	4440
918.606	4348
918.717	4246
918.828	4367
918.939	4356
919.05	4291
919.161	4344
919.272	4116
919.383	4211
919.494	4424
919.604	4668
919.715	4424
919.826	4352
919.936	4421
920.047	4512
920.157	4489
920.267	4717
920.378	4554
920.488	4542
920.598	4717
920.708	4911
920.818	4793
920.928	4733
921.038	4904
921.148	4904
921.258	4641
921.368	4538
921.477	4523
921.587	4413
921.697	4375
921.806	4504
921.916	4440
922.025	4249
922.134	4238
922.244	4219
922.353	4318
922.462	4177
922.571	4128
922.68	4032
922.789	3964
922.898	4048
923.007	4006
923.116	4105
923.224	4078
923.333	4097
923.442	3987
923.55	3956
923.659	4013
923.767	4059
923.876	3994
923.984	4120
924.092	4051
924.201	4071
924.309	4082
924.417	4131
924.525	4074
924.633	4131
924.741	5052
924.849	3903
924.956	4147
925.064	3968
925.172	3926
925.279	3979
925.387	4071
925.494	4086
925.602	4192
925.709	4188
925.816	4006
925.924	4131
926.031	4215
926.138	4143
926.245	4230
926.352	4078
926.459	4230
926.566	4352
926.673	4169
926.779	4101
926.886	4071
926.993	3979
927.099	3975
927.206	3911
927.312	3903
927.419	4086
927.525	4048
927.631	4131
927.737	3968
927.843	3918
927.95	3854
928.056	3953
928.162	3964
928.267	4044
928.373	4565
928.479	4078
928.585	3880
928.69	4010
928.796	4074
928.901	3983
929.007	3827
929.112	4017
929.218	3960
929.323	3945
929.428	3922
929.533	4101
929.638	3899
929.743	3937
929.848	4082
929.953	3941
930.058	3934
930.163	3812
930.267	3793
930.372	3941
930.477	3816
930.581	4059
930.685	3945
930.79	3800
930.894	3880
930.998	3876
931.103	4051
931.207	3660
931.311	3705
931.415	3686
931.519	3561
931.623	3538
