Data from test_V78500241_2035.txt Node
Date: Fri Mar 25 17:03:09 CST 2022
User: usil
Spectrometer: V785-0024
Trigger mode: 0
Integration Time (sec): 4.000000E-1
Scans to average: 1
Nonlinearity correction enabled: false
Boxcar width: 0
Storing dark spectrum: false
XAxis mode: Wavelengths
Number of Pixels in Spectrum: 1024
>>>>>Begin Spectral Data<<<<<
801.071	8016
801.214	8039
801.356	7864
801.499	7822
801.641	7799
801.783	7818
801.926	7982
802.068	7959
802.211	7932
802.353	7993
802.496	7890
802.638	7814
802.78	7868
802.923	7925
803.065	7894
803.208	7807
803.35	7879
803.492	8069
803.635	8172
803.777	8001
803.919	8183
804.061	8488
804.204	8195
804.346	8062
804.488	7986
804.63	8100
804.773	7986
804.915	8115
805.057	8305
805.199	8172
805.341	8180
805.483	8271
805.626	8164
805.768	8103
805.91	8275
806.052	8252
806.194	8096
806.336	8305
806.478	8126
806.62	8077
806.762	8153
806.904	8271
807.046	8438
807.188	8366
807.33	8294
807.472	8305
807.614	8103
807.756	8111
807.898	7989
808.04	7963
808.182	7860
808.324	7852
808.465	7883
808.607	8077
808.749	8092
808.891	8202
809.033	8343
809.174	8195
809.316	8031
809.458	8081
809.6	7936
809.741	8081
809.883	8062
810.025	8100
810.166	8077
810.308	8016
810.45	8020
810.591	7837
810.733	7674
810.875	7639
811.016	7476
811.158	7449
811.299	7556
811.441	7685
811.582	7677
811.724	7552
811.865	7544
812.007	7636
812.148	7628
812.29	7658
812.431	7788
812.573	7913
812.714	7982
812.855	8084
812.997	8164
813.138	8279
813.279	8111
813.421	8077
813.562	7932
813.703	7845
813.845	7674
813.986	7365
814.127	7270
814.268	7285
814.41	7164
814.551	7221
814.692	7225
814.833	7099
814.974	7145
815.115	7183
815.256	6993
815.397	6878
815.539	6939
815.68	6787
815.821	6764
815.962	6840
816.103	6757
816.244	6650
816.385	6635
816.526	6612
816.666	6448
816.807	6277
816.948	6441
817.089	6464
817.23	6414
817.371	6391
817.512	6418
817.653	6403
817.793	6315
817.934	6391
818.075	6460
818.216	6429
818.356	6391
818.497	6247
818.638	6102
818.778	6190
818.919	6133
819.06	6098
819.2	6357
819.341	6357
819.481	6384
819.622	6494
819.762	6711
819.903	6658
820.043	6570
820.184	6582
820.324	6570
820.465	6738
820.605	6692
820.746	6658
820.886	6490
821.026	6631
821.167	6707
821.307	6798
821.447	6768
821.588	6681
821.728	6513
821.868	6486
822.008	6357
822.149	6361
822.289	6323
822.429	6121
822.569	6095
822.709	6114
822.849	5904
822.99	5889
823.13	5923
823.27	5916
823.41	5767
823.55	5809
823.69	5767
823.83	5748
823.97	5665
824.11	5554
824.25	5520
824.389	5551
824.529	5596
824.669	5505
824.809	5638
824.949	5676
825.089	5653
825.228	5592
825.368	5391
825.508	5315
825.648	5353
825.787	5410
825.927	5474
826.067	5372
826.206	5357
826.346	5395
826.485	5463
826.625	5467
826.765	5577
826.904	5497
827.044	5273
827.183	5239
827.323	5208
827.462	5254
827.601	5246
827.741	5204
827.88	5250
828.02	5166
828.159	5250
828.298	5353
828.437	5372
828.577	5296
828.716	5482
828.855	5341
828.994	5166
829.134	5204
829.273	5197
829.412	5159
829.551	5201
829.69	5181
829.829	5273
829.968	5341
830.107	5254
830.246	5303
830.385	5166
830.524	5170
830.663	5143
830.802	4965
830.941	4984
831.08	4870
831.219	5014
831.357	4995
831.496	5155
831.635	4991
831.774	4892
831.913	4885
832.051	4763
832.19	4778
832.329	4850
832.467	4744
832.606	4683
832.744	4793
832.883	4778
833.022	4763
833.16	4790
833.299	4866
833.437	4885
833.576	4915
833.714	4873
833.852	4881
833.991	4934
834.129	4953
834.267	4976
834.406	4999
834.544	5018
834.682	5014
834.821	4991
834.959	5185
835.097	4999
835.235	5193
835.373	5128
835.511	5067
835.65	5083
835.788	5041
835.926	4904
836.064	4889
836.202	5006
836.34	5178
836.478	5242
836.615	5181
836.753	5197
836.891	5307
837.029	5250
837.167	5170
837.305	5265
837.443	5143
837.58	5151
837.718	5277
837.856	5235
837.993	5201
838.131	5303
838.269	5231
838.406	5239
838.544	5166
838.681	5033
838.819	5006
838.956	4889
839.094	4953
839.231	4999
839.369	5128
839.506	5429
839.643	5334
839.781	5109
839.918	5048
840.055	5136
840.193	5109
840.33	5117
840.467	5174
840.604	5220
840.742	5486
840.879	5064
841.016	5083
841.153	5170
841.29	5383
841.427	5391
841.564	5368
841.701	5395
841.838	5292
841.975	5235
842.112	5265
842.249	5143
842.385	5128
842.522	5391
842.659	5185
842.796	5201
842.933	5239
843.069	5185
843.206	5128
843.343	5425
843.479	5280
843.616	5307
843.752	5064
843.889	5052
844.025	5216
844.162	5029
844.298	5185
844.435	5109
844.571	5090
844.708	5250
844.844	5322
844.98	5345
845.117	5322
845.253	5159
845.389	5109
845.525	5185
845.661	5181
845.798	5048
845.934	5178
846.07	5159
846.206	5223
846.342	5315
846.478	5170
846.614	5052
846.75	5029
846.886	4953
847.022	5132
847.158	5090
847.294	5109
847.429	5151
847.565	5094
847.701	5379
847.837	4854
847.972	4839
848.108	5014
848.244	4972
848.379	4793
848.515	4801
848.65	4694
848.786	4714
848.921	4820
849.057	4946
849.192	4892
849.328	4877
849.463	4862
849.598	4820
849.734	4824
849.869	4706
850.004	4656
850.14	4733
850.275	4615
850.41	4531
850.545	4588
850.68	4615
850.815	4698
850.95	4698
851.085	4896
851.22	4755
851.355	4691
851.49	4710
851.625	4637
851.76	4637
851.895	4599
852.03	4535
852.165	4714
852.299	4736
852.434	4793
852.569	4763
852.703	4733
852.838	4866
852.973	4972
853.107	5006
853.242	4702
853.376	4740
853.511	4611
853.645	4691
853.78	4801
853.914	4691
854.048	4736
854.183	4687
854.317	4714
854.451	4919
854.585	4740
854.72	4714
854.854	4790
854.988	4641
855.122	4675
855.256	4561
855.39	4679
855.524	4797
855.658	4767
855.792	4771
855.926	4782
856.06	4801
856.194	4831
856.327	4717
856.461	4702
856.595	4664
856.729	4634
856.862	4733
856.996	4710
857.13	4809
857.263	4748
857.397	4850
857.53	4706
857.664	4763
857.797	4839
857.931	4755
858.064	4717
858.197	4763
858.331	4702
858.464	4626
858.597	4588
858.731	4603
858.864	4660
858.997	4645
859.13	4660
859.263	4664
859.396	4694
859.529	4584
859.662	4569
859.795	4535
859.928	4622
860.061	4767
860.194	4778
860.327	4645
860.46	4580
860.592	4721
860.725	4725
860.858	4767
860.99	4626
861.123	4531
861.256	4504
861.388	4599
861.521	5246
861.653	4554
861.786	4481
861.918	4500
862.05	4527
862.183	4561
862.315	4622
862.447	4672
862.58	4599
862.712	4451
862.844	4367
862.976	4500
863.108	4440
863.24	4812
863.372	4363
863.504	4455
863.636	4402
863.768	4516
863.9	4462
864.032	4356
864.164	4390
864.296	4516
864.428	4527
864.559	4592
864.691	4580
864.823	4546
864.954	4527
865.086	4497
865.217	4466
865.349	4451
865.48	4470
865.612	4470
865.743	4607
865.875	4538
866.006	4451
866.137	4485
866.269	4466
866.4	4417
866.531	4462
866.662	4470
866.793	4497
866.924	4440
867.055	4500
867.186	4470
867.317	4462
867.448	4390
867.579	4386
867.71	4402
867.841	4390
867.972	4443
868.103	4436
868.233	4478
868.364	4489
868.495	4504
868.625	4675
868.756	4786
868.886	4580
869.017	4675
869.147	4805
869.278	4767
869.408	4641
869.539	4615
869.669	4748
869.799	4675
869.929	4805
870.06	4733
870.19	5018
870.32	4870
870.45	4995
870.58	5041
870.71	5109
870.84	5143
870.97	4919
871.1	4915
871.23	5155
871.36	5155
871.489	5045
871.619	5071
871.749	5079
871.879	5143
872.008	5208
872.138	5064
872.267	5010
872.397	4904
872.526	4847
872.656	4774
872.785	4805
872.915	4957
873.044	5048
873.173	4999
873.303	4911
873.432	4927
873.561	5014
873.69	4862
873.819	4923
873.948	4938
874.077	4900
874.206	4778
874.335	4782
874.464	4911
874.593	5094
874.722	4972
874.851	5067
874.979	5090
875.108	5056
875.237	4930
875.365	4889
875.494	4957
875.623	4976
875.751	4828
875.88	4877
876.008	4968
876.136	4980
876.265	5258
876.393	5307
876.521	5231
876.65	5261
876.778	5151
876.906	5048
877.034	5048
877.162	5014
877.29	5003
877.418	5048
877.546	5086
877.674	5029
877.802	5071
877.93	5006
878.058	4927
878.185	4946
878.313	4995
878.441	4999
878.568	4847
878.696	4858
878.824	5022
878.951	5029
879.079	5178
879.206	5334
879.333	5105
879.461	5022
879.588	5003
879.715	5117
879.842	5254
879.97	5006
880.097	4820
880.224	4774
880.351	4835
880.478	4873
880.605	4812
880.732	4759
880.859	5121
880.986	4927
881.112	4904
881.239	4812
881.366	4714
881.493	4641
881.619	4641
881.746	4584
881.872	4679
881.999	4641
882.125	4694
882.252	4774
882.378	4801
882.505	4972
882.631	4828
882.757	4736
882.883	4782
883.01	4744
883.136	4702
883.262	4592
883.388	4599
883.514	4816
883.64	4904
883.766	4828
883.892	4706
884.018	4759
884.143	4927
884.269	5022
884.395	4714
884.52	4664
884.646	4630
884.772	4603
884.897	4588
885.023	4672
885.148	4805
885.274	4923
885.399	4820
885.524	4786
885.65	4721
885.775	4744
885.9	4717
886.025	4881
886.15	4820
886.275	4679
886.4	4675
886.525	4752
886.65	4698
886.775	4706
886.9	4942
887.025	5010
887.149	4839
887.274	4668
887.399	4607
887.523	4618
887.648	4569
887.773	4630
887.897	4786
888.021	4793
888.146	4675
888.27	4824
888.395	4923
888.519	4809
888.643	4824
888.767	4805
888.891	4679
889.015	4637
889.139	4656
889.263	4687
889.387	4835
889.511	4805
889.635	4763
889.759	4615
889.883	4607
890.006	4740
890.13	4889
890.254	4660
890.377	4725
890.501	4523
890.624	4538
890.748	4641
890.871	4478
890.995	4409
891.118	4398
891.241	4561
891.364	4596
891.488	4656
891.611	4565
891.734	4538
891.857	4649
891.98	4558
892.103	4653
892.226	4630
892.349	4500
892.471	4421
892.594	4592
892.717	4596
892.839	4577
892.962	4615
893.085	4710
893.207	4630
893.33	4443
893.452	4523
893.575	4721
893.697	4531
893.819	4805
893.941	4824
894.064	4831
894.186	4577
894.308	4592
894.43	4710
894.552	4816
894.674	4733
894.796	4603
894.918	4573
895.04	4561
895.161	4698
895.283	4675
895.405	4603
895.526	4668
895.648	4706
895.769	4721
895.891	4725
896.012	4763
896.134	4744
896.255	4660
896.376	4664
896.498	4615
896.619	4698
896.74	4630
896.861	4668
896.982	4923
897.103	5124
897.224	4839
897.345	4752
897.466	4694
897.587	4748
897.708	4854
897.828	4782
897.949	4702
898.07	4561
898.19	4653
898.311	4824
898.431	4717
898.552	4755
898.672	4828
898.792	4847
898.913	4729
899.033	4653
899.153	4523
899.273	4443
899.393	4508
899.513	4535
899.633	4493
899.753	4558
899.873	4550
899.993	4569
900.113	4584
900.232	4554
900.352	4535
900.472	4512
900.591	4417
900.711	4519
900.83	4455
900.95	4588
901.069	4721
901.189	4550
901.308	4375
901.427	4306
901.546	4360
901.665	4459
901.784	4504
901.904	4409
902.023	4344
902.141	4242
902.26	4204
902.379	4325
902.498	4280
902.617	4223
902.735	4394
902.854	4394
902.973	4363
903.091	4188
903.21	4230
903.328	4291
903.446	4276
903.565	4261
903.683	4344
903.801	4284
903.919	4402
904.038	4417
904.156	4257
904.274	4398
904.392	4390
904.51	4417
904.627	4440
904.745	4573
904.863	4611
904.981	4417
905.098	4329
905.216	4360
905.334	4402
905.451	4421
905.569	4409
905.686	4599
905.803	4558
905.921	4379
906.038	4580
906.155	4493
906.272	4348
906.389	4481
906.506	4363
906.623	4398
906.74	4440
906.857	4333
906.974	4417
907.091	4599
907.208	4660
907.324	4599
907.441	4542
907.557	4337
907.674	4352
907.79	4379
907.907	4356
908.023	4447
908.139	4504
908.256	4394
908.372	4489
908.488	4478
908.604	4356
908.72	4360
908.836	4413
908.952	4386
909.068	4443
909.184	4565
909.3	4500
909.415	4588
909.531	4584
909.647	4386
909.762	4405
909.878	4367
909.993	4489
910.108	4424
910.224	4409
910.339	4405
910.454	4417
910.57	4348
910.685	4303
910.8	4649
910.915	4573
911.03	4531
911.145	4360
911.259	4356
911.374	4371
911.489	4284
911.604	4284
911.718	4192
911.833	4211
911.947	4067
912.062	4051
912.176	4196
912.291	4192
912.405	4276
912.519	4504
912.633	4478
912.748	4352
912.862	4303
912.976	4207
913.09	4109
913.204	4162
913.318	4249
913.431	4371
913.545	4390
913.659	4405
913.772	4379
913.886	4223
914	4238
914.113	4356
914.226	4447
914.34	4421
914.453	4268
914.566	4447
914.68	4314
914.793	4333
914.906	4162
915.019	4169
915.132	4101
915.245	4234
915.358	4207
915.47	4230
915.583	4238
915.696	4333
915.809	4402
915.921	4451
916.034	4265
916.146	4238
916.259	4162
916.371	4398
916.483	4341
916.595	4230
916.708	4329
916.82	4333
916.932	4329
917.044	4329
917.156	4356
917.268	4272
917.38	4363
917.491	4246
917.603	4375
917.715	4409
917.826	4459
917.938	4310
918.049	4234
918.161	4394
918.272	4531
918.384	4588
918.495	4451
918.606	4249
918.717	4227
918.828	4344
918.939	4325
919.05	4238
919.161	4299
919.272	4120
919.383	4261
919.494	4474
919.604	4611
919.715	4432
919.826	4322
919.936	4462
920.047	4504
920.157	4523
920.267	4698
920.378	4546
920.488	4489
920.598	4733
920.708	4915
920.818	4767
920.928	4759
921.038	4953
921.148	4942
921.258	4615
921.368	4565
921.477	4489
921.587	4436
921.697	4360
921.806	4542
921.916	4440
922.025	4249
922.134	4253
922.244	4265
922.353	4352
922.462	4173
922.571	4143
922.68	4010
922.789	3983
922.898	4029
923.007	3975
923.116	4109
923.224	4090
923.333	4082
923.442	3983
923.55	3975
923.659	4006
923.767	4101
923.876	4006
923.984	4097
924.092	3979
924.201	4067
924.309	4078
924.417	4150
924.525	4051
924.633	4071
924.741	5083
924.849	3915
924.956	4147
925.064	3953
925.172	3880
925.279	3953
925.387	4017
925.494	4051
925.602	4196
925.709	4177
925.816	4055
925.924	4086
926.031	4200
926.138	4211
926.245	4169
926.352	4071
926.459	4246
926.566	4322
926.673	4215
926.779	4097
926.886	4074
926.993	4036
927.099	3972
927.206	3926
927.312	3941
927.419	4063
927.525	4048
927.631	4036
927.737	3926
927.843	3922
927.95	3819
928.056	3972
928.162	4017
928.267	4109
928.373	4584
928.479	4093
928.585	3880
928.69	4032
928.796	4059
928.901	3998
929.007	3869
929.112	3987
929.218	3960
929.323	3968
929.428	3937
929.533	4143
929.638	3915
929.743	3975
929.848	4044
929.953	4021
930.058	3907
930.163	3785
930.267	3835
930.372	3975
930.477	3781
930.581	4074
930.685	3972
930.79	3789
930.894	3892
930.998	3899
931.103	4025
931.207	3694
931.311	3701
931.415	3660
931.519	3564
931.623	3530
