Data from test_V78500241_455.txt Node
Date: Fri Mar 25 16:52:09 CST 2022
User: usil
Spectrometer: V785-0024
Trigger mode: 0
Integration Time (sec): 4.000000E-1
Scans to average: 1
Nonlinearity correction enabled: false
Boxcar width: 0
Storing dark spectrum: false
XAxis mode: Wavelengths
Number of Pixels in Spectrum: 1024
>>>>>Begin Spectral Data<<<<<
801.071	8142
801.214	8058
801.356	7925
801.499	7898
801.641	7822
801.783	7883
801.926	7986
802.068	7978
802.211	8008
802.353	8008
802.496	7917
802.638	7951
802.78	7963
802.923	7902
803.065	7856
803.208	7913
803.35	7940
803.492	8073
803.635	8153
803.777	8081
803.919	8149
804.061	8423
804.204	8191
804.346	8027
804.488	7955
804.63	8134
804.773	8031
804.915	8084
805.057	8263
805.199	8206
805.341	8252
805.483	8267
805.626	8164
805.768	8084
805.91	8210
806.052	8191
806.194	8153
806.336	8347
806.478	8187
806.62	8111
806.762	8138
806.904	8263
807.046	8465
807.188	8305
807.33	8237
807.472	8279
807.614	8157
807.756	8111
807.898	8005
808.04	7894
808.182	7940
808.324	7970
808.465	7917
808.607	8065
808.749	8050
808.891	8161
809.033	8347
809.174	8153
809.316	8088
809.458	8031
809.6	7997
809.741	8035
809.883	8054
810.025	8069
810.166	8107
810.308	8062
810.45	8012
810.591	7906
810.733	7822
810.875	7636
811.016	7605
811.158	7521
811.299	7662
811.441	7795
811.582	7651
811.724	7628
811.865	7597
812.007	7616
812.148	7636
812.29	7674
812.431	7807
812.573	7883
812.714	7978
812.855	8164
812.997	8294
813.138	8370
813.279	8183
813.421	8256
813.562	8073
813.703	7860
813.845	7871
813.986	7514
814.127	7369
814.268	7331
814.41	7240
814.551	7194
814.692	7149
814.833	7088
814.974	7141
815.115	7137
815.256	6981
815.397	6859
815.539	6954
815.68	6837
815.821	6795
815.962	6943
816.103	6913
816.244	6787
816.385	6662
816.526	6635
816.666	6547
816.807	6353
816.948	6448
817.089	6471
817.23	6479
817.371	6399
817.512	6391
817.653	6429
817.793	6380
817.934	6448
818.075	6429
818.216	6490
818.356	6433
818.497	6281
818.638	6171
818.778	6159
818.919	6144
819.06	6213
819.2	6308
819.341	6372
819.481	6365
819.622	6513
819.762	6779
819.903	6741
820.043	6536
820.184	6608
820.324	6620
820.465	6692
820.605	6673
820.746	6669
820.886	6502
821.026	6620
821.167	6741
821.307	6810
821.447	6787
821.588	6700
821.728	6536
821.868	6448
822.008	6369
822.149	6380
822.289	6361
822.429	6171
822.569	6125
822.709	6125
822.849	5920
822.99	5935
823.13	5931
823.27	5866
823.41	5779
823.55	5779
823.69	5798
823.83	5786
823.97	5627
824.11	5562
824.25	5509
824.389	5619
824.529	5642
824.669	5551
824.809	5627
824.949	5699
825.089	5665
825.228	5596
825.368	5398
825.508	5322
825.648	5345
825.787	5429
825.927	5364
826.067	5269
826.206	5315
826.346	5357
826.485	5391
826.625	5410
826.765	5551
826.904	5490
827.044	5265
827.183	5261
827.323	5147
827.462	5242
827.601	5189
827.741	5178
827.88	5174
828.02	5136
828.159	5288
828.298	5261
828.437	5364
828.577	5269
828.716	5535
828.855	5334
828.994	5189
829.134	5223
829.273	5208
829.412	5151
829.551	5124
829.69	5201
829.829	5254
829.968	5357
830.107	5269
830.246	5288
830.385	5204
830.524	5109
830.663	5102
830.802	4980
830.941	4904
831.08	4911
831.219	4972
831.357	4946
831.496	5181
831.635	4965
831.774	4915
831.913	4915
832.051	4706
832.19	4721
832.329	4858
832.467	4714
832.606	4607
832.744	4710
832.883	4706
833.022	4710
833.16	4839
833.299	4866
833.437	4873
833.576	4866
833.714	4896
833.852	4828
833.991	4900
834.129	4972
834.267	5006
834.406	4923
834.544	4987
834.682	4961
834.821	4972
834.959	5185
835.097	5029
835.235	5185
835.373	5079
835.511	5090
835.65	5048
835.788	5071
835.926	4889
836.064	4866
836.202	4927
836.34	5204
836.478	5258
836.615	5159
836.753	5216
836.891	5311
837.029	5227
837.167	5227
837.305	5185
837.443	5170
837.58	5121
837.718	5239
837.856	5178
837.993	5155
838.131	5246
838.269	5242
838.406	5216
838.544	5193
838.681	5033
838.819	5029
838.956	4942
839.094	4923
839.231	4938
839.369	5090
839.506	5406
839.643	5250
839.781	5048
839.918	5014
840.055	5155
840.193	5121
840.33	5113
840.467	5155
840.604	5189
840.742	5455
840.879	5060
841.016	5147
841.153	5201
841.29	5353
841.427	5337
841.564	5311
841.701	5322
841.838	5254
841.975	5250
842.112	5307
842.249	5102
842.385	5117
842.522	5303
842.659	5204
842.796	5170
842.933	5178
843.069	5136
843.206	5124
843.343	5296
843.479	5170
843.616	5284
843.752	5037
843.889	4980
844.025	5212
844.162	4980
844.298	5197
844.435	5117
844.571	5094
844.708	5181
844.844	5231
844.98	5406
845.117	5273
845.253	5109
845.389	5083
845.525	5170
845.661	5189
845.798	5102
845.934	5147
846.07	5067
846.206	5239
846.342	5292
846.478	5189
846.614	5037
846.75	5022
846.886	4946
847.022	5155
847.158	5003
847.294	5098
847.429	5128
847.565	5105
847.701	5288
847.837	4839
847.972	4820
848.108	4987
848.244	4930
848.379	4778
848.515	4733
848.65	4710
848.786	4763
848.921	4812
849.057	4873
849.192	4934
849.328	4816
849.463	4870
849.598	4771
849.734	4755
849.869	4694
850.004	4668
850.14	4694
850.275	4599
850.41	4531
850.545	4538
850.68	4603
850.815	4615
850.95	4694
851.085	4831
851.22	4755
851.355	4668
851.49	4592
851.625	4607
851.76	4653
851.895	4527
852.03	4546
852.165	4683
852.299	4691
852.434	4797
852.569	4744
852.703	4721
852.838	4862
852.973	4934
853.107	4923
853.242	4767
853.376	4641
853.511	4542
853.645	4668
853.78	4805
853.914	4736
854.048	4660
854.183	4653
854.317	4691
854.451	4877
854.585	4679
854.72	4592
854.854	4782
854.988	4615
855.122	4626
855.256	4519
855.39	4660
855.524	4797
855.658	4736
855.792	4736
855.926	4752
856.06	4755
856.194	4839
856.327	4675
856.461	4645
856.595	4615
856.729	4691
856.862	4740
856.996	4672
857.13	4744
857.263	4752
857.397	4793
857.53	4694
857.664	4725
857.797	4767
857.931	4816
858.064	4702
858.197	4755
858.331	4645
858.464	4611
858.597	4485
858.731	4641
858.864	4641
858.997	4558
859.13	4683
859.263	4679
859.396	4725
859.529	4615
859.662	4607
859.795	4542
859.928	4634
860.061	4782
860.194	4786
860.327	4668
860.46	4615
860.592	4710
860.725	4763
860.858	4721
860.99	4580
861.123	4523
861.256	4531
861.388	4622
861.521	5436
861.653	4478
861.786	4440
861.918	4493
862.05	4489
862.183	4542
862.315	4611
862.447	4683
862.58	4497
862.712	4383
862.844	4367
862.976	4481
863.108	4462
863.24	4771
863.372	4367
863.504	4417
863.636	4348
863.768	4489
863.9	4428
864.032	4394
864.164	4424
864.296	4447
864.428	4542
864.559	4596
864.691	4546
864.823	4554
864.954	4481
865.086	4516
865.217	4462
865.349	4424
865.48	4440
865.612	4478
865.743	4622
865.875	4474
866.006	4432
866.137	4432
866.269	4432
866.4	4447
866.531	4405
866.662	4424
866.793	4409
866.924	4428
867.055	4474
867.186	4447
867.317	4413
867.448	4379
867.579	4436
867.71	4402
867.841	4375
867.972	4497
868.103	4481
868.233	4447
868.364	4459
868.495	4462
868.625	4672
868.756	4725
868.886	4618
869.017	4607
869.147	4786
869.278	4797
869.408	4694
869.539	4687
869.669	4694
869.799	4656
869.929	4771
870.06	4763
870.19	4919
870.32	4915
870.45	4942
870.58	5006
870.71	5064
870.84	5140
870.97	4976
871.1	4900
871.23	5140
871.36	5094
871.489	5025
871.619	5105
871.749	5090
871.879	5124
872.008	5166
872.138	5014
872.267	4972
872.397	4847
872.526	4828
872.656	4725
872.785	4854
872.915	4972
873.044	5060
873.173	4949
873.303	4938
873.432	4968
873.561	4965
873.69	4915
873.819	4870
873.948	4873
874.077	4839
874.206	4714
874.335	4790
874.464	4934
874.593	5010
874.722	4946
874.851	5136
874.979	5037
875.108	4999
875.237	4870
875.365	4938
875.494	4930
875.623	5014
875.751	4847
875.88	4889
876.008	5003
876.136	5022
876.265	5208
876.393	5391
876.521	5212
876.65	5170
876.778	5185
876.906	5018
877.034	5052
877.162	5067
877.29	5037
877.418	5033
877.546	5052
877.674	5056
877.802	4972
877.93	5079
878.058	5022
878.185	4877
878.313	4930
878.441	4961
878.568	4778
878.696	4885
878.824	4953
878.951	5003
879.079	5090
879.206	5292
879.333	5094
879.461	4965
879.588	5048
879.715	5094
879.842	5242
879.97	5025
880.097	4759
880.224	4767
880.351	4824
880.478	4858
880.605	4763
880.732	4797
880.859	5056
880.986	4877
881.112	4919
881.239	4782
881.366	4645
881.493	4622
881.619	4622
881.746	4653
881.872	4630
881.999	4641
882.125	4694
882.252	4790
882.378	4809
882.505	4984
882.631	4809
882.757	4634
882.883	4733
883.01	4755
883.136	4706
883.262	4603
883.388	4611
883.514	4835
883.64	4873
883.766	4774
883.892	4683
884.018	4714
884.143	4930
884.269	4980
884.395	4653
884.52	4626
884.646	4634
884.772	4577
884.897	4588
885.023	4672
885.148	4786
885.274	4809
885.399	4786
885.524	4721
885.65	4729
885.775	4774
885.9	4752
886.025	4850
886.15	4793
886.275	4801
886.4	4634
886.525	4687
886.65	4683
886.775	4679
886.9	4968
887.025	5025
887.149	4797
887.274	4615
887.399	4603
887.523	4611
887.648	4596
887.773	4573
887.897	4797
888.021	4793
888.146	4672
888.27	4801
888.395	4889
888.519	4828
888.643	4812
888.767	4873
888.891	4672
889.015	4580
889.139	4637
889.263	4577
889.387	4778
889.511	4847
889.635	4767
889.759	4683
889.883	4637
890.006	4774
890.13	4786
890.254	4615
890.377	4656
890.501	4580
890.624	4508
890.748	4679
890.871	4538
890.995	4481
891.118	4363
891.241	4497
891.364	4561
891.488	4660
891.611	4478
891.734	4519
891.857	4668
891.98	4512
892.103	4702
892.226	4573
892.349	4542
892.471	4386
892.594	4542
892.717	4569
892.839	4588
892.962	4565
893.085	4702
893.207	4588
893.33	4470
893.452	4527
893.575	4660
893.697	4596
893.819	4824
893.941	4866
894.064	4782
894.186	4580
894.308	4569
894.43	4687
894.552	4862
894.674	4721
894.796	4538
894.918	4599
895.04	4565
895.161	4725
895.283	4645
895.405	4592
895.526	4626
895.648	4698
895.769	4672
895.891	4691
896.012	4790
896.134	4748
896.255	4679
896.376	4656
896.498	4630
896.619	4672
896.74	4584
896.861	4603
896.982	4911
897.103	5105
897.224	4835
897.345	4755
897.466	4710
897.587	4755
897.708	4850
897.828	4782
897.949	4649
898.07	4561
898.19	4660
898.311	4873
898.431	4668
898.552	4714
898.672	4870
898.792	4786
898.913	4717
899.033	4634
899.153	4531
899.273	4462
899.393	4489
899.513	4550
899.633	4546
899.753	4497
899.873	4531
899.993	4584
900.113	4603
900.232	4615
900.352	4531
900.472	4508
900.591	4432
900.711	4466
900.83	4436
900.95	4622
901.069	4672
901.189	4527
901.308	4356
901.427	4367
901.546	4348
901.665	4462
901.784	4497
901.904	4371
902.023	4333
902.141	4169
902.26	4185
902.379	4303
902.498	4230
902.617	4204
902.735	4474
902.854	4398
902.973	4329
903.091	4211
903.21	4257
903.328	4272
903.446	4200
903.565	4291
903.683	4383
903.801	4284
903.919	4394
904.038	4436
904.156	4287
904.274	4443
904.392	4348
904.51	4451
904.627	4485
904.745	4569
904.863	4588
904.981	4379
905.098	4329
905.216	4386
905.334	4424
905.451	4459
905.569	4455
905.686	4565
905.803	4618
905.921	4413
906.038	4554
906.155	4470
906.272	4413
906.389	4466
906.506	4337
906.623	4398
906.74	4386
906.857	4329
906.974	4348
907.091	4542
907.208	4653
907.324	4599
907.441	4531
907.557	4325
907.674	4379
907.79	4322
907.907	4375
908.023	4478
908.139	4493
908.256	4451
908.372	4466
908.488	4489
908.604	4367
908.72	4333
908.836	4390
908.952	4325
909.068	4417
909.184	4577
909.3	4447
909.415	4573
909.531	4493
909.647	4352
909.762	4371
909.878	4390
909.993	4424
910.108	4459
910.224	4474
910.339	4493
910.454	4409
910.57	4402
910.685	4314
910.8	4675
910.915	4607
911.03	4554
911.145	4341
911.259	4322
911.374	4348
911.489	4230
911.604	4291
911.718	4166
911.833	4219
911.947	4090
912.062	4044
912.176	4223
912.291	4249
912.405	4227
912.519	4443
912.633	4508
912.748	4367
912.862	4265
912.976	4230
913.09	4112
913.204	4173
913.318	4284
913.431	4367
913.545	4417
913.659	4447
913.772	4394
913.886	4268
914	4200
914.113	4348
914.226	4474
914.34	4413
914.453	4238
914.566	4447
914.68	4341
914.793	4303
914.906	4169
915.019	4112
915.132	4112
915.245	4207
915.358	4211
915.47	4272
915.583	4295
915.696	4295
915.809	4459
915.921	4447
916.034	4284
916.146	4284
916.259	4207
916.371	4398
916.483	4363
916.595	4238
916.708	4333
916.82	4322
916.932	4322
917.044	4314
917.156	4341
917.268	4219
917.38	4325
917.491	4299
917.603	4306
917.715	4440
917.826	4428
917.938	4383
918.049	4272
918.161	4421
918.272	4523
918.384	4561
918.495	4466
918.606	4265
918.717	4268
918.828	4329
918.939	4405
919.05	4257
919.161	4337
919.272	4150
919.383	4253
919.494	4428
919.604	4607
919.715	4436
919.826	4348
919.936	4394
920.047	4531
920.157	4508
920.267	4694
920.378	4531
920.488	4493
920.598	4710
920.708	4885
920.818	4740
920.928	4759
921.038	4965
921.148	4961
921.258	4649
921.368	4573
921.477	4527
921.587	4474
921.697	4409
921.806	4527
921.916	4447
922.025	4284
922.134	4268
922.244	4230
922.353	4341
922.462	4154
922.571	4128
922.68	3987
922.789	3987
922.898	4071
923.007	4002
923.116	4128
923.224	4082
923.333	4097
923.442	3998
923.55	3968
923.659	4010
923.767	4097
923.876	4002
923.984	4093
924.092	3975
924.201	4101
924.309	4086
924.417	4158
924.525	4074
924.633	4093
924.741	5018
924.849	3956
924.956	4143
925.064	3960
925.172	3918
925.279	3945
925.387	4006
925.494	4021
925.602	4196
925.709	4154
925.816	4071
925.924	4112
926.031	4238
926.138	4188
926.245	4207
926.352	4120
926.459	4219
926.566	4329
926.673	4158
926.779	4074
926.886	4109
926.993	3964
927.099	3960
927.206	3945
927.312	3960
927.419	4048
927.525	4002
927.631	4082
927.737	3983
927.843	3873
927.95	3865
928.056	3945
928.162	4029
928.267	4082
928.373	4733
928.479	4105
928.585	3876
928.69	4010
928.796	4071
928.901	3964
929.007	3850
929.112	4059
929.218	3956
929.323	3911
929.428	3949
929.533	4131
929.638	3926
929.743	3949
929.848	4074
929.953	4017
930.058	3953
930.163	3797
930.267	3846
930.372	3983
930.477	3842
930.581	4112
930.685	3934
930.79	3831
930.894	3869
930.998	3865
931.103	4055
931.207	3732
931.311	3679
931.415	3644
931.519	3564
931.623	3542
