Data from test_V78500241_209.txt Node
Date: Fri Mar 25 16:50:27 CST 2022
User: usil
Spectrometer: V785-0024
Trigger mode: 0
Integration Time (sec): 4.000000E-1
Scans to average: 1
Nonlinearity correction enabled: false
Boxcar width: 0
Storing dark spectrum: false
XAxis mode: Wavelengths
Number of Pixels in Spectrum: 1024
>>>>>Begin Spectral Data<<<<<
801.071	8035
801.214	7993
801.356	7883
801.499	7769
801.641	7715
801.783	7883
801.926	7932
802.068	7982
802.211	8031
802.353	7982
802.496	7860
802.638	7852
802.78	7967
802.923	7849
803.065	7887
803.208	7883
803.35	7955
803.492	8084
803.635	8088
803.777	7989
803.919	8058
804.061	8404
804.204	8134
804.346	8016
804.488	7955
804.63	8149
804.773	8005
804.915	8115
805.057	8233
805.199	8195
805.341	8096
805.483	8233
805.626	8111
805.768	8050
805.91	8134
806.052	8145
806.194	8020
806.336	8244
806.478	8161
806.62	8001
806.762	8103
806.904	8199
807.046	8400
807.188	8317
807.33	8317
807.472	8305
807.614	8126
807.756	8103
807.898	8024
808.04	7871
808.182	7860
808.324	7887
808.465	7944
808.607	8054
808.749	8111
808.891	8271
809.033	8339
809.174	8202
809.316	8046
809.458	8073
809.6	8024
809.741	7894
809.883	7993
810.025	8119
810.166	8084
810.308	8001
810.45	7940
810.591	7830
810.733	7765
810.875	7670
811.016	7521
811.158	7518
811.299	7578
811.441	7761
811.582	7620
811.724	7575
811.865	7506
812.007	7620
812.148	7529
812.29	7639
812.431	7837
812.573	7928
812.714	7989
812.855	8172
812.997	8279
813.138	8351
813.279	8149
813.421	8123
813.562	7997
813.703	7879
813.845	7731
813.986	7453
814.127	7259
814.268	7179
814.41	7236
814.551	7179
814.692	7175
814.833	7091
814.974	7175
815.115	7107
815.256	7000
815.397	6920
815.539	7000
815.68	6821
815.821	6760
815.962	6833
816.103	6840
816.244	6734
816.385	6681
816.526	6616
816.666	6467
816.807	6342
816.948	6486
817.089	6517
817.23	6388
817.371	6407
817.512	6388
817.653	6376
817.793	6365
817.934	6460
818.075	6479
818.216	6426
818.356	6410
818.497	6235
818.638	6106
818.778	6190
818.919	6163
819.06	6064
819.2	6353
819.341	6308
819.481	6315
819.622	6506
819.762	6703
819.903	6684
820.043	6604
820.184	6616
820.324	6620
820.465	6688
820.605	6688
820.746	6631
820.886	6513
821.026	6646
821.167	6665
821.307	6749
821.447	6722
821.588	6677
821.728	6544
821.868	6490
822.008	6300
822.149	6323
822.289	6311
822.429	6091
822.569	6072
822.709	6098
822.849	5916
822.99	5893
823.13	5920
823.27	5885
823.41	5794
823.55	5859
823.69	5760
823.83	5775
823.97	5699
824.11	5524
824.25	5543
824.389	5547
824.529	5585
824.669	5535
824.809	5657
824.949	5707
825.089	5634
825.228	5543
825.368	5425
825.508	5360
825.648	5353
825.787	5383
825.927	5402
826.067	5311
826.206	5296
826.346	5414
826.485	5391
826.625	5433
826.765	5539
826.904	5452
827.044	5242
827.183	5250
827.323	5124
827.462	5288
827.601	5185
827.741	5166
827.88	5204
828.02	5181
828.159	5231
828.298	5299
828.437	5334
828.577	5322
828.716	5444
828.855	5311
828.994	5227
829.134	5155
829.273	5227
829.412	5181
829.551	5140
829.69	5155
829.829	5242
829.968	5398
830.107	5231
830.246	5277
830.385	5201
830.524	5159
830.663	5086
830.802	4976
830.941	4919
831.08	4885
831.219	4942
831.357	5029
831.496	5113
831.635	4987
831.774	4900
831.913	4870
832.051	4679
832.19	4771
832.329	4854
832.467	4721
832.606	4649
832.744	4740
832.883	4740
833.022	4706
833.16	4828
833.299	4801
833.437	4824
833.576	4850
833.714	4862
833.852	4854
833.991	4889
834.129	4984
834.267	4953
834.406	4889
834.544	4957
834.682	4961
834.821	4991
834.959	5105
835.097	4984
835.235	5178
835.373	5090
835.511	5094
835.65	4984
835.788	5025
835.926	4915
836.064	4828
836.202	4923
836.34	5117
836.478	5250
836.615	5132
836.753	5254
836.891	5299
837.029	5235
837.167	5258
837.305	5136
837.443	5166
837.58	5052
837.718	5254
837.856	5155
837.993	5090
838.131	5235
838.269	5201
838.406	5193
838.544	5166
838.681	5067
838.819	4965
838.956	4908
839.094	4915
839.231	5025
839.369	5056
839.506	5440
839.643	5296
839.781	5022
839.918	5025
840.055	5105
840.193	5079
840.33	5151
840.467	5102
840.604	5128
840.742	5444
840.879	5094
841.016	5124
841.153	5159
841.29	5337
841.427	5357
841.564	5318
841.701	5353
841.838	5353
841.975	5216
842.112	5231
842.249	5117
842.385	5075
842.522	5376
842.659	5159
842.796	5178
842.933	5197
843.069	5155
843.206	5132
843.343	5360
843.479	5299
843.616	5265
843.752	4991
843.889	5025
844.025	5223
844.162	5037
844.298	5185
844.435	5117
844.571	5018
844.708	5178
844.844	5318
844.98	5299
845.117	5311
845.253	5170
845.389	5102
845.525	5189
845.661	5113
845.798	5045
845.934	5181
846.07	5094
846.206	5246
846.342	5261
846.478	5193
846.614	5041
846.75	5006
846.886	4968
847.022	5132
847.158	5010
847.294	5041
847.429	5109
847.565	5067
847.701	5288
847.837	4854
847.972	4824
848.108	4953
848.244	4927
848.379	4767
848.515	4736
848.65	4744
848.786	4797
848.921	4786
849.057	4850
849.192	4900
849.328	4812
849.463	4866
849.598	4782
849.734	4778
849.869	4675
850.004	4607
850.14	4656
850.275	4611
850.41	4542
850.545	4558
850.68	4618
850.815	4637
850.95	4664
851.085	4873
851.22	4782
851.355	4649
851.49	4584
851.625	4649
851.76	4626
851.895	4573
852.03	4580
852.165	4660
852.299	4733
852.434	4812
852.569	4755
852.703	4797
852.838	4828
852.973	4915
853.107	4949
853.242	4725
853.376	4660
853.511	4550
853.645	4607
853.78	4877
853.914	4683
854.048	4694
854.183	4649
854.317	4679
854.451	4889
854.585	4748
854.72	4607
854.854	4793
854.988	4588
855.122	4691
855.256	4558
855.39	4660
855.524	4816
855.658	4733
855.792	4717
855.926	4736
856.06	4752
856.194	4797
856.327	4653
856.461	4634
856.595	4634
856.729	4653
856.862	4790
856.996	4714
857.13	4744
857.263	4744
857.397	4835
857.53	4675
857.664	4759
857.797	4748
857.931	4786
858.064	4752
858.197	4721
858.331	4653
858.464	4588
858.597	4565
858.731	4607
858.864	4653
858.997	4554
859.13	4637
859.263	4626
859.396	4675
859.529	4626
859.662	4577
859.795	4523
859.928	4569
860.061	4752
860.194	4793
860.327	4596
860.46	4504
860.592	4687
860.725	4679
860.858	4774
860.99	4592
861.123	4554
861.256	4523
861.388	4622
861.521	5303
861.653	4527
861.786	4402
861.918	4474
862.05	4535
862.183	4607
862.315	4592
862.447	4637
862.58	4565
862.712	4428
862.844	4322
862.976	4485
863.108	4447
863.24	4858
863.372	4322
863.504	4394
863.636	4348
863.768	4546
863.9	4398
864.032	4352
864.164	4386
864.296	4466
864.428	4550
864.559	4546
864.691	4546
864.823	4497
864.954	4493
865.086	4527
865.217	4440
865.349	4394
865.48	4481
865.612	4443
865.743	4584
865.875	4462
866.006	4447
866.137	4428
866.269	4443
866.4	4413
866.531	4455
866.662	4428
866.793	4402
866.924	4413
867.055	4493
867.186	4508
867.317	4424
867.448	4352
867.579	4421
867.71	4363
867.841	4398
867.972	4508
868.103	4527
868.233	4424
868.364	4474
868.495	4500
868.625	4691
868.756	4767
868.886	4592
869.017	4603
869.147	4793
869.278	4767
869.408	4675
869.539	4687
869.669	4725
869.799	4672
869.929	4714
870.06	4790
870.19	4949
870.32	4889
870.45	4965
870.58	5048
870.71	5128
870.84	5067
870.97	4908
871.1	4862
871.23	5166
871.36	5121
871.489	4987
871.619	5117
871.749	5117
871.879	5147
872.008	5151
872.138	5056
872.267	4968
872.397	4866
872.526	4839
872.656	4752
872.785	4820
872.915	4946
873.044	5071
873.173	4965
873.303	4949
873.432	4957
873.561	4961
873.69	4911
873.819	4866
873.948	4927
874.077	4824
874.206	4714
874.335	4763
874.464	4892
874.593	5064
874.722	4946
874.851	5083
874.979	5052
875.108	5083
875.237	4930
875.365	4847
875.494	4904
875.623	4919
875.751	4797
875.88	4866
876.008	4991
876.136	5090
876.265	5162
876.393	5357
876.521	5258
876.65	5258
876.778	5143
876.906	5060
877.034	5018
877.162	5010
877.29	5048
877.418	5064
877.546	5018
877.674	5071
877.802	5022
877.93	4995
878.058	4927
878.185	4862
878.313	4949
878.441	4930
878.568	4771
878.696	4862
878.824	5003
878.951	4972
879.079	5166
879.206	5307
879.333	5079
879.461	4976
879.588	4968
879.715	5128
879.842	5280
879.97	5045
880.097	4790
880.224	4729
880.351	4809
880.478	4812
880.605	4843
880.732	4767
880.859	5086
880.986	4877
881.112	4881
881.239	4790
881.366	4691
881.493	4592
881.619	4580
881.746	4675
881.872	4679
881.999	4660
882.125	4668
882.252	4771
882.378	4801
882.505	4919
882.631	4828
882.757	4626
882.883	4763
883.01	4763
883.136	4683
883.262	4683
883.388	4622
883.514	4771
883.64	4877
883.766	4763
883.892	4729
884.018	4729
884.143	4915
884.269	4965
884.395	4664
884.52	4618
884.646	4641
884.772	4554
884.897	4573
885.023	4710
885.148	4767
885.274	4889
885.399	4790
885.524	4710
885.65	4729
885.775	4801
885.9	4767
886.025	4877
886.15	4748
886.275	4687
886.4	4656
886.525	4767
886.65	4710
886.775	4721
886.9	4915
887.025	5064
887.149	4805
887.274	4698
887.399	4615
887.523	4626
887.648	4626
887.773	4626
887.897	4759
888.021	4839
888.146	4653
888.27	4839
888.395	4862
888.519	4816
888.643	4797
888.767	4877
888.891	4679
889.015	4615
889.139	4653
889.263	4569
889.387	4797
889.511	4900
889.635	4812
889.759	4622
889.883	4615
890.006	4755
890.13	4828
890.254	4630
890.377	4691
890.501	4558
890.624	4459
890.748	4607
890.871	4519
890.995	4421
891.118	4398
891.241	4546
891.364	4565
891.488	4626
891.611	4550
891.734	4615
891.857	4569
891.98	4569
892.103	4645
892.226	4626
892.349	4569
892.471	4375
892.594	4523
892.717	4596
892.839	4603
892.962	4596
893.085	4664
893.207	4584
893.33	4474
893.452	4447
893.575	4656
893.697	4603
893.819	4820
893.941	4858
894.064	4752
894.186	4569
894.308	4580
894.43	4694
894.552	4786
894.674	4759
894.796	4611
894.918	4702
895.04	4584
895.161	4733
895.283	4694
895.405	4577
895.526	4626
895.648	4660
895.769	4694
895.891	4694
896.012	4733
896.134	4748
896.255	4668
896.376	4649
896.498	4618
896.619	4729
896.74	4596
896.861	4691
896.982	4961
897.103	5052
897.224	4847
897.345	4691
897.466	4660
897.587	4729
897.708	4858
897.828	4797
897.949	4664
898.07	4550
898.19	4679
898.311	4843
898.431	4714
898.552	4748
898.672	4778
898.792	4835
898.913	4710
899.033	4615
899.153	4508
899.273	4424
899.393	4516
899.513	4481
899.633	4504
899.753	4577
899.873	4527
899.993	4565
900.113	4535
900.232	4580
900.352	4527
900.472	4512
900.591	4413
900.711	4516
900.83	4436
900.95	4603
901.069	4714
901.189	4546
901.308	4356
901.427	4341
901.546	4367
901.665	4478
901.784	4497
901.904	4432
902.023	4303
902.141	4143
902.26	4207
902.379	4318
902.498	4238
902.617	4230
902.735	4383
902.854	4417
902.973	4344
903.091	4234
903.21	4238
903.328	4333
903.446	4284
903.565	4276
903.683	4432
903.801	4272
903.919	4360
904.038	4466
904.156	4303
904.274	4462
904.392	4421
904.51	4455
904.627	4508
904.745	4603
904.863	4649
904.981	4481
905.098	4318
905.216	4409
905.334	4447
905.451	4459
905.569	4470
905.686	4538
905.803	4565
905.921	4459
906.038	4558
906.155	4535
906.272	4413
906.389	4481
906.506	4337
906.623	4424
906.74	4459
906.857	4329
906.974	4352
907.091	4577
907.208	4672
907.324	4584
907.441	4481
907.557	4314
907.674	4344
907.79	4341
907.907	4375
908.023	4531
908.139	4493
908.256	4443
908.372	4451
908.488	4462
908.604	4344
908.72	4322
908.836	4409
908.952	4386
909.068	4421
909.184	4615
909.3	4478
909.415	4603
909.531	4596
909.647	4383
909.762	4375
909.878	4386
909.993	4417
910.108	4443
910.224	4466
910.339	4470
910.454	4424
910.57	4440
910.685	4333
910.8	4611
910.915	4607
911.03	4462
911.145	4299
911.259	4341
911.374	4337
911.489	4295
911.604	4295
911.718	4150
911.833	4227
911.947	4116
912.062	4051
912.176	4234
912.291	4227
912.405	4280
912.519	4519
912.633	4519
912.748	4363
912.862	4344
912.976	4223
913.09	4120
913.204	4192
913.318	4257
913.431	4413
913.545	4337
913.659	4432
913.772	4390
913.886	4238
914	4242
914.113	4379
914.226	4451
914.34	4390
914.453	4238
914.566	4440
914.68	4322
914.793	4284
914.906	4211
915.019	4147
915.132	4112
915.245	4185
915.358	4265
915.47	4238
915.583	4268
915.696	4314
915.809	4375
915.921	4481
916.034	4227
916.146	4291
916.259	4284
916.371	4383
916.483	4379
916.595	4291
916.708	4310
916.82	4329
916.932	4295
917.044	4352
917.156	4352
917.268	4227
917.38	4295
917.491	4261
917.603	4363
917.715	4440
917.826	4451
917.938	4344
918.049	4261
918.161	4371
918.272	4561
918.384	4523
918.495	4447
918.606	4291
918.717	4242
918.828	4390
918.939	4356
919.05	4295
919.161	4310
919.272	4128
919.383	4215
919.494	4451
919.604	4660
919.715	4443
919.826	4386
919.936	4394
920.047	4558
920.157	4470
920.267	4702
920.378	4577
920.488	4512
920.598	4740
920.708	4877
920.818	4801
920.928	4721
921.038	4923
921.148	4911
921.258	4634
921.368	4535
921.477	4485
921.587	4478
921.697	4428
921.806	4508
921.916	4447
922.025	4268
922.134	4272
922.244	4280
922.353	4344
922.462	4207
922.571	4166
922.68	3983
922.789	3994
922.898	3998
923.007	4029
923.116	4131
923.224	4036
923.333	4071
923.442	3972
923.55	3987
923.659	4021
923.767	4105
923.876	4021
923.984	4101
924.092	4006
924.201	4090
924.309	4086
924.417	4105
924.525	4067
924.633	4131
924.741	5064
924.849	3903
924.956	4169
925.064	3953
925.172	3911
925.279	3949
925.387	4093
925.494	4055
925.602	4261
925.709	4181
925.816	4040
925.924	4173
926.031	4299
926.138	4173
926.245	4200
926.352	4131
926.459	4246
926.566	4333
926.673	4135
926.779	4082
926.886	4101
926.993	4010
927.099	3964
927.206	3926
927.312	3941
927.419	4082
927.525	4082
927.631	4101
927.737	3998
927.843	3960
927.95	3873
928.056	3972
928.162	4002
928.267	4051
928.373	4729
928.479	4101
928.585	3899
928.69	4055
928.796	4109
928.901	3968
929.007	3816
929.112	3975
929.218	3991
929.323	3949
929.428	3934
929.533	4109
929.638	3918
929.743	3968
929.848	4044
929.953	4032
930.058	3896
930.163	3755
930.267	3861
930.372	3964
930.477	3869
930.581	4071
930.685	3972
930.79	3781
930.894	3888
930.998	3899
931.103	3987
931.207	3694
931.311	3679
931.415	3633
931.519	3530
931.623	3542
