Data from test_V78500241_1700.txt Node
Date: Fri Mar 25 17:00:49 CST 2022
User: usil
Spectrometer: V785-0024
Trigger mode: 0
Integration Time (sec): 4.000000E-1
Scans to average: 1
Nonlinearity correction enabled: false
Boxcar width: 0
Storing dark spectrum: false
XAxis mode: Wavelengths
Number of Pixels in Spectrum: 1024
>>>>>Begin Spectral Data<<<<<
801.071	8027
801.214	7986
801.356	7822
801.499	7856
801.641	7708
801.783	7841
801.926	8005
802.068	7917
802.211	7963
802.353	7993
802.496	7799
802.638	7864
802.78	7951
802.923	7944
803.065	7864
803.208	7894
803.35	7982
803.492	8035
803.635	8119
803.777	7986
803.919	8126
804.061	8377
804.204	8149
804.346	7963
804.488	7906
804.63	8050
804.773	7993
804.915	8084
805.057	8290
805.199	8168
805.341	8187
805.483	8279
805.626	8218
805.768	8088
805.91	8168
806.052	8180
806.194	8119
806.336	8309
806.478	8119
806.62	8043
806.762	8145
806.904	8309
807.046	8571
807.188	8309
807.33	8286
807.472	8271
807.614	8157
807.756	8111
807.898	7967
808.04	7879
808.182	7928
808.324	7913
808.465	7951
808.607	7989
808.749	8157
808.891	8138
809.033	8301
809.174	8237
809.316	8096
809.458	8073
809.6	8012
809.741	8039
809.883	8073
810.025	8088
810.166	8058
810.308	8100
810.45	7936
810.591	7856
810.733	7689
810.875	7639
811.016	7529
811.158	7445
811.299	7613
811.441	7677
811.582	7643
811.724	7552
811.865	7578
812.007	7571
812.148	7613
812.29	7628
812.431	7780
812.573	7875
812.714	7932
812.855	8153
812.997	8199
813.138	8317
813.279	8115
813.421	8126
813.562	8020
813.703	7753
813.845	7670
813.986	7441
814.127	7244
814.268	7164
814.41	7206
814.551	7168
814.692	7194
814.833	7091
814.974	7099
815.115	7133
815.256	6924
815.397	6871
815.539	6913
815.68	6795
815.821	6741
815.962	6856
816.103	6783
816.244	6730
816.385	6589
816.526	6608
816.666	6494
816.807	6266
816.948	6441
817.089	6464
817.23	6388
817.371	6311
817.512	6369
817.653	6361
817.793	6346
817.934	6395
818.075	6498
818.216	6426
818.356	6426
818.497	6243
818.638	6106
818.778	6148
818.919	6182
819.06	6190
819.2	6372
819.341	6391
819.481	6380
819.622	6494
819.762	6703
819.903	6646
820.043	6574
820.184	6521
820.324	6570
820.465	6757
820.605	6703
820.746	6631
820.886	6513
821.026	6608
821.167	6730
821.307	6806
821.447	6810
821.588	6654
821.728	6604
821.868	6494
822.008	6338
822.149	6380
822.289	6327
822.429	6102
822.569	6102
822.709	6106
822.849	5942
822.99	5882
823.13	5935
823.27	5927
823.41	5794
823.55	5821
823.69	5745
823.83	5783
823.97	5718
824.11	5589
824.25	5524
824.389	5592
824.529	5581
824.669	5520
824.809	5592
824.949	5611
825.089	5615
825.228	5509
825.368	5414
825.508	5368
825.648	5315
825.787	5372
825.927	5425
826.067	5292
826.206	5303
826.346	5349
826.485	5379
826.625	5395
826.765	5535
826.904	5505
827.044	5185
827.183	5197
827.323	5086
827.462	5216
827.601	5147
827.741	5193
827.88	5201
828.02	5083
828.159	5201
828.298	5307
828.437	5368
828.577	5265
828.716	5486
828.855	5284
828.994	5166
829.134	5151
829.273	5170
829.412	5128
829.551	5147
829.69	5185
829.829	5235
829.968	5334
830.107	5231
830.246	5254
830.385	5143
830.524	5071
830.663	5033
830.802	5018
830.941	4858
831.08	4862
831.219	4965
831.357	5003
831.496	5143
831.635	4965
831.774	4812
831.913	4824
832.051	4710
832.19	4698
832.329	4782
832.467	4698
832.606	4637
832.744	4653
832.883	4729
833.022	4721
833.16	4809
833.299	4805
833.437	4793
833.576	4774
833.714	4839
833.852	4881
833.991	4873
834.129	4961
834.267	4942
834.406	4866
834.544	4900
834.682	4972
834.821	4991
834.959	5124
835.097	4965
835.235	5136
835.373	5067
835.511	5098
835.65	4995
835.788	5041
835.926	4858
836.064	4866
836.202	4889
836.34	5113
836.478	5189
836.615	5151
836.753	5201
836.891	5277
837.029	5193
837.167	5204
837.305	5162
837.443	5170
837.58	5086
837.718	5216
837.856	5170
837.993	5140
838.131	5155
838.269	5124
838.406	5170
838.544	5170
838.681	5041
838.819	4999
838.956	4889
839.094	4900
839.231	4953
839.369	5075
839.506	5376
839.643	5284
839.781	5018
839.918	5048
840.055	5041
840.193	5067
840.33	5090
840.467	5109
840.604	5128
840.742	5398
840.879	5071
841.016	5086
841.153	5166
841.29	5330
841.427	5341
841.564	5341
841.701	5379
841.838	5277
841.975	5227
842.112	5288
842.249	5109
842.385	5102
842.522	5280
842.659	5170
842.796	5109
842.933	5155
843.069	5132
843.206	5102
843.343	5299
843.479	5181
843.616	5258
843.752	5060
843.889	4965
844.025	5212
844.162	5056
844.298	5189
844.435	5079
844.571	5067
844.708	5235
844.844	5349
844.98	5315
845.117	5277
845.253	5143
845.389	5117
845.525	5102
845.661	5113
845.798	5056
845.934	5147
846.07	5022
846.206	5197
846.342	5265
846.478	5155
846.614	5006
846.75	4919
846.886	4930
847.022	5128
847.158	5056
847.294	5083
847.429	5132
847.565	5090
847.701	5299
847.837	4843
847.972	4812
848.108	4915
848.244	4908
848.379	4752
848.515	4733
848.65	4736
848.786	4725
848.921	4782
849.057	4809
849.192	4885
849.328	4801
849.463	4763
849.598	4786
849.734	4740
849.869	4702
850.004	4622
850.14	4637
850.275	4588
850.41	4504
850.545	4527
850.68	4538
850.815	4641
850.95	4607
851.085	4831
851.22	4717
851.355	4634
851.49	4596
851.625	4588
851.76	4626
851.895	4527
852.03	4519
852.165	4641
852.299	4702
852.434	4809
852.569	4706
852.703	4786
852.838	4816
852.973	4896
853.107	4923
853.242	4733
853.376	4634
853.511	4512
853.645	4603
853.78	4805
853.914	4706
854.048	4694
854.183	4668
854.317	4717
854.451	4828
854.585	4634
854.72	4588
854.854	4733
854.988	4622
855.122	4637
855.256	4535
855.39	4637
855.524	4763
855.658	4733
855.792	4664
855.926	4694
856.06	4767
856.194	4763
856.327	4660
856.461	4634
856.595	4634
856.729	4660
856.862	4752
856.996	4672
857.13	4664
857.263	4740
857.397	4812
857.53	4664
857.664	4744
857.797	4771
857.931	4801
858.064	4679
858.197	4694
858.331	4641
858.464	4618
858.597	4523
858.731	4668
858.864	4603
858.997	4630
859.13	4660
859.263	4618
859.396	4653
859.529	4565
859.662	4603
859.795	4527
859.928	4641
860.061	4797
860.194	4740
860.327	4622
860.46	4538
860.592	4691
860.725	4687
860.858	4694
860.99	4554
861.123	4516
861.256	4516
861.388	4569
861.521	5250
861.653	4421
861.786	4386
861.918	4459
862.05	4542
862.183	4527
862.315	4611
862.447	4656
862.58	4558
862.712	4371
862.844	4325
862.976	4497
863.108	4440
863.24	4831
863.372	4306
863.504	4413
863.636	4417
863.768	4424
863.9	4455
864.032	4386
864.164	4363
864.296	4474
864.428	4569
864.559	4558
864.691	4550
864.823	4462
864.954	4485
865.086	4497
865.217	4428
865.349	4405
865.48	4421
865.612	4474
865.743	4615
865.875	4428
866.006	4428
866.137	4500
866.269	4432
866.4	4402
866.531	4405
866.662	4409
866.793	4375
866.924	4394
867.055	4516
867.186	4402
867.317	4409
867.448	4405
867.579	4322
867.71	4367
867.841	4394
867.972	4398
868.103	4424
868.233	4436
868.364	4375
868.495	4497
868.625	4706
868.756	4805
868.886	4527
869.017	4577
869.147	4782
869.278	4736
869.408	4637
869.539	4618
869.669	4698
869.799	4637
869.929	4729
870.06	4714
870.19	4946
870.32	4919
870.45	4934
870.58	4976
870.71	5086
870.84	5048
870.97	4953
871.1	4870
871.23	5121
871.36	5151
871.489	5025
871.619	5083
871.749	5079
871.879	5071
872.008	5147
872.138	5041
872.267	4919
872.397	4904
872.526	4797
872.656	4721
872.785	4763
872.915	4976
873.044	4991
873.173	4911
873.303	4965
873.432	4957
873.561	4930
873.69	4862
873.819	4858
873.948	4908
874.077	4812
874.206	4702
874.335	4782
874.464	4938
874.593	5029
874.722	4980
874.851	5090
874.979	5090
875.108	5022
875.237	4908
875.365	4870
875.494	4900
875.623	4987
875.751	4812
875.88	4900
876.008	4984
876.136	5079
876.265	5185
876.393	5292
876.521	5208
876.65	5235
876.778	5166
876.906	5060
877.034	5022
877.162	5041
877.29	4961
877.418	5060
877.546	4995
877.674	5033
877.802	5022
877.93	4980
878.058	4908
878.185	4885
878.313	4949
878.441	4968
878.568	4755
878.696	4873
878.824	4957
878.951	4961
879.079	5124
879.206	5288
879.333	5041
879.461	5018
879.588	4961
879.715	5102
879.842	5235
879.97	4949
880.097	4774
880.224	4725
880.351	4774
880.478	4847
880.605	4782
880.732	4748
880.859	5098
880.986	4889
881.112	4892
881.239	4797
881.366	4656
881.493	4565
881.619	4580
881.746	4660
881.872	4725
881.999	4645
882.125	4675
882.252	4771
882.378	4831
882.505	4892
882.631	4782
882.757	4679
882.883	4683
883.01	4733
883.136	4634
883.262	4603
883.388	4599
883.514	4801
883.64	4816
883.766	4805
883.892	4687
884.018	4752
884.143	4873
884.269	4991
884.395	4675
884.52	4637
884.646	4687
884.772	4596
884.897	4538
885.023	4736
885.148	4740
885.274	4839
885.399	4816
885.524	4702
885.65	4687
885.775	4698
885.9	4691
886.025	4877
886.15	4805
886.275	4725
886.4	4683
886.525	4672
886.65	4668
886.775	4717
886.9	4885
887.025	4999
887.149	4786
887.274	4637
887.399	4607
887.523	4611
887.648	4565
887.773	4611
887.897	4752
888.021	4740
888.146	4626
888.27	4801
888.395	4892
888.519	4744
888.643	4835
888.767	4797
888.891	4637
889.015	4584
889.139	4645
889.263	4634
889.387	4755
889.511	4835
889.635	4767
889.759	4675
889.883	4641
890.006	4698
890.13	4873
890.254	4634
890.377	4641
890.501	4531
890.624	4504
890.748	4615
890.871	4516
890.995	4405
891.118	4371
891.241	4508
891.364	4519
891.488	4607
891.611	4497
891.734	4504
891.857	4584
891.98	4580
892.103	4615
892.226	4558
892.349	4546
892.471	4455
892.594	4584
892.717	4580
892.839	4577
892.962	4588
893.085	4675
893.207	4592
893.33	4421
893.452	4554
893.575	4675
893.697	4558
893.819	4786
893.941	4809
894.064	4786
894.186	4569
894.308	4531
894.43	4717
894.552	4759
894.674	4755
894.796	4561
894.918	4607
895.04	4569
895.161	4653
895.283	4630
895.405	4565
895.526	4630
895.648	4683
895.769	4687
895.891	4706
896.012	4736
896.134	4683
896.255	4653
896.376	4645
896.498	4573
896.619	4660
896.74	4634
896.861	4596
896.982	4885
897.103	5045
897.224	4812
897.345	4805
897.466	4630
897.587	4694
897.708	4847
897.828	4755
897.949	4653
898.07	4565
898.19	4656
898.311	4820
898.431	4656
898.552	4725
898.672	4805
898.792	4736
898.913	4714
899.033	4599
899.153	4542
899.273	4440
899.393	4504
899.513	4508
899.633	4508
899.753	4531
899.873	4550
899.993	4580
900.113	4523
900.232	4618
900.352	4550
900.472	4440
900.591	4394
900.711	4508
900.83	4428
900.95	4580
901.069	4675
901.189	4535
901.308	4344
901.427	4303
901.546	4322
901.665	4440
901.784	4493
901.904	4386
902.023	4265
902.141	4196
902.26	4162
902.379	4337
902.498	4211
902.617	4192
902.735	4344
902.854	4371
902.973	4352
903.091	4219
903.21	4238
903.328	4284
903.446	4230
903.565	4238
903.683	4329
903.801	4268
903.919	4413
904.038	4440
904.156	4280
904.274	4394
904.392	4409
904.51	4405
904.627	4443
904.745	4573
904.863	4645
904.981	4322
905.098	4306
905.216	4352
905.334	4409
905.451	4497
905.569	4432
905.686	4592
905.803	4580
905.921	4363
906.038	4577
906.155	4474
906.272	4459
906.389	4481
906.506	4360
906.623	4394
906.74	4360
906.857	4333
906.974	4386
907.091	4565
907.208	4649
907.324	4542
907.441	4527
907.557	4360
907.674	4360
907.79	4299
907.907	4363
908.023	4519
908.139	4440
908.256	4459
908.372	4462
908.488	4451
908.604	4405
908.72	4329
908.836	4329
908.952	4344
909.068	4417
909.184	4622
909.3	4466
909.415	4546
909.531	4565
909.647	4375
909.762	4383
909.878	4306
909.993	4371
910.108	4394
910.224	4371
910.339	4481
910.454	4379
910.57	4363
910.685	4318
910.8	4584
910.915	4599
911.03	4500
911.145	4310
911.259	4299
911.374	4356
911.489	4280
911.604	4287
911.718	4185
911.833	4181
911.947	4067
912.062	4044
912.176	4177
912.291	4207
912.405	4230
912.519	4436
912.633	4470
912.748	4375
912.862	4287
912.976	4188
913.09	4128
913.204	4135
913.318	4242
913.431	4367
913.545	4394
913.659	4466
913.772	4329
913.886	4242
914	4227
914.113	4375
914.226	4413
914.34	4379
914.453	4223
914.566	4417
914.68	4318
914.793	4306
914.906	4185
915.019	4120
915.132	4055
915.245	4173
915.358	4223
915.47	4268
915.583	4257
915.696	4268
915.809	4386
915.921	4443
916.034	4310
916.146	4261
916.259	4131
916.371	4417
916.483	4352
916.595	4188
916.708	4314
916.82	4337
916.932	4306
917.044	4325
917.156	4280
917.268	4204
917.38	4276
917.491	4272
917.603	4341
917.715	4424
917.826	4424
917.938	4303
918.049	4276
918.161	4455
918.272	4565
918.384	4519
918.495	4462
918.606	4303
918.717	4234
918.828	4318
918.939	4356
919.05	4257
919.161	4284
919.272	4112
919.383	4192
919.494	4424
919.604	4630
919.715	4417
919.826	4344
919.936	4417
920.047	4493
920.157	4459
920.267	4653
920.378	4531
920.488	4516
920.598	4702
920.708	4862
920.818	4721
920.928	4744
921.038	4927
921.148	4889
921.258	4618
921.368	4535
921.477	4443
921.587	4443
921.697	4379
921.806	4535
921.916	4443
922.025	4272
922.134	4306
922.244	4223
922.353	4287
922.462	4162
922.571	4143
922.68	4044
922.789	3975
922.898	4048
923.007	3968
923.116	4139
923.224	4071
923.333	4093
923.442	3953
923.55	3991
923.659	4036
923.767	4105
923.876	4002
923.984	4109
924.092	4013
924.201	4074
924.309	4071
924.417	4120
924.525	4032
924.633	4120
924.741	4873
924.849	3918
924.956	4139
925.064	3937
925.172	3857
925.279	3934
925.387	4071
925.494	4105
925.602	4253
925.709	4200
925.816	4036
925.924	4109
926.031	4169
926.138	4105
926.245	4223
926.352	4097
926.459	4276
926.566	4322
926.673	4169
926.779	4093
926.886	4135
926.993	4006
927.099	3968
927.206	3949
927.312	3888
927.419	4048
927.525	4006
927.631	4101
927.737	3960
927.843	3941
927.95	3835
928.056	3956
928.162	3987
928.267	4074
928.373	4668
928.479	4147
928.585	3846
928.69	4021
928.796	4078
928.901	3930
929.007	3842
929.112	3987
929.218	3975
929.323	3941
929.428	3915
929.533	4082
929.638	3937
929.743	3964
929.848	4036
929.953	4002
930.058	3930
930.163	3781
930.267	3831
930.372	3953
930.477	3785
930.581	4067
930.685	3964
930.79	3808
930.894	3876
930.998	3842
931.103	4032
931.207	3736
931.311	3717
931.415	3641
931.519	3519
931.623	3545
