Data from test_V78500241_2394.txt Node
Date: Fri Mar 25 17:05:38 CST 2022
User: usil
Spectrometer: V785-0024
Trigger mode: 0
Integration Time (sec): 4.000000E-1
Scans to average: 1
Nonlinearity correction enabled: false
Boxcar width: 0
Storing dark spectrum: false
XAxis mode: Wavelengths
Number of Pixels in Spectrum: 1024
>>>>>Begin Spectral Data<<<<<
801.071	7982
801.214	7986
801.356	7856
801.499	7837
801.641	7860
801.783	7837
801.926	8012
802.068	7993
802.211	7959
802.353	7970
802.496	7864
802.638	7879
802.78	7879
802.923	7947
803.065	7890
803.208	7871
803.35	8031
803.492	8092
803.635	8168
803.777	8069
803.919	8214
804.061	8499
804.204	8183
804.346	8005
804.488	7982
804.63	8115
804.773	7974
804.915	8107
805.057	8381
805.199	8210
805.341	8210
805.483	8301
805.626	8336
805.768	8187
805.91	8214
806.052	8240
806.194	8073
806.336	8301
806.478	8050
806.62	8103
806.762	8172
806.904	8202
807.046	8438
807.188	8298
807.33	8324
807.472	8370
807.614	8180
807.756	8180
807.898	8073
808.04	7849
808.182	7887
808.324	7894
808.465	7970
808.607	8142
808.749	8081
808.891	8225
809.033	8282
809.174	8271
809.316	8153
809.458	8081
809.6	8027
809.741	8046
809.883	8088
810.025	8191
810.166	8115
810.308	8058
810.45	8081
810.591	7849
810.733	7704
810.875	7674
811.016	7537
811.158	7483
811.299	7571
811.441	7712
811.582	7742
811.724	7590
811.865	7529
812.007	7620
812.148	7552
812.29	7681
812.431	7727
812.573	7917
812.714	7951
812.855	8096
812.997	8221
813.138	8305
813.279	8214
813.421	8073
813.562	7970
813.703	7803
813.845	7753
813.986	7449
814.127	7346
814.268	7213
814.41	7206
814.551	7156
814.692	7263
814.833	7061
814.974	7137
815.115	7099
815.256	7050
815.397	6932
815.539	6970
815.68	6795
815.821	6798
815.962	6897
816.103	6859
816.244	6719
816.385	6631
816.526	6650
816.666	6475
816.807	6315
816.948	6509
817.089	6525
817.23	6464
817.371	6350
817.512	6399
817.653	6395
817.793	6353
817.934	6429
818.075	6498
818.216	6471
818.356	6494
818.497	6300
818.638	6163
818.778	6171
818.919	6186
819.06	6148
819.2	6292
819.341	6391
819.481	6380
819.622	6547
819.762	6833
819.903	6745
820.043	6612
820.184	6551
820.324	6601
820.465	6684
820.605	6738
820.746	6715
820.886	6555
821.026	6646
821.167	6783
821.307	6829
821.447	6783
821.588	6681
821.728	6578
821.868	6616
822.008	6311
822.149	6395
822.289	6353
822.429	6163
822.569	6068
822.709	6152
822.849	5931
822.99	5946
823.13	5885
823.27	5946
823.41	5783
823.55	5809
823.69	5832
823.83	5760
823.97	5710
824.11	5554
824.25	5539
824.389	5570
824.529	5570
824.669	5562
824.809	5649
824.949	5703
825.089	5604
825.228	5543
825.368	5482
825.508	5334
825.648	5330
825.787	5326
825.927	5417
826.067	5318
826.206	5292
826.346	5349
826.485	5330
826.625	5433
826.765	5562
826.904	5471
827.044	5284
827.183	5231
827.323	5162
827.462	5246
827.601	5208
827.741	5178
827.88	5246
828.02	5136
828.159	5193
828.298	5261
828.437	5372
828.577	5261
828.716	5467
828.855	5318
828.994	5094
829.134	5155
829.273	5143
829.412	5124
829.551	5136
829.69	5201
829.829	5284
829.968	5395
830.107	5265
830.246	5280
830.385	5208
830.524	5170
830.663	5109
830.802	4999
830.941	4896
831.08	4885
831.219	4980
831.357	5003
831.496	5155
831.635	4938
831.774	4767
831.913	4854
832.051	4740
832.19	4721
832.329	4862
832.467	4714
832.606	4634
832.744	4714
832.883	4729
833.022	4698
833.16	4786
833.299	4782
833.437	4824
833.576	4858
833.714	4820
833.852	4854
833.991	4900
834.129	4915
834.267	4885
834.406	4930
834.544	4976
834.682	4911
834.821	4987
834.959	5151
835.097	5006
835.235	5132
835.373	5086
835.511	5079
835.65	5045
835.788	5025
835.926	4919
836.064	4828
836.202	4911
836.34	5174
836.478	5265
836.615	5094
836.753	5185
836.891	5212
837.029	5296
837.167	5181
837.305	5147
837.443	5121
837.58	5113
837.718	5212
837.856	5208
837.993	5174
838.131	5292
838.269	5204
838.406	5155
838.544	5201
838.681	4987
838.819	5029
838.956	4904
839.094	4915
839.231	4949
839.369	5041
839.506	5421
839.643	5273
839.781	5071
839.918	4999
840.055	5086
840.193	5136
840.33	5079
840.467	5102
840.604	5140
840.742	5406
840.879	5033
841.016	5075
841.153	5155
841.29	5357
841.427	5337
841.564	5337
841.701	5315
841.838	5284
841.975	5242
842.112	5277
842.249	5109
842.385	5102
842.522	5315
842.659	5201
842.796	5140
842.933	5155
843.069	5128
843.206	5102
843.343	5277
843.479	5212
843.616	5288
843.752	5003
843.889	5010
844.025	5166
844.162	5033
844.298	5227
844.435	5079
844.571	5052
844.708	5212
844.844	5258
844.98	5311
845.117	5242
845.253	5166
845.389	5102
845.525	5155
845.661	5185
845.798	5056
845.934	5136
846.07	5052
846.206	5170
846.342	5288
846.478	5212
846.614	5003
846.75	4980
846.886	4949
847.022	5147
847.158	5025
847.294	5064
847.429	5128
847.565	5033
847.701	5288
847.837	4854
847.972	4790
848.108	4976
848.244	4938
848.379	4763
848.515	4729
848.65	4675
848.786	4748
848.921	4778
849.057	4843
849.192	4850
849.328	4812
849.463	4809
849.598	4820
849.734	4790
849.869	4694
850.004	4641
850.14	4668
850.275	4599
850.41	4516
850.545	4554
850.68	4584
850.815	4664
850.95	4637
851.085	4858
851.22	4778
851.355	4725
851.49	4603
851.625	4641
851.76	4683
851.895	4561
852.03	4565
852.165	4641
852.299	4733
852.434	4774
852.569	4771
852.703	4774
852.838	4831
852.973	4949
853.107	4866
853.242	4755
853.376	4656
853.511	4573
853.645	4668
853.78	4847
853.914	4675
854.048	4660
854.183	4634
854.317	4675
854.451	4870
854.585	4683
854.72	4649
854.854	4774
854.988	4592
855.122	4641
855.256	4565
855.39	4698
855.524	4786
855.658	4683
855.792	4698
855.926	4698
856.06	4755
856.194	4786
856.327	4653
856.461	4615
856.595	4675
856.729	4618
856.862	4729
856.996	4672
857.13	4771
857.263	4771
857.397	4797
857.53	4656
857.664	4759
857.797	4790
857.931	4778
858.064	4691
858.197	4702
858.331	4656
858.464	4637
858.597	4527
858.731	4641
858.864	4630
858.997	4622
859.13	4675
859.263	4615
859.396	4710
859.529	4565
859.662	4607
859.795	4546
859.928	4626
860.061	4774
860.194	4706
860.327	4653
860.46	4573
860.592	4706
860.725	4736
860.858	4744
860.99	4607
861.123	4531
861.256	4554
861.388	4588
861.521	5277
861.653	4474
861.786	4432
861.918	4481
862.05	4519
862.183	4550
862.315	4634
862.447	4656
862.58	4531
862.712	4405
862.844	4344
862.976	4485
863.108	4421
863.24	4744
863.372	4360
863.504	4417
863.636	4421
863.768	4516
863.9	4443
864.032	4394
864.164	4398
864.296	4462
864.428	4569
864.559	4573
864.691	4527
864.823	4542
864.954	4519
865.086	4481
865.217	4489
865.349	4409
865.48	4451
865.612	4516
865.743	4611
865.875	4440
866.006	4428
866.137	4432
866.269	4451
866.4	4424
866.531	4424
866.662	4421
866.793	4440
866.924	4424
867.055	4497
867.186	4428
867.317	4421
867.448	4360
867.579	4417
867.71	4386
867.841	4390
867.972	4451
868.103	4459
868.233	4459
868.364	4462
868.495	4470
868.625	4721
868.756	4763
868.886	4538
869.017	4584
869.147	4793
869.278	4771
869.408	4603
869.539	4603
869.669	4748
869.799	4634
869.929	4687
870.06	4736
870.19	4972
870.32	4923
870.45	4892
870.58	4987
870.71	5079
870.84	5067
870.97	5006
871.1	4942
871.23	5132
871.36	5159
871.489	5029
871.619	5098
871.749	5105
871.879	5151
872.008	5117
872.138	5060
872.267	4984
872.397	4870
872.526	4835
872.656	4729
872.785	4835
872.915	4946
873.044	5037
873.173	4908
873.303	4972
873.432	4987
873.561	4984
873.69	4847
873.819	4877
873.948	4911
874.077	4892
874.206	4771
874.335	4824
874.464	4919
874.593	5025
874.722	4995
874.851	5094
874.979	5041
875.108	5033
875.237	4965
875.365	4839
875.494	4900
875.623	5022
875.751	4843
875.88	4915
876.008	4999
876.136	5010
876.265	5231
876.393	5311
876.521	5220
876.65	5201
876.778	5166
876.906	5083
877.034	5037
877.162	5075
877.29	5033
877.418	5094
877.546	5083
877.674	5006
877.802	5003
877.93	4987
878.058	4908
878.185	4889
878.313	4965
878.441	4965
878.568	4824
878.696	4870
878.824	4984
878.951	4999
879.079	5117
879.206	5292
879.333	5105
879.461	4984
879.588	5029
879.715	5105
879.842	5223
879.97	4999
880.097	4717
880.224	4733
880.351	4858
880.478	4816
880.605	4797
880.732	4774
880.859	5033
880.986	4892
881.112	4885
881.239	4748
881.366	4706
881.493	4630
881.619	4550
881.746	4634
881.872	4656
881.999	4645
882.125	4694
882.252	4767
882.378	4843
882.505	5033
882.631	4835
882.757	4641
882.883	4736
883.01	4793
883.136	4675
883.262	4603
883.388	4649
883.514	4801
883.64	4820
883.766	4778
883.892	4634
884.018	4710
884.143	4862
884.269	4980
884.395	4668
884.52	4615
884.646	4653
884.772	4569
884.897	4565
885.023	4649
885.148	4793
885.274	4847
885.399	4839
885.524	4729
885.65	4717
885.775	4755
885.9	4744
886.025	4892
886.15	4809
886.275	4782
886.4	4660
886.525	4733
886.65	4672
886.775	4702
886.9	4923
887.025	5037
887.149	4816
887.274	4637
887.399	4504
887.523	4580
887.648	4550
887.773	4592
887.897	4767
888.021	4790
888.146	4668
888.27	4847
888.395	4934
888.519	4839
888.643	4790
888.767	4824
888.891	4672
889.015	4561
889.139	4675
889.263	4577
889.387	4755
889.511	4858
889.635	4828
889.759	4626
889.883	4637
890.006	4710
890.13	4824
890.254	4618
890.377	4653
890.501	4527
890.624	4558
890.748	4675
890.871	4554
890.995	4428
891.118	4379
891.241	4481
891.364	4577
891.488	4664
891.611	4489
891.734	4508
891.857	4660
891.98	4577
892.103	4641
892.226	4611
892.349	4512
892.471	4436
892.594	4546
892.717	4599
892.839	4577
892.962	4607
893.085	4668
893.207	4615
893.33	4405
893.452	4519
893.575	4698
893.697	4558
893.819	4835
893.941	4812
894.064	4778
894.186	4584
894.308	4542
894.43	4710
894.552	4835
894.674	4740
894.796	4565
894.918	4607
895.04	4577
895.161	4740
895.283	4645
895.405	4611
895.526	4656
895.648	4687
895.769	4702
895.891	4748
896.012	4721
896.134	4710
896.255	4683
896.376	4672
896.498	4615
896.619	4672
896.74	4599
896.861	4637
896.982	4915
897.103	5052
897.224	4801
897.345	4763
897.466	4664
897.587	4710
897.708	4824
897.828	4812
897.949	4649
898.07	4569
898.19	4615
898.311	4858
898.431	4679
898.552	4725
898.672	4774
898.792	4771
898.913	4725
899.033	4611
899.153	4508
899.273	4485
899.393	4493
899.513	4500
899.633	4538
899.753	4535
899.873	4497
899.993	4542
900.113	4493
900.232	4599
900.352	4531
900.472	4493
900.591	4352
900.711	4447
900.83	4485
900.95	4615
901.069	4626
901.189	4531
901.308	4352
901.427	4314
901.546	4432
901.665	4409
901.784	4466
901.904	4375
902.023	4314
902.141	4181
902.26	4162
902.379	4261
902.498	4238
902.617	4234
902.735	4386
902.854	4371
902.973	4348
903.091	4230
903.21	4207
903.328	4284
903.446	4299
903.565	4265
903.683	4337
903.801	4318
903.919	4409
904.038	4409
904.156	4329
904.274	4466
904.392	4413
904.51	4489
904.627	4436
904.745	4558
904.863	4622
904.981	4386
905.098	4325
905.216	4322
905.334	4402
905.451	4447
905.569	4405
905.686	4584
905.803	4527
905.921	4379
906.038	4504
906.155	4440
906.272	4440
906.389	4462
906.506	4318
906.623	4379
906.74	4394
906.857	4337
906.974	4363
907.091	4546
907.208	4637
907.324	4561
907.441	4481
907.557	4360
907.674	4337
907.79	4333
907.907	4352
908.023	4466
908.139	4516
908.256	4424
908.372	4466
908.488	4451
908.604	4337
908.72	4341
908.836	4337
908.952	4333
909.068	4440
909.184	4592
909.3	4489
909.415	4561
909.531	4611
909.647	4379
909.762	4436
909.878	4394
909.993	4447
910.108	4432
910.224	4436
910.339	4478
910.454	4409
910.57	4341
910.685	4363
910.8	4607
910.915	4611
911.03	4512
911.145	4375
911.259	4356
911.374	4371
911.489	4325
911.604	4287
911.718	4173
911.833	4192
911.947	4074
912.062	4021
912.176	4188
912.291	4207
912.405	4268
912.519	4466
912.633	4516
912.748	4363
912.862	4303
912.976	4192
913.09	4074
913.204	4158
913.318	4227
913.431	4371
913.545	4367
913.659	4459
913.772	4356
913.886	4211
914	4204
914.113	4394
914.226	4424
914.34	4398
914.453	4223
914.566	4379
914.68	4337
914.793	4348
914.906	4196
915.019	4112
915.132	4082
915.245	4185
915.358	4177
915.47	4268
915.583	4246
915.696	4280
915.809	4413
915.921	4436
916.034	4287
916.146	4249
916.259	4242
916.371	4329
916.483	4390
916.595	4246
916.708	4333
916.82	4303
916.932	4337
917.044	4314
917.156	4295
917.268	4219
917.38	4268
917.491	4249
917.603	4352
917.715	4447
917.826	4405
917.938	4379
918.049	4192
918.161	4341
918.272	4573
918.384	4512
918.495	4413
918.606	4272
918.717	4223
918.828	4325
918.939	4386
919.05	4227
919.161	4333
919.272	4116
919.383	4249
919.494	4417
919.604	4649
919.715	4402
919.826	4348
919.936	4417
920.047	4542
920.157	4470
920.267	4683
920.378	4538
920.488	4546
920.598	4733
920.708	4896
920.818	4733
920.928	4740
921.038	4965
921.148	4904
921.258	4607
921.368	4561
921.477	4500
921.587	4508
921.697	4383
921.806	4546
921.916	4409
922.025	4291
922.134	4242
922.244	4215
922.353	4348
922.462	4139
922.571	4120
922.68	4032
922.789	3983
922.898	4006
923.007	3972
923.116	4124
923.224	4074
923.333	4067
923.442	3964
923.55	4029
923.659	4002
923.767	4082
923.876	3994
923.984	4139
924.092	3975
924.201	4093
924.309	4116
924.417	4120
924.525	4051
924.633	4105
924.741	5045
924.849	3896
924.956	4169
925.064	3972
925.172	3907
925.279	3956
925.387	4040
925.494	4055
925.602	4166
925.709	4223
925.816	4025
925.924	4116
926.031	4268
926.138	4185
926.245	4185
926.352	4135
926.459	4219
926.566	4337
926.673	4181
926.779	4090
926.886	4101
926.993	3949
927.099	3987
927.206	3975
927.312	3937
927.419	4055
927.525	4044
927.631	4082
927.737	3960
927.843	3987
927.95	3838
928.056	3949
928.162	3975
928.267	4032
928.373	4710
928.479	4116
928.585	3907
928.69	4017
928.796	4093
928.901	3949
929.007	3831
929.112	4017
929.218	3983
929.323	3968
929.428	3907
929.533	4124
929.638	3922
929.743	3922
929.848	4036
929.953	4017
930.058	3918
930.163	3797
930.267	3854
930.372	3979
930.477	3785
930.581	4067
930.685	3949
930.79	3797
930.894	3861
930.998	3854
931.103	3987
931.207	3751
931.311	3671
931.415	3656
931.519	3542
931.623	3507
