Data from test_V78500241_858.txt Node
Date: Fri Mar 25 16:54:58 CST 2022
User: usil
Spectrometer: V785-0024
Trigger mode: 0
Integration Time (sec): 4.000000E-1
Scans to average: 1
Nonlinearity correction enabled: false
Boxcar width: 0
Storing dark spectrum: false
XAxis mode: Wavelengths
Number of Pixels in Spectrum: 1024
>>>>>Begin Spectral Data<<<<<
801.071	7967
801.214	8046
801.356	7887
801.499	7814
801.641	7795
801.783	7845
801.926	7986
802.068	7883
802.211	7909
802.353	7959
802.496	7780
802.638	7906
802.78	7856
802.923	7936
803.065	7833
803.208	7906
803.35	8027
803.492	8107
803.635	8176
803.777	7986
803.919	8062
804.061	8419
804.204	8119
804.346	8096
804.488	7970
804.63	8111
804.773	8020
804.915	8058
805.057	8210
805.199	8119
805.341	8206
805.483	8214
805.626	8176
805.768	8081
805.91	8130
806.052	8145
806.194	8065
806.336	8244
806.478	8096
806.62	8005
806.762	8054
806.904	8252
807.046	8488
807.188	8400
807.33	8290
807.472	8286
807.614	8123
807.756	8161
807.898	7993
808.04	7906
808.182	7852
808.324	7868
808.465	7849
808.607	8008
808.749	8077
808.891	8153
809.033	8263
809.174	8180
809.316	8065
809.458	8001
809.6	7974
809.741	8012
809.883	8062
810.025	8077
810.166	8100
810.308	8031
810.45	8016
810.591	7894
810.733	7715
810.875	7647
811.016	7540
811.158	7487
811.299	7590
811.441	7685
811.582	7655
811.724	7548
811.865	7487
812.007	7540
812.148	7575
812.29	7597
812.431	7708
812.573	7753
812.714	7917
812.855	8130
812.997	8237
813.138	8279
813.279	8107
813.421	8164
813.562	8050
813.703	7856
813.845	7772
813.986	7502
814.127	7240
814.268	7236
814.41	7156
814.551	7141
814.692	7042
814.833	7034
814.974	7107
815.115	7023
815.256	6935
815.397	7000
815.539	6924
815.68	6779
815.821	6787
815.962	6833
816.103	6825
816.244	6753
816.385	6642
816.526	6616
816.666	6448
816.807	6277
816.948	6357
817.089	6486
817.23	6426
817.371	6403
817.512	6350
817.653	6372
817.793	6357
817.934	6361
818.075	6433
818.216	6407
818.356	6369
818.497	6224
818.638	6121
818.778	6159
818.919	6060
819.06	6159
819.2	6277
819.341	6342
819.481	6331
819.622	6544
819.762	6700
819.903	6593
820.043	6601
820.184	6604
820.324	6483
820.465	6658
820.605	6654
820.746	6658
820.886	6467
821.026	6631
821.167	6654
821.307	6760
821.447	6757
821.588	6608
821.728	6555
821.868	6498
822.008	6350
822.149	6372
822.289	6266
822.429	6152
822.569	6057
822.709	6117
822.849	5889
822.99	5874
823.13	5942
823.27	5946
823.41	5832
823.55	5760
823.69	5752
823.83	5779
823.97	5684
824.11	5493
824.25	5490
824.389	5558
824.529	5581
824.669	5509
824.809	5680
824.949	5611
825.089	5611
825.228	5512
825.368	5387
825.508	5334
825.648	5315
825.787	5379
825.927	5360
826.067	5258
826.206	5280
826.346	5372
826.485	5402
826.625	5448
826.765	5573
826.904	5474
827.044	5189
827.183	5216
827.323	5121
827.462	5227
827.601	5159
827.741	5166
827.88	5178
828.02	5094
828.159	5223
828.298	5311
828.437	5364
828.577	5250
828.716	5448
828.855	5292
828.994	5105
829.134	5170
829.273	5185
829.412	5132
829.551	5113
829.69	5178
829.829	5227
829.968	5368
830.107	5288
830.246	5204
830.385	5166
830.524	5117
830.663	5060
830.802	4957
830.941	4885
831.08	4911
831.219	4984
831.357	4938
831.496	5113
831.635	4862
831.774	4835
831.913	4774
832.051	4748
832.19	4740
832.329	4850
832.467	4694
832.606	4641
832.744	4683
832.883	4706
833.022	4687
833.16	4759
833.299	4820
833.437	4847
833.576	4786
833.714	4858
833.852	4812
833.991	4923
834.129	4930
834.267	4927
834.406	4854
834.544	4991
834.682	5010
834.821	4972
834.959	5132
835.097	4965
835.235	5090
835.373	5041
835.511	5105
835.65	5006
835.788	4976
835.926	4892
836.064	4881
836.202	4911
836.34	5159
836.478	5201
836.615	5162
836.753	5136
836.891	5288
837.029	5216
837.167	5204
837.305	5124
837.443	5105
837.58	5105
837.718	5208
837.856	5155
837.993	5083
838.131	5220
838.269	5170
838.406	5204
838.544	5151
838.681	5029
838.819	4972
838.956	4873
839.094	4915
839.231	4972
839.369	5079
839.506	5368
839.643	5261
839.781	5067
839.918	5022
840.055	5098
840.193	5090
840.33	5121
840.467	5098
840.604	5136
840.742	5429
840.879	5083
841.016	5060
841.153	5143
841.29	5341
841.427	5303
841.564	5318
841.701	5360
841.838	5258
841.975	5212
842.112	5258
842.249	5162
842.385	5075
842.522	5326
842.659	5143
842.796	5090
842.933	5189
843.069	5113
843.206	5166
843.343	5318
843.479	5280
843.616	5258
843.752	4995
843.889	4980
844.025	5204
844.162	4976
844.298	5201
844.435	5060
844.571	5022
844.708	5170
844.844	5261
844.98	5318
845.117	5288
845.253	5109
845.389	5041
845.525	5132
845.661	5124
845.798	5018
845.934	5105
846.07	5022
846.206	5174
846.342	5261
846.478	5140
846.614	5033
846.75	4938
846.886	4927
847.022	5105
847.158	4984
847.294	5067
847.429	5113
847.565	4991
847.701	5235
847.837	4862
847.972	4778
848.108	4930
848.244	4927
848.379	4786
848.515	4778
848.65	4714
848.786	4710
848.921	4782
849.057	4873
849.192	4873
849.328	4793
849.463	4862
849.598	4774
849.734	4797
849.869	4698
850.004	4588
850.14	4622
850.275	4592
850.41	4546
850.545	4531
850.68	4599
850.815	4618
850.95	4622
851.085	4820
851.22	4702
851.355	4679
851.49	4580
851.625	4584
851.76	4683
851.895	4527
852.03	4519
852.165	4641
852.299	4694
852.434	4755
852.569	4733
852.703	4797
852.838	4809
852.973	4889
853.107	4900
853.242	4725
853.376	4580
853.511	4527
853.645	4565
853.78	4790
853.914	4714
854.048	4603
854.183	4618
854.317	4672
854.451	4828
854.585	4679
854.72	4611
854.854	4774
854.988	4596
855.122	4611
855.256	4485
855.39	4656
855.524	4717
855.658	4694
855.792	4653
855.926	4767
856.06	4793
856.194	4763
856.327	4714
856.461	4599
856.595	4588
856.729	4618
856.862	4774
856.996	4687
857.13	4721
857.263	4759
857.397	4805
857.53	4622
857.664	4755
857.797	4683
857.931	4790
858.064	4672
858.197	4729
858.331	4565
858.464	4573
858.597	4523
858.731	4611
858.864	4626
858.997	4596
859.13	4645
859.263	4698
859.396	4691
859.529	4607
859.662	4584
859.795	4550
859.928	4645
860.061	4729
860.194	4748
860.327	4565
860.46	4531
860.592	4668
860.725	4698
860.858	4759
860.99	4531
861.123	4542
861.256	4500
861.388	4599
861.521	5326
861.653	4500
861.786	4421
861.918	4436
862.05	4512
862.183	4519
862.315	4607
862.447	4630
862.58	4527
862.712	4333
862.844	4341
862.976	4440
863.108	4451
863.24	4759
863.372	4348
863.504	4436
863.636	4386
863.768	4489
863.9	4424
864.032	4341
864.164	4363
864.296	4455
864.428	4538
864.559	4561
864.691	4546
864.823	4504
864.954	4478
865.086	4440
865.217	4455
865.349	4424
865.48	4436
865.612	4466
865.743	4683
865.875	4474
866.006	4421
866.137	4474
866.269	4447
866.4	4428
866.531	4402
866.662	4394
866.793	4432
866.924	4424
867.055	4493
867.186	4440
867.317	4455
867.448	4379
867.579	4367
867.71	4352
867.841	4333
867.972	4474
868.103	4447
868.233	4462
868.364	4451
868.495	4474
868.625	4660
868.756	4721
868.886	4592
869.017	4611
869.147	4744
869.278	4740
869.408	4687
869.539	4626
869.669	4744
869.799	4618
869.929	4740
870.06	4755
870.19	4927
870.32	4881
870.45	4847
870.58	4991
870.71	5071
870.84	5064
870.97	4930
871.1	4854
871.23	5121
871.36	5128
871.489	4949
871.619	5037
871.749	5071
871.879	5109
872.008	5166
872.138	5067
872.267	4938
872.397	4847
872.526	4801
872.656	4717
872.785	4771
872.915	4915
873.044	5014
873.173	4919
873.303	4927
873.432	4987
873.561	4984
873.69	4923
873.819	4828
873.948	4953
874.077	4824
874.206	4767
874.335	4752
874.464	4881
874.593	5010
874.722	4976
874.851	5064
874.979	5022
875.108	5025
875.237	4858
875.365	4870
875.494	4854
875.623	4980
875.751	4816
875.88	4854
876.008	4991
876.136	5006
876.265	5216
876.393	5311
876.521	5170
876.65	5159
876.778	5117
876.906	5067
877.034	4999
877.162	5025
877.29	4965
877.418	5022
877.546	5045
877.674	4980
877.802	4991
877.93	5022
878.058	4904
878.185	4896
878.313	4919
878.441	4927
878.568	4778
878.696	4862
878.824	4938
878.951	5018
879.079	5159
879.206	5201
879.333	5075
879.461	4976
879.588	4972
879.715	5083
879.842	5231
879.97	5014
880.097	4759
880.224	4748
880.351	4862
880.478	4812
880.605	4793
880.732	4801
880.859	5098
880.986	4896
881.112	4889
881.239	4782
881.366	4664
881.493	4592
881.619	4546
881.746	4637
881.872	4641
881.999	4660
882.125	4683
882.252	4771
882.378	4809
882.505	4991
882.631	4752
882.757	4691
882.883	4736
883.01	4740
883.136	4645
883.262	4615
883.388	4558
883.514	4790
883.64	4892
883.766	4759
883.892	4645
884.018	4691
884.143	4843
884.269	4987
884.395	4645
884.52	4607
884.646	4596
884.772	4592
884.897	4516
885.023	4634
885.148	4805
885.274	4870
885.399	4774
885.524	4698
885.65	4683
885.775	4714
885.9	4717
886.025	4828
886.15	4786
886.275	4694
886.4	4637
886.525	4702
886.65	4679
886.775	4649
886.9	4911
887.025	5037
887.149	4790
887.274	4637
887.399	4618
887.523	4645
887.648	4569
887.773	4611
887.897	4748
888.021	4767
888.146	4668
888.27	4820
888.395	4877
888.519	4790
888.643	4866
888.767	4748
888.891	4714
889.015	4626
889.139	4653
889.263	4584
889.387	4767
889.511	4828
889.635	4793
889.759	4596
889.883	4599
890.006	4714
890.13	4854
890.254	4603
890.377	4687
890.501	4565
890.624	4512
890.748	4630
890.871	4538
890.995	4451
891.118	4402
891.241	4466
891.364	4523
891.488	4558
891.611	4493
891.734	4523
891.857	4569
891.98	4531
892.103	4622
892.226	4603
892.349	4504
892.471	4363
892.594	4550
892.717	4569
892.839	4546
892.962	4565
893.085	4656
893.207	4584
893.33	4443
893.452	4466
893.575	4717
893.697	4527
893.819	4809
893.941	4805
894.064	4790
894.186	4584
894.308	4538
894.43	4733
894.552	4752
894.674	4729
894.796	4535
894.918	4573
895.04	4489
895.161	4706
895.283	4637
895.405	4554
895.526	4626
895.648	4698
895.769	4675
895.891	4729
896.012	4752
896.134	4672
896.255	4626
896.376	4664
896.498	4615
896.619	4645
896.74	4573
896.861	4641
896.982	4904
897.103	5025
897.224	4828
897.345	4774
897.466	4668
897.587	4740
897.708	4831
897.828	4790
897.949	4675
898.07	4538
898.19	4607
898.311	4801
898.431	4672
898.552	4759
898.672	4820
898.792	4771
898.913	4725
899.033	4588
899.153	4474
899.273	4417
899.393	4436
899.513	4493
899.633	4481
899.753	4531
899.873	4504
899.993	4588
900.113	4542
900.232	4516
900.352	4561
900.472	4455
900.591	4428
900.711	4493
900.83	4421
900.95	4584
901.069	4698
901.189	4489
901.308	4363
901.427	4280
901.546	4383
901.665	4466
901.784	4512
901.904	4375
902.023	4337
902.141	4112
902.26	4143
902.379	4303
902.498	4272
902.617	4204
902.735	4325
902.854	4413
902.973	4337
903.091	4188
903.21	4227
903.328	4303
903.446	4234
903.565	4242
903.683	4363
903.801	4284
903.919	4421
904.038	4402
904.156	4249
904.274	4405
904.392	4337
904.51	4424
904.627	4466
904.745	4573
904.863	4626
904.981	4402
905.098	4322
905.216	4325
905.334	4383
905.451	4405
905.569	4421
905.686	4554
905.803	4558
905.921	4375
906.038	4554
906.155	4451
906.272	4356
906.389	4474
906.506	4344
906.623	4341
906.74	4363
906.857	4284
906.974	4390
907.091	4535
907.208	4656
907.324	4561
907.441	4489
907.557	4318
907.674	4348
907.79	4329
907.907	4394
908.023	4440
908.139	4436
908.256	4398
908.372	4478
908.488	4440
908.604	4322
908.72	4337
908.836	4390
908.952	4375
909.068	4443
909.184	4584
909.3	4497
909.415	4523
909.531	4538
909.647	4367
909.762	4356
909.878	4375
909.993	4402
910.108	4394
910.224	4405
910.339	4470
910.454	4421
910.57	4356
910.685	4295
910.8	4645
910.915	4592
911.03	4489
911.145	4310
911.259	4318
911.374	4386
911.489	4310
911.604	4265
911.718	4188
911.833	4204
911.947	4093
912.062	4044
912.176	4188
912.291	4204
912.405	4230
912.519	4462
912.633	4508
912.748	4295
912.862	4375
912.976	4211
913.09	4086
913.204	4139
913.318	4249
913.431	4356
913.545	4390
913.659	4443
913.772	4333
913.886	4246
914	4238
914.113	4405
914.226	4466
914.34	4371
914.453	4234
914.566	4421
914.68	4280
914.793	4310
914.906	4128
915.019	4135
915.132	4055
915.245	4158
915.358	4207
915.47	4211
915.583	4196
915.696	4299
915.809	4375
915.921	4383
916.034	4265
916.146	4249
916.259	4215
916.371	4371
916.483	4318
916.595	4238
916.708	4341
916.82	4314
916.932	4246
917.044	4333
917.156	4299
917.268	4192
917.38	4230
917.491	4230
917.603	4432
917.715	4417
917.826	4417
917.938	4291
918.049	4234
918.161	4417
918.272	4538
918.384	4527
918.495	4402
918.606	4299
918.717	4181
918.828	4306
918.939	4333
919.05	4272
919.161	4287
919.272	4120
919.383	4234
919.494	4443
919.604	4596
919.715	4402
919.826	4352
919.936	4352
920.047	4535
920.157	4440
920.267	4691
920.378	4542
920.488	4402
920.598	4710
920.708	4854
920.818	4744
920.928	4748
921.038	4991
921.148	4915
921.258	4649
921.368	4527
921.477	4478
921.587	4455
921.697	4371
921.806	4485
921.916	4417
922.025	4246
922.134	4219
922.244	4238
922.353	4310
922.462	4177
922.571	4097
922.68	3964
922.789	3983
922.898	4013
923.007	4017
923.116	4063
923.224	4071
923.333	4055
923.442	3975
923.55	4032
923.659	4040
923.767	4082
923.876	4017
923.984	4131
924.092	4010
924.201	4093
924.309	4074
924.417	4109
924.525	4063
924.633	4090
924.741	4858
924.849	3873
924.956	4116
925.064	3972
925.172	3907
925.279	3964
925.387	4006
925.494	4055
925.602	4211
925.709	4166
925.816	4025
925.924	4135
926.031	4253
926.138	4147
926.245	4192
926.352	4055
926.459	4265
926.566	4329
926.673	4147
926.779	3994
926.886	4063
926.993	3956
927.099	3964
927.206	3945
927.312	3918
927.419	4032
927.525	3979
927.631	4074
927.737	3941
927.843	3972
927.95	3850
928.056	3960
928.162	3960
928.267	4059
928.373	4542
928.479	4120
928.585	3857
928.69	3972
928.796	4032
928.901	4010
929.007	3823
929.112	3991
929.218	3968
929.323	3956
929.428	3975
929.533	4139
929.638	3930
929.743	3949
929.848	4006
929.953	3968
930.058	3930
930.163	3800
930.267	3823
930.372	3972
930.477	3812
930.581	4158
930.685	3934
930.79	3781
930.894	3896
930.998	3793
931.103	4051
931.207	3732
931.311	3694
931.415	3663
931.519	3511
931.623	3515
