Data from test_V78500241_107.txt Node
Date: Fri Mar 25 16:49:44 CST 2022
User: usil
Spectrometer: V785-0024
Trigger mode: 0
Integration Time (sec): 4.000000E-1
Scans to average: 1
Nonlinearity correction enabled: false
Boxcar width: 0
Storing dark spectrum: false
XAxis mode: Wavelengths
Number of Pixels in Spectrum: 1024
>>>>>Begin Spectral Data<<<<<
801.071	8111
801.214	8058
801.356	7955
801.499	7849
801.641	7947
801.783	7936
801.926	8046
802.068	8012
802.211	8005
802.353	8008
802.496	7917
802.638	7963
802.78	7951
802.923	7902
803.065	7852
803.208	7841
803.35	8012
803.492	8054
803.635	8168
803.777	8005
803.919	8016
804.061	8385
804.204	8119
804.346	8005
804.488	7947
804.63	8058
804.773	8016
804.915	8119
805.057	8271
805.199	8172
805.341	8183
805.483	8237
805.626	8161
805.768	8084
805.91	8161
806.052	8199
806.194	8195
806.336	8313
806.478	8092
806.62	8111
806.762	8202
806.904	8252
807.046	8495
807.188	8317
807.33	8263
807.472	8320
807.614	8221
807.756	8164
807.898	8058
808.04	7928
808.182	7906
808.324	7936
808.465	7951
808.607	8088
808.749	8088
808.891	8202
809.033	8343
809.174	8176
809.316	8062
809.458	8103
809.6	8031
809.741	8046
809.883	8050
810.025	8092
810.166	8111
810.308	8043
810.45	8001
810.591	7902
810.733	7795
810.875	7674
811.016	7529
811.158	7518
811.299	7575
811.441	7750
811.582	7666
811.724	7647
811.865	7601
812.007	7639
812.148	7666
812.29	7628
812.431	7807
812.573	7963
812.714	8043
812.855	8206
812.997	8358
813.138	8431
813.279	8279
813.421	8191
813.562	8035
813.703	7871
813.845	7818
813.986	7480
814.127	7282
814.268	7225
814.41	7282
814.551	7225
814.692	7168
814.833	7137
814.974	7175
815.115	7145
815.256	6977
815.397	6951
815.539	6973
815.68	6840
815.821	6768
815.962	6795
816.103	6837
816.244	6738
816.385	6654
816.526	6669
816.666	6464
816.807	6350
816.948	6509
817.089	6498
817.23	6464
817.371	6376
817.512	6456
817.653	6384
817.793	6380
817.934	6479
818.075	6498
818.216	6433
818.356	6426
818.497	6213
818.638	6136
818.778	6235
818.919	6209
819.06	6201
819.2	6319
819.341	6410
819.481	6380
819.622	6612
819.762	6764
819.903	6692
820.043	6635
820.184	6623
820.324	6639
820.465	6711
820.605	6650
820.746	6642
820.886	6521
821.026	6726
821.167	6764
821.307	6829
821.447	6810
821.588	6715
821.728	6597
821.868	6570
822.008	6380
822.149	6452
822.289	6391
822.429	6178
822.569	6159
822.709	6136
822.849	5935
822.99	5904
823.13	5920
823.27	5931
823.41	5802
823.55	5824
823.69	5737
823.83	5844
823.97	5665
824.11	5570
824.25	5570
824.389	5653
824.529	5611
824.669	5551
824.809	5684
824.949	5714
825.089	5619
825.228	5592
825.368	5421
825.508	5360
825.648	5376
825.787	5414
825.927	5383
826.067	5334
826.206	5318
826.346	5421
826.485	5444
826.625	5414
826.765	5524
826.904	5528
827.044	5269
827.183	5185
827.323	5121
827.462	5242
827.601	5208
827.741	5170
827.88	5204
828.02	5102
828.159	5273
828.298	5280
828.437	5391
828.577	5265
828.716	5490
828.855	5379
828.994	5102
829.134	5151
829.273	5204
829.412	5174
829.551	5143
829.69	5220
829.829	5284
829.968	5353
830.107	5334
830.246	5258
830.385	5223
830.524	5162
830.663	5109
830.802	4961
830.941	4892
831.08	4911
831.219	5033
831.357	5006
831.496	5181
831.635	4984
831.774	4889
831.913	4854
832.051	4763
832.19	4763
832.329	4824
832.467	4729
832.606	4626
832.744	4721
832.883	4717
833.022	4763
833.16	4793
833.299	4778
833.437	4870
833.576	4812
833.714	4896
833.852	4911
833.991	4904
834.129	4972
834.267	4949
834.406	4934
834.544	4976
834.682	5048
834.821	4991
834.959	5227
835.097	4957
835.235	5159
835.373	5098
835.511	5132
835.65	5014
835.788	5098
835.926	4949
836.064	4904
836.202	4919
836.34	5220
836.478	5235
836.615	5151
836.753	5227
836.891	5326
837.029	5269
837.167	5254
837.305	5212
837.443	5124
837.58	5079
837.718	5269
837.856	5189
837.993	5151
838.131	5201
838.269	5227
838.406	5242
838.544	5170
838.681	5071
838.819	5048
838.956	4908
839.094	4972
839.231	4999
839.369	5113
839.506	5452
839.643	5292
839.781	5079
839.918	4980
840.055	5132
840.193	5117
840.33	5109
840.467	5090
840.604	5246
840.742	5463
840.879	5094
841.016	5121
841.153	5181
841.29	5391
841.427	5364
841.564	5357
841.701	5383
841.838	5368
841.975	5292
842.112	5296
842.249	5151
842.385	5124
842.522	5368
842.659	5159
842.796	5181
842.933	5239
843.069	5181
843.206	5212
843.343	5250
843.479	5250
843.616	5303
843.752	5052
843.889	5033
844.025	5216
844.162	5022
844.298	5208
844.435	5064
844.571	5029
844.708	5181
844.844	5372
844.98	5395
845.117	5330
845.253	5140
845.389	5113
845.525	5178
845.661	5105
845.798	5090
845.934	5178
846.07	5037
846.206	5193
846.342	5280
846.478	5204
846.614	5075
846.75	4991
846.886	4972
847.022	5174
847.158	5067
847.294	5064
847.429	5090
847.565	5086
847.701	5341
847.837	4870
847.972	4812
848.108	4961
848.244	4949
848.379	4801
848.515	4763
848.65	4740
848.786	4793
848.921	4740
849.057	4831
849.192	4938
849.328	4801
849.463	4896
849.598	4790
849.734	4778
849.869	4721
850.004	4599
850.14	4687
850.275	4615
850.41	4527
850.545	4535
850.68	4607
850.815	4630
850.95	4660
851.085	4828
851.22	4763
851.355	4649
851.49	4706
851.625	4672
851.76	4672
851.895	4584
852.03	4558
852.165	4645
852.299	4736
852.434	4740
852.569	4782
852.703	4816
852.838	4862
852.973	4991
853.107	4885
853.242	4740
853.376	4664
853.511	4596
853.645	4584
853.78	4850
853.914	4656
854.048	4660
854.183	4641
854.317	4729
854.451	4877
854.585	4744
854.72	4630
854.854	4755
854.988	4618
855.122	4702
855.256	4569
855.39	4675
855.524	4748
855.658	4763
855.792	4702
855.926	4755
856.06	4793
856.194	4778
856.327	4733
856.461	4634
856.595	4573
856.729	4634
856.862	4763
856.996	4717
857.13	4774
857.263	4729
857.397	4870
857.53	4615
857.664	4717
857.797	4816
857.931	4752
858.064	4717
858.197	4759
858.331	4672
858.464	4607
858.597	4531
858.731	4622
858.864	4664
858.997	4622
859.13	4691
859.263	4691
859.396	4717
859.529	4630
859.662	4607
859.795	4584
859.928	4615
860.061	4801
860.194	4744
860.327	4637
860.46	4573
860.592	4736
860.725	4752
860.858	4733
860.99	4607
861.123	4523
861.256	4565
861.388	4706
861.521	5280
861.653	4512
861.786	4478
861.918	4478
862.05	4516
862.183	4569
862.315	4626
862.447	4683
862.58	4641
862.712	4402
862.844	4306
862.976	4474
863.108	4489
863.24	4873
863.372	4379
863.504	4424
863.636	4424
863.768	4504
863.9	4485
864.032	4398
864.164	4440
864.296	4523
864.428	4573
864.559	4550
864.691	4500
864.823	4504
864.954	4554
865.086	4508
865.217	4481
865.349	4481
865.48	4497
865.612	4535
865.743	4687
865.875	4440
866.006	4413
866.137	4474
866.269	4462
866.4	4409
866.531	4493
866.662	4398
866.793	4390
866.924	4428
867.055	4493
867.186	4478
867.317	4440
867.448	4363
867.579	4443
867.71	4409
867.841	4352
867.972	4459
868.103	4500
868.233	4451
868.364	4443
868.495	4462
868.625	4618
868.756	4797
868.886	4558
869.017	4641
869.147	4782
869.278	4759
869.408	4714
869.539	4653
869.669	4706
869.799	4714
869.929	4733
870.06	4721
870.19	4942
870.32	4915
870.45	4965
870.58	4987
870.71	5117
870.84	5128
870.97	4934
871.1	4915
871.23	5124
871.36	5178
871.489	5029
871.619	5079
871.749	5121
871.879	5117
872.008	5189
872.138	5109
872.267	5022
872.397	4870
872.526	4790
872.656	4748
872.785	4797
872.915	4927
873.044	5075
873.173	4968
873.303	4968
873.432	4953
873.561	5006
873.69	4889
873.819	4877
873.948	4911
874.077	4774
874.206	4782
874.335	4782
874.464	4949
874.593	5071
874.722	4949
874.851	5083
874.979	5022
875.108	5060
875.237	4953
875.365	4904
875.494	4862
875.623	5006
875.751	4854
875.88	4896
876.008	5052
876.136	5086
876.265	5231
876.393	5337
876.521	5250
876.65	5254
876.778	5216
876.906	5060
877.034	5022
877.162	5041
877.29	4984
877.418	5094
877.546	5060
877.674	5056
877.802	5041
877.93	5041
878.058	4923
878.185	4850
878.313	4995
878.441	4965
878.568	4816
878.696	4866
878.824	4938
878.951	4999
879.079	5128
879.206	5315
879.333	5128
879.461	4961
879.588	5018
879.715	5109
879.842	5288
879.97	5025
880.097	4824
880.224	4763
880.351	4843
880.478	4847
880.605	4797
880.732	4843
880.859	5079
880.986	4923
881.112	4942
881.239	4793
881.366	4717
881.493	4607
881.619	4626
881.746	4660
881.872	4675
881.999	4710
882.125	4714
882.252	4786
882.378	4816
882.505	4965
882.631	4862
882.757	4687
882.883	4763
883.01	4721
883.136	4683
883.262	4596
883.388	4656
883.514	4824
883.64	4892
883.766	4759
883.892	4611
884.018	4675
884.143	4904
884.269	4972
884.395	4691
884.52	4626
884.646	4721
884.772	4584
884.897	4561
885.023	4656
885.148	4809
885.274	4870
885.399	4850
885.524	4744
885.65	4729
885.775	4774
885.9	4725
886.025	4828
886.15	4763
886.275	4809
886.4	4714
886.525	4725
886.65	4748
886.775	4733
886.9	4915
887.025	5083
887.149	4873
887.274	4733
887.399	4599
887.523	4653
887.648	4649
887.773	4626
887.897	4812
888.021	4820
888.146	4759
888.27	4824
888.395	4908
888.519	4839
888.643	4839
888.767	4843
888.891	4710
889.015	4668
889.139	4706
889.263	4637
889.387	4759
889.511	4919
889.635	4881
889.759	4656
889.883	4767
890.006	4793
890.13	4839
890.254	4679
890.377	4725
890.501	4554
890.624	4641
890.748	4744
890.871	4550
890.995	4516
891.118	4459
891.241	4611
891.364	4664
891.488	4702
891.611	4569
891.734	4584
891.857	4645
891.98	4630
892.103	4721
892.226	4710
892.349	4580
892.471	4523
892.594	4607
892.717	4634
892.839	4634
892.962	4683
893.085	4793
893.207	4626
893.33	4546
893.452	4584
893.575	4771
893.697	4615
893.819	4889
893.941	4892
894.064	4877
894.186	4664
894.308	4615
894.43	4752
894.552	4896
894.674	4805
894.796	4588
894.918	4675
895.04	4615
895.161	4801
895.283	4714
895.405	4626
895.526	4664
895.648	4786
895.769	4717
895.891	4767
896.012	4843
896.134	4839
896.255	4702
896.376	4664
896.498	4679
896.619	4736
896.74	4683
896.861	4645
896.982	5022
897.103	5178
897.224	4881
897.345	4812
897.466	4740
897.587	4782
897.708	4908
897.828	4858
897.949	4702
898.07	4596
898.19	4710
898.311	4885
898.431	4744
898.552	4824
898.672	4858
898.792	4881
898.913	4812
899.033	4675
899.153	4592
899.273	4504
899.393	4561
899.513	4573
899.633	4577
899.753	4561
899.873	4588
899.993	4645
900.113	4580
900.232	4710
900.352	4611
900.472	4497
900.591	4447
900.711	4569
900.83	4493
900.95	4683
901.069	4717
901.189	4592
901.308	4440
901.427	4390
901.546	4443
901.665	4504
901.784	4558
901.904	4443
902.023	4363
902.141	4257
902.26	4219
902.379	4329
902.498	4337
902.617	4238
902.735	4436
902.854	4417
902.973	4405
903.091	4268
903.21	4306
903.328	4371
903.446	4329
903.565	4325
903.683	4383
903.801	4306
903.919	4459
904.038	4451
904.156	4360
904.274	4504
904.392	4440
904.51	4516
904.627	4565
904.745	4634
904.863	4618
904.981	4455
905.098	4329
905.216	4432
905.334	4466
905.451	4497
905.569	4516
905.686	4630
905.803	4634
905.921	4443
906.038	4618
906.155	4531
906.272	4462
906.389	4542
906.506	4428
906.623	4428
906.74	4443
906.857	4341
906.974	4436
907.091	4668
907.208	4733
907.324	4618
907.441	4561
907.557	4409
907.674	4383
907.79	4417
907.907	4394
908.023	4538
908.139	4504
908.256	4493
908.372	4527
908.488	4500
908.604	4409
908.72	4371
908.836	4424
908.952	4413
909.068	4443
909.184	4645
909.3	4569
909.415	4592
909.531	4592
909.647	4390
909.762	4390
909.878	4367
909.993	4470
910.108	4478
910.224	4440
910.339	4519
910.454	4436
910.57	4428
910.685	4356
910.8	4691
910.915	4664
911.03	4569
911.145	4386
911.259	4383
911.374	4413
911.489	4375
911.604	4284
911.718	4238
911.833	4265
911.947	4139
912.062	4051
912.176	4280
912.291	4291
912.405	4310
912.519	4500
912.633	4508
912.748	4436
912.862	4367
912.976	4268
913.09	4131
913.204	4227
913.318	4287
913.431	4424
913.545	4436
913.659	4489
913.772	4402
913.886	4242
914	4299
914.113	4451
914.226	4451
914.34	4421
914.453	4268
914.566	4493
914.68	4383
914.793	4390
914.906	4238
915.019	4204
915.132	4169
915.245	4234
915.358	4246
915.47	4291
915.583	4280
915.696	4379
915.809	4459
915.921	4466
916.034	4333
916.146	4299
916.259	4253
916.371	4402
916.483	4432
916.595	4329
916.708	4371
916.82	4405
916.932	4402
917.044	4356
917.156	4436
917.268	4314
917.38	4360
917.491	4295
917.603	4390
917.715	4474
917.826	4493
917.938	4386
918.049	4333
918.161	4481
918.272	4622
918.384	4573
918.495	4470
918.606	4367
918.717	4272
918.828	4394
918.939	4436
919.05	4325
919.161	4375
919.272	4196
919.383	4310
919.494	4485
919.604	4740
919.715	4451
919.826	4413
919.936	4417
920.047	4599
920.157	4546
920.267	4729
920.378	4615
920.488	4516
920.598	4763
920.708	4957
920.818	4744
920.928	4786
921.038	4968
921.148	4968
921.258	4721
921.368	4615
921.477	4554
921.587	4500
921.697	4413
921.806	4588
921.916	4489
922.025	4341
922.134	4333
922.244	4337
922.353	4402
922.462	4272
922.571	4181
922.68	4032
922.789	4006
922.898	4090
923.007	4067
923.116	4150
923.224	4090
923.333	4090
923.442	4051
923.55	4055
923.659	4086
923.767	4109
923.876	4059
923.984	4177
924.092	4021
924.201	4150
924.309	4109
924.417	4154
924.525	4090
924.633	4169
924.741	4953
924.849	3960
924.956	4166
925.064	4032
925.172	3960
925.279	3956
925.387	4097
925.494	4093
925.602	4272
925.709	4242
925.816	4063
925.924	4158
926.031	4287
926.138	4242
926.245	4268
926.352	4131
926.459	4310
926.566	4371
926.673	4227
926.779	4139
926.886	4143
926.993	4063
927.099	4044
927.206	4059
927.312	4010
927.419	4029
927.525	4097
927.631	4120
927.737	3994
927.843	4010
927.95	3876
928.056	4017
928.162	4071
928.267	4093
928.373	4580
928.479	4196
928.585	3960
928.69	4063
928.796	4093
928.901	4025
929.007	3873
929.112	4029
929.218	4036
929.323	3991
929.428	3945
929.533	4181
929.638	4010
929.743	3994
929.848	4071
929.953	4059
930.058	3975
930.163	3873
930.267	3869
930.372	4006
930.477	3880
930.581	4131
930.685	4006
930.79	3911
930.894	3899
930.998	3896
931.103	4044
931.207	3747
931.311	3720
931.415	3717
931.519	3526
931.623	3576
