Data from test_V78500241_1551.txt Node
Date: Fri Mar 25 16:59:47 CST 2022
User: usil
Spectrometer: V785-0024
Trigger mode: 0
Integration Time (sec): 4.000000E-1
Scans to average: 1
Nonlinearity correction enabled: false
Boxcar width: 0
Storing dark spectrum: false
XAxis mode: Wavelengths
Number of Pixels in Spectrum: 1024
>>>>>Begin Spectral Data<<<<<
801.071	7944
801.214	7970
801.356	7864
801.499	7849
801.641	7818
801.783	7761
801.926	7906
802.068	7947
802.211	7986
802.353	7970
802.496	7833
802.638	7845
802.78	7887
802.923	7917
803.065	7868
803.208	7849
803.35	7860
803.492	8123
803.635	8145
803.777	7951
803.919	8123
804.061	8389
804.204	8172
804.346	8035
804.488	7944
804.63	8119
804.773	7986
804.915	8046
805.057	8259
805.199	8187
805.341	8210
805.483	8263
805.626	8221
805.768	8100
805.91	8275
806.052	8279
806.194	8115
806.336	8237
806.478	8012
806.62	8084
806.762	8138
806.904	8294
807.046	8488
807.188	8400
807.33	8328
807.472	8252
807.614	8153
807.756	8111
807.898	7967
808.04	7898
808.182	7909
808.324	7799
808.465	7909
808.607	8039
808.749	8058
808.891	8149
809.033	8279
809.174	8206
809.316	8046
809.458	8123
809.6	7967
809.741	8008
809.883	8065
810.025	8012
810.166	8058
810.308	7989
810.45	8081
810.591	7845
810.733	7750
810.875	7628
811.016	7571
811.158	7491
811.299	7605
811.441	7727
811.582	7624
811.724	7495
811.865	7510
812.007	7540
812.148	7605
812.29	7601
812.431	7784
812.573	7959
812.714	7970
812.855	8145
812.997	8176
813.138	8358
813.279	8145
813.421	8027
813.562	7928
813.703	7852
813.845	7738
813.986	7415
814.127	7190
814.268	7240
814.41	7168
814.551	7145
814.692	7255
814.833	7076
814.974	7091
815.115	7110
815.256	6989
815.397	6951
815.539	6935
815.68	6787
815.821	6768
815.962	6852
816.103	6818
816.244	6673
816.385	6570
816.526	6684
816.666	6521
816.807	6277
816.948	6407
817.089	6437
817.23	6384
817.371	6304
817.512	6350
817.653	6399
817.793	6350
817.934	6437
818.075	6456
818.216	6426
818.356	6426
818.497	6258
818.638	6201
818.778	6076
818.919	6171
819.06	6110
819.2	6327
819.341	6315
819.481	6331
819.622	6513
819.762	6730
819.903	6665
820.043	6540
820.184	6555
820.324	6547
820.465	6692
820.605	6654
820.746	6604
820.886	6513
821.026	6635
821.167	6688
821.307	6783
821.447	6833
821.588	6703
821.728	6612
821.868	6490
822.008	6315
822.149	6338
822.289	6350
822.429	6197
822.569	6102
822.709	6095
822.849	5931
822.99	5916
823.13	5897
823.27	5984
823.41	5748
823.55	5805
823.69	5790
823.83	5737
823.97	5672
824.11	5509
824.25	5562
824.389	5619
824.529	5604
824.669	5562
824.809	5581
824.949	5600
825.089	5634
825.228	5547
825.368	5357
825.508	5345
825.648	5345
825.787	5315
825.927	5330
826.067	5284
826.206	5296
826.346	5391
826.485	5433
826.625	5391
826.765	5528
826.904	5429
827.044	5254
827.183	5231
827.323	5166
827.462	5250
827.601	5178
827.741	5201
827.88	5181
828.02	5117
828.159	5201
828.298	5284
828.437	5318
828.577	5284
828.716	5493
828.855	5330
828.994	5136
829.134	5155
829.273	5159
829.412	5094
829.551	5140
829.69	5201
829.829	5235
829.968	5326
830.107	5239
830.246	5296
830.385	5159
830.524	5140
830.663	5037
830.802	4991
830.941	4831
831.08	4843
831.219	4980
831.357	4987
831.496	5121
831.635	4927
831.774	4816
831.913	4797
832.051	4710
832.19	4725
832.329	4854
832.467	4710
832.606	4615
832.744	4656
832.883	4759
833.022	4721
833.16	4801
833.299	4828
833.437	4820
833.576	4820
833.714	4831
833.852	4831
833.991	4816
834.129	4953
834.267	4919
834.406	4870
834.544	4991
834.682	4972
834.821	4980
834.959	5117
835.097	4999
835.235	5159
835.373	5098
835.511	5109
835.65	5010
835.788	5071
835.926	4915
836.064	4854
836.202	4889
836.34	5159
836.478	5212
836.615	5121
836.753	5185
836.891	5277
837.029	5246
837.167	5159
837.305	5143
837.443	5117
837.58	5052
837.718	5242
837.856	5204
837.993	5132
838.131	5178
838.269	5197
838.406	5185
838.544	5201
838.681	5029
838.819	5010
838.956	4896
839.094	4889
839.231	4930
839.369	5071
839.506	5414
839.643	5239
839.781	5094
839.918	5045
840.055	5060
840.193	5151
840.33	5067
840.467	5094
840.604	5220
840.742	5440
840.879	5113
841.016	5067
841.153	5113
841.29	5303
841.427	5357
841.564	5242
841.701	5334
841.838	5220
841.975	5261
842.112	5292
842.249	5113
842.385	5075
842.522	5334
842.659	5185
842.796	5128
842.933	5178
843.069	5083
843.206	5117
843.343	5299
843.479	5204
843.616	5288
843.752	5037
843.889	5022
844.025	5277
844.162	5064
844.298	5242
844.435	5086
844.571	5056
844.708	5212
844.844	5292
844.98	5318
845.117	5273
845.253	5147
845.389	5060
845.525	5193
845.661	5166
845.798	4999
845.934	5147
846.07	4968
846.206	5128
846.342	5235
846.478	5204
846.614	5006
846.75	4991
846.886	4881
847.022	5075
847.158	4968
847.294	5052
847.429	5105
847.565	5083
847.701	5307
847.837	4820
847.972	4797
848.108	4972
848.244	4938
848.379	4793
848.515	4755
848.65	4725
848.786	4759
848.921	4767
849.057	4824
849.192	4896
849.328	4793
849.463	4824
849.598	4790
849.734	4752
849.869	4698
850.004	4653
850.14	4675
850.275	4653
850.41	4500
850.545	4538
850.68	4622
850.815	4580
850.95	4660
851.085	4847
851.22	4744
851.355	4637
851.49	4649
851.625	4679
851.76	4668
851.895	4538
852.03	4538
852.165	4626
852.299	4664
852.434	4839
852.569	4736
852.703	4736
852.838	4862
852.973	4980
853.107	4858
853.242	4694
853.376	4645
853.511	4497
853.645	4626
853.78	4736
853.914	4691
854.048	4687
854.183	4630
854.317	4653
854.451	4816
854.585	4687
854.72	4641
854.854	4755
854.988	4580
855.122	4641
855.256	4493
855.39	4653
855.524	4710
855.658	4748
855.792	4740
855.926	4763
856.06	4771
856.194	4771
856.327	4683
856.461	4618
856.595	4630
856.729	4611
856.862	4740
856.996	4672
857.13	4706
857.263	4767
857.397	4763
857.53	4691
857.664	4691
857.797	4767
857.931	4778
858.064	4660
858.197	4744
858.331	4599
858.464	4626
858.597	4531
858.731	4622
858.864	4641
858.997	4615
859.13	4615
859.263	4637
859.396	4653
859.529	4596
859.662	4580
859.795	4546
859.928	4653
860.061	4748
860.194	4725
860.327	4637
860.46	4550
860.592	4653
860.725	4733
860.858	4717
860.99	4573
861.123	4554
861.256	4550
861.388	4596
861.521	5170
861.653	4504
861.786	4485
861.918	4428
862.05	4538
862.183	4508
862.315	4626
862.447	4615
862.58	4550
862.712	4405
862.844	4284
862.976	4466
863.108	4417
863.24	4733
863.372	4322
863.504	4440
863.636	4432
863.768	4428
863.9	4424
864.032	4363
864.164	4417
864.296	4455
864.428	4584
864.559	4535
864.691	4512
864.823	4474
864.954	4459
865.086	4504
865.217	4466
865.349	4394
865.48	4413
865.612	4485
865.743	4679
865.875	4512
866.006	4413
866.137	4485
866.269	4428
866.4	4424
866.531	4409
866.662	4432
866.793	4363
866.924	4421
867.055	4451
867.186	4459
867.317	4394
867.448	4352
867.579	4367
867.71	4405
867.841	4367
867.972	4405
868.103	4500
868.233	4485
868.364	4451
868.495	4447
868.625	4649
868.756	4736
868.886	4565
869.017	4649
869.147	4778
869.278	4725
869.408	4630
869.539	4679
869.669	4714
869.799	4687
869.929	4744
870.06	4721
870.19	4938
870.32	4991
870.45	4896
870.58	5018
870.71	5079
870.84	5064
870.97	4927
871.1	4896
871.23	5132
871.36	5117
871.489	5056
871.619	5037
871.749	5079
871.879	5121
872.008	5181
872.138	5029
872.267	4984
872.397	4870
872.526	4809
872.656	4740
872.785	4793
872.915	4965
873.044	5048
873.173	4919
873.303	4991
873.432	4968
873.561	5022
873.69	4889
873.819	4854
873.948	4892
874.077	4839
874.206	4759
874.335	4831
874.464	4938
874.593	5086
874.722	4961
874.851	5083
874.979	5075
875.108	4953
875.237	4927
875.365	4870
875.494	4877
875.623	4968
875.751	4873
875.88	4919
876.008	4942
876.136	5018
876.265	5136
876.393	5376
876.521	5277
876.65	5258
876.778	5174
876.906	5064
877.034	5029
877.162	4976
877.29	4927
877.418	5079
877.546	5025
877.674	5018
877.802	5071
877.93	5033
878.058	4934
878.185	4881
878.313	4919
878.441	4953
878.568	4778
878.696	4919
878.824	4980
878.951	4980
879.079	5090
879.206	5258
879.333	5098
879.461	4995
879.588	4972
879.715	5041
879.842	5212
879.97	5003
880.097	4778
880.224	4725
880.351	4786
880.478	4820
880.605	4771
880.732	4759
880.859	5010
880.986	4946
881.112	4889
881.239	4717
881.366	4649
881.493	4622
881.619	4569
881.746	4645
881.872	4607
881.999	4626
882.125	4691
882.252	4733
882.378	4809
882.505	4934
882.631	4809
882.757	4668
882.883	4698
883.01	4706
883.136	4622
883.262	4592
883.388	4622
883.514	4748
883.64	4862
883.766	4782
883.892	4653
884.018	4706
884.143	4908
884.269	4976
884.395	4649
884.52	4668
884.646	4630
884.772	4618
884.897	4516
885.023	4634
885.148	4782
885.274	4885
885.399	4843
885.524	4710
885.65	4717
885.775	4763
885.9	4721
886.025	4847
886.15	4748
886.275	4733
886.4	4645
886.525	4717
886.65	4672
886.775	4698
886.9	4854
887.025	5037
887.149	4755
887.274	4694
887.399	4603
887.523	4611
887.648	4618
887.773	4596
887.897	4725
888.021	4778
888.146	4668
888.27	4805
888.395	4854
888.519	4797
888.643	4782
888.767	4820
888.891	4664
889.015	4573
889.139	4698
889.263	4569
889.387	4767
889.511	4877
889.635	4793
889.759	4618
889.883	4653
890.006	4740
890.13	4839
890.254	4634
890.377	4687
890.501	4512
890.624	4519
890.748	4641
890.871	4554
890.995	4405
891.118	4383
891.241	4577
891.364	4554
891.488	4637
891.611	4493
891.734	4569
891.857	4607
891.98	4569
892.103	4615
892.226	4592
892.349	4535
892.471	4428
892.594	4577
892.717	4554
892.839	4588
892.962	4596
893.085	4645
893.207	4584
893.33	4474
893.452	4512
893.575	4630
893.697	4569
893.819	4797
893.941	4812
894.064	4763
894.186	4569
894.308	4542
894.43	4717
894.552	4839
894.674	4771
894.796	4546
894.918	4618
895.04	4554
895.161	4687
895.283	4645
895.405	4546
895.526	4607
895.648	4683
895.769	4672
895.891	4710
896.012	4702
896.134	4721
896.255	4679
896.376	4626
896.498	4626
896.619	4603
896.74	4565
896.861	4637
896.982	4923
897.103	5041
897.224	4828
897.345	4767
897.466	4656
897.587	4721
897.708	4850
897.828	4793
897.949	4683
898.07	4527
898.19	4653
898.311	4809
898.431	4679
898.552	4721
898.672	4809
898.792	4793
898.913	4683
899.033	4660
899.153	4485
899.273	4360
899.393	4519
899.513	4531
899.633	4459
899.753	4580
899.873	4497
899.993	4561
900.113	4512
900.232	4569
900.352	4538
900.472	4459
900.591	4363
900.711	4485
900.83	4455
900.95	4584
901.069	4679
901.189	4531
901.308	4371
901.427	4295
901.546	4363
901.665	4394
901.784	4508
901.904	4375
902.023	4310
902.141	4204
902.26	4185
902.379	4306
902.498	4196
902.617	4219
902.735	4341
902.854	4386
902.973	4352
903.091	4181
903.21	4204
903.328	4310
903.446	4249
903.565	4299
903.683	4329
903.801	4227
903.919	4405
904.038	4417
904.156	4314
904.274	4428
904.392	4394
904.51	4424
904.627	4474
904.745	4542
904.863	4630
904.981	4375
905.098	4287
905.216	4394
905.334	4371
905.451	4478
905.569	4413
905.686	4538
905.803	4573
905.921	4424
906.038	4512
906.155	4470
906.272	4379
906.389	4451
906.506	4367
906.623	4356
906.74	4375
906.857	4318
906.974	4363
907.091	4535
907.208	4634
907.324	4611
907.441	4523
907.557	4356
907.674	4337
907.79	4325
907.907	4413
908.023	4466
908.139	4504
908.256	4424
908.372	4428
908.488	4451
908.604	4306
908.72	4325
908.836	4333
908.952	4352
909.068	4455
909.184	4531
909.3	4478
909.415	4580
909.531	4523
909.647	4341
909.762	4337
909.878	4352
909.993	4417
910.108	4371
910.224	4413
910.339	4481
910.454	4394
910.57	4363
910.685	4310
910.8	4641
910.915	4561
911.03	4478
911.145	4348
911.259	4344
911.374	4367
911.489	4268
911.604	4276
911.718	4173
911.833	4181
911.947	4071
912.062	4013
912.176	4200
912.291	4219
912.405	4215
912.519	4451
912.633	4474
912.748	4337
912.862	4341
912.976	4166
913.09	4086
913.204	4139
913.318	4287
913.431	4322
913.545	4329
913.659	4428
913.772	4299
913.886	4207
914	4227
914.113	4363
914.226	4462
914.34	4409
914.453	4219
914.566	4447
914.68	4356
914.793	4341
914.906	4147
915.019	4078
915.132	4112
915.245	4169
915.358	4215
915.47	4253
915.583	4272
915.696	4310
915.809	4390
915.921	4428
916.034	4207
916.146	4211
916.259	4200
916.371	4363
916.483	4356
916.595	4261
916.708	4310
916.82	4306
916.932	4310
917.044	4329
917.156	4306
917.268	4249
917.38	4329
917.491	4306
917.603	4337
917.715	4413
917.826	4474
917.938	4310
918.049	4215
918.161	4383
918.272	4489
918.384	4500
918.495	4459
918.606	4257
918.717	4234
918.828	4306
918.939	4383
919.05	4280
919.161	4363
919.272	4166
919.383	4196
919.494	4436
919.604	4611
919.715	4383
919.826	4344
919.936	4405
920.047	4523
920.157	4462
920.267	4702
920.378	4561
920.488	4550
920.598	4694
920.708	4896
920.818	4725
920.928	4782
921.038	4953
921.148	4896
921.258	4599
921.368	4531
921.477	4451
921.587	4443
921.697	4405
921.806	4516
921.916	4459
922.025	4257
922.134	4249
922.244	4230
922.353	4295
922.462	4204
922.571	4139
922.68	3964
922.789	3991
922.898	4021
923.007	4029
923.116	4071
923.224	4059
923.333	4055
923.442	3975
923.55	3960
923.659	4017
923.767	4105
923.876	3979
923.984	4131
924.092	4010
924.201	4090
924.309	4124
924.417	4112
924.525	4063
924.633	4147
924.741	4919
924.849	3956
924.956	4131
925.064	3983
925.172	3907
925.279	3945
925.387	4021
925.494	4048
925.602	4200
925.709	4139
925.816	4006
925.924	4116
926.031	4253
926.138	4200
926.245	4215
926.352	4086
926.459	4261
926.566	4295
926.673	4154
926.779	4029
926.886	4093
926.993	3964
927.099	3949
927.206	3934
927.312	3884
927.419	4010
927.525	4021
927.631	4078
927.737	3968
927.843	3930
927.95	3846
928.056	3888
928.162	3979
928.267	4044
928.373	4550
928.479	4101
928.585	3899
928.69	4006
928.796	4093
928.901	3975
929.007	3850
929.112	3987
929.218	3975
929.323	3918
929.428	3960
929.533	4116
929.638	3896
929.743	3953
929.848	4063
929.953	3945
930.058	3956
930.163	3740
930.267	3823
930.372	3975
930.477	3808
930.581	4090
930.685	3934
930.79	3808
930.894	3865
930.998	3854
931.103	4036
931.207	3686
931.311	3686
931.415	3656
931.519	3519
931.623	3572
