Data from test_V78500241_2624.txt Node
Date: Fri Mar 25 17:07:14 CST 2022
User: usil
Spectrometer: V785-0024
Trigger mode: 0
Integration Time (sec): 4.000000E-1
Scans to average: 1
Nonlinearity correction enabled: false
Boxcar width: 0
Storing dark spectrum: false
XAxis mode: Wavelengths
Number of Pixels in Spectrum: 1024
>>>>>Begin Spectral Data<<<<<
801.071	8046
801.214	8005
801.356	7947
801.499	7868
801.641	7879
801.783	7887
801.926	8031
802.068	7993
802.211	8103
802.353	8039
802.496	7921
802.638	7928
802.78	7909
802.923	7921
803.065	7963
803.208	7868
803.35	7944
803.492	8172
803.635	8183
803.777	8065
803.919	8172
804.061	8495
804.204	8126
804.346	8092
804.488	7959
804.63	8126
804.773	7986
804.915	8111
805.057	8313
805.199	8214
805.341	8199
805.483	8313
805.626	8233
805.768	8142
805.91	8210
806.052	8164
806.194	8153
806.336	8282
806.478	8115
806.62	8058
806.762	8138
806.904	8275
807.046	8530
807.188	8412
807.33	8351
807.472	8305
807.614	8126
807.756	8126
807.898	8043
808.04	7875
808.182	7921
808.324	7894
808.465	7947
808.607	8130
808.749	8183
808.891	8206
809.033	8332
809.174	8191
809.316	8031
809.458	8103
809.6	8043
809.741	8020
809.883	8058
810.025	8134
810.166	8096
810.308	8138
810.45	7974
810.591	7875
810.733	7788
810.875	7620
811.016	7601
811.158	7510
811.299	7563
811.441	7788
811.582	7658
811.724	7681
811.865	7533
812.007	7590
812.148	7559
812.29	7571
812.431	7738
812.573	7947
812.714	7925
812.855	8153
812.997	8256
813.138	8366
813.279	8225
813.421	8123
813.562	7951
813.703	7852
813.845	7753
813.986	7464
814.127	7209
814.268	7206
814.41	7289
814.551	7141
814.692	7251
814.833	7099
814.974	7160
815.115	7129
815.256	6985
815.397	7000
815.539	6985
815.68	6844
815.821	6776
815.962	6802
816.103	6878
816.244	6688
816.385	6585
816.526	6639
816.666	6479
816.807	6350
816.948	6445
817.089	6506
817.23	6467
817.371	6399
817.512	6426
817.653	6437
817.793	6384
817.934	6422
818.075	6498
818.216	6490
818.356	6410
818.497	6292
818.638	6095
818.778	6175
818.919	6117
819.06	6243
819.2	6395
819.341	6403
819.481	6365
819.622	6582
819.762	6795
819.903	6757
820.043	6578
820.184	6639
820.324	6623
820.465	6726
820.605	6681
820.746	6623
820.886	6532
821.026	6681
821.167	6749
821.307	6745
821.447	6783
821.588	6688
821.728	6623
821.868	6517
822.008	6391
822.149	6346
822.289	6391
822.429	6262
822.569	6155
822.709	6110
822.849	5935
822.99	5958
823.13	5939
823.27	6003
823.41	5889
823.55	5855
823.69	5817
823.83	5836
823.97	5668
824.11	5524
824.25	5520
824.389	5592
824.529	5642
824.669	5573
824.809	5661
824.949	5676
825.089	5653
825.228	5596
825.368	5425
825.508	5357
825.648	5391
825.787	5368
825.927	5406
826.067	5326
826.206	5280
826.346	5387
826.485	5372
826.625	5444
826.765	5516
826.904	5490
827.044	5334
827.183	5220
827.323	5151
827.462	5273
827.601	5178
827.741	5201
827.88	5216
828.02	5094
828.159	5273
828.298	5337
828.437	5360
828.577	5258
828.716	5463
828.855	5311
828.994	5174
829.134	5143
829.273	5197
829.412	5094
829.551	5174
829.69	5181
829.829	5307
829.968	5307
830.107	5299
830.246	5258
830.385	5155
830.524	5121
830.663	5090
830.802	5010
830.941	4892
831.08	4900
831.219	4999
831.357	5025
831.496	5109
831.635	4965
831.774	4854
831.913	4866
832.051	4771
832.19	4729
832.329	4831
832.467	4755
832.606	4634
832.744	4729
832.883	4736
833.022	4763
833.16	4809
833.299	4831
833.437	4839
833.576	4873
833.714	4839
833.852	4854
833.991	4858
834.129	4995
834.267	4927
834.406	4873
834.544	4957
834.682	4957
834.821	4946
834.959	5178
835.097	4999
835.235	5143
835.373	5083
835.511	5117
835.65	5060
835.788	5025
835.926	4942
836.064	4919
836.202	4866
836.34	5147
836.478	5239
836.615	5132
836.753	5212
836.891	5246
837.029	5254
837.167	5201
837.305	5185
837.443	5102
837.58	5117
837.718	5265
837.856	5159
837.993	5155
838.131	5273
838.269	5220
838.406	5250
838.544	5239
838.681	5041
838.819	5010
838.956	4919
839.094	4930
839.231	4965
839.369	5083
839.506	5433
839.643	5330
839.781	5113
839.918	4999
840.055	5204
840.193	5121
840.33	5105
840.467	5102
840.604	5140
840.742	5421
840.879	5121
841.016	5105
841.153	5151
841.29	5364
841.427	5315
841.564	5326
841.701	5379
841.838	5265
841.975	5204
842.112	5269
842.249	5124
842.385	5128
842.522	5299
842.659	5151
842.796	5109
842.933	5162
843.069	5170
843.206	5132
843.343	5303
843.479	5261
843.616	5299
843.752	5045
843.889	5010
844.025	5246
844.162	5056
844.298	5193
844.435	5162
844.571	5041
844.708	5235
844.844	5322
844.98	5315
845.117	5284
845.253	5098
845.389	5086
845.525	5155
845.661	5174
845.798	5048
845.934	5132
846.07	5094
846.206	5216
846.342	5242
846.478	5162
846.614	5029
846.75	4911
846.886	4900
847.022	5128
847.158	5052
847.294	5098
847.429	5147
847.565	5155
847.701	5360
847.837	4873
847.972	4801
848.108	4949
848.244	4927
848.379	4759
848.515	4736
848.65	4736
848.786	4729
848.921	4782
849.057	4854
849.192	4919
849.328	4854
849.463	4828
849.598	4744
849.734	4771
849.869	4660
850.004	4683
850.14	4634
850.275	4630
850.41	4512
850.545	4554
850.68	4580
850.815	4645
850.95	4607
851.085	4854
851.22	4771
851.355	4649
851.49	4637
851.625	4626
851.76	4618
851.895	4569
852.03	4577
852.165	4641
852.299	4706
852.434	4793
852.569	4721
852.703	4801
852.838	4847
852.973	4930
853.107	4911
853.242	4706
853.376	4653
853.511	4580
853.645	4607
853.78	4801
853.914	4714
854.048	4721
854.183	4622
854.317	4694
854.451	4805
854.585	4679
854.72	4649
854.854	4774
854.988	4607
855.122	4679
855.256	4527
855.39	4714
855.524	4839
855.658	4714
855.792	4710
855.926	4687
856.06	4702
856.194	4801
856.327	4664
856.461	4618
856.595	4634
856.729	4637
856.862	4763
856.996	4656
857.13	4771
857.263	4763
857.397	4831
857.53	4672
857.664	4736
857.797	4759
857.931	4733
858.064	4656
858.197	4694
858.331	4660
858.464	4630
858.597	4546
858.731	4596
858.864	4653
858.997	4645
859.13	4641
859.263	4664
859.396	4653
859.529	4584
859.662	4538
859.795	4542
859.928	4603
860.061	4790
860.194	4763
860.327	4622
860.46	4523
860.592	4733
860.725	4675
860.858	4714
860.99	4558
861.123	4489
861.256	4508
861.388	4656
861.521	5402
861.653	4519
861.786	4447
861.918	4409
862.05	4531
862.183	4554
862.315	4615
862.447	4660
862.58	4550
862.712	4394
862.844	4344
862.976	4523
863.108	4440
863.24	4729
863.372	4356
863.504	4440
863.636	4421
863.768	4481
863.9	4421
864.032	4375
864.164	4428
864.296	4512
864.428	4527
864.559	4561
864.691	4493
864.823	4546
864.954	4493
865.086	4538
865.217	4424
865.349	4413
865.48	4459
865.612	4508
865.743	4630
865.875	4428
866.006	4447
866.137	4466
866.269	4455
866.4	4470
866.531	4409
866.662	4390
866.793	4409
866.924	4451
867.055	4478
867.186	4455
867.317	4428
867.448	4356
867.579	4409
867.71	4383
867.841	4421
867.972	4455
868.103	4500
868.233	4470
868.364	4508
868.495	4508
868.625	4656
868.756	4759
868.886	4577
869.017	4637
869.147	4752
869.278	4801
869.408	4698
869.539	4660
869.669	4698
869.799	4637
869.929	4721
870.06	4733
870.19	5025
870.32	4957
870.45	4949
870.58	5010
870.71	5098
870.84	5067
870.97	4911
871.1	4930
871.23	5132
871.36	5105
871.489	4991
871.619	5083
871.749	5079
871.879	5147
872.008	5124
872.138	5105
872.267	5006
872.397	4854
872.526	4850
872.656	4710
872.785	4801
872.915	4946
873.044	4987
873.173	4942
873.303	4995
873.432	4923
873.561	4915
873.69	4896
873.819	4877
873.948	4896
874.077	4831
874.206	4744
874.335	4850
874.464	4953
874.593	5140
874.722	4927
874.851	5132
874.979	5098
875.108	4995
875.237	4904
875.365	4934
875.494	4870
875.623	4946
875.751	4927
875.88	4847
876.008	5010
876.136	5037
876.265	5181
876.393	5395
876.521	5265
876.65	5254
876.778	5143
876.906	5113
877.034	5037
877.162	5048
877.29	4957
877.418	5056
877.546	5064
877.674	5056
877.802	5022
877.93	5060
878.058	4995
878.185	4889
878.313	4965
878.441	4934
878.568	4809
878.696	4915
878.824	4976
878.951	4980
879.079	5098
879.206	5303
879.333	5064
879.461	4968
879.588	4991
879.715	5147
879.842	5201
879.97	4976
880.097	4797
880.224	4755
880.351	4820
880.478	4839
880.605	4797
880.732	4755
880.859	5079
880.986	4881
881.112	4915
881.239	4736
881.366	4672
881.493	4622
881.619	4611
881.746	4622
881.872	4683
881.999	4649
882.125	4660
882.252	4820
882.378	4843
882.505	5025
882.631	4771
882.757	4687
882.883	4717
883.01	4763
883.136	4679
883.262	4607
883.388	4664
883.514	4873
883.64	4900
883.766	4805
883.892	4634
884.018	4710
884.143	4889
884.269	5003
884.395	4733
884.52	4637
884.646	4679
884.772	4577
884.897	4577
885.023	4679
885.148	4835
885.274	4896
885.399	4831
885.524	4675
885.65	4698
885.775	4771
885.9	4687
886.025	4847
886.15	4877
886.275	4694
886.4	4656
886.525	4710
886.65	4691
886.775	4702
886.9	4946
887.025	5018
887.149	4812
887.274	4656
887.399	4592
887.523	4611
887.648	4615
887.773	4588
887.897	4740
888.021	4812
888.146	4679
888.27	4767
888.395	4919
888.519	4839
888.643	4828
888.767	4866
888.891	4664
889.015	4626
889.139	4664
889.263	4580
889.387	4740
889.511	4824
889.635	4828
889.759	4660
889.883	4622
890.006	4755
890.13	4835
890.254	4596
890.377	4675
890.501	4569
890.624	4512
890.748	4630
890.871	4519
890.995	4459
891.118	4379
891.241	4558
891.364	4558
891.488	4599
891.611	4470
891.734	4489
891.857	4630
891.98	4546
892.103	4550
892.226	4603
892.349	4558
892.471	4428
892.594	4527
892.717	4641
892.839	4558
892.962	4584
893.085	4694
893.207	4622
893.33	4417
893.452	4508
893.575	4641
893.697	4554
893.819	4801
893.941	4847
894.064	4767
894.186	4561
894.308	4550
894.43	4694
894.552	4843
894.674	4721
894.796	4565
894.918	4611
895.04	4538
895.161	4683
895.283	4641
895.405	4565
895.526	4656
895.648	4683
895.769	4675
895.891	4721
896.012	4691
896.134	4714
896.255	4641
896.376	4626
896.498	4550
896.619	4714
896.74	4596
896.861	4649
896.982	4889
897.103	5086
897.224	4771
897.345	4767
897.466	4683
897.587	4714
897.708	4831
897.828	4816
897.949	4664
898.07	4535
898.19	4637
898.311	4771
898.431	4668
898.552	4744
898.672	4786
898.792	4797
898.913	4740
899.033	4679
899.153	4538
899.273	4398
899.393	4508
899.513	4497
899.633	4554
899.753	4577
899.873	4485
899.993	4561
900.113	4519
900.232	4599
900.352	4531
900.472	4470
900.591	4432
900.711	4519
900.83	4405
900.95	4615
901.069	4702
901.189	4554
901.308	4421
901.427	4268
901.546	4352
901.665	4519
901.784	4531
901.904	4371
902.023	4329
902.141	4192
902.26	4181
902.379	4337
902.498	4276
902.617	4200
902.735	4390
902.854	4383
902.973	4337
903.091	4230
903.21	4219
903.328	4280
903.446	4295
903.565	4299
903.683	4379
903.801	4287
903.919	4363
904.038	4440
904.156	4299
904.274	4451
904.392	4447
904.51	4440
904.627	4466
904.745	4584
904.863	4592
904.981	4337
905.098	4344
905.216	4379
905.334	4424
905.451	4447
905.569	4478
905.686	4588
905.803	4527
905.921	4409
906.038	4588
906.155	4447
906.272	4344
906.389	4470
906.506	4344
906.623	4405
906.74	4375
906.857	4295
906.974	4344
907.091	4569
907.208	4721
907.324	4577
907.441	4478
907.557	4360
907.674	4303
907.79	4284
907.907	4428
908.023	4462
908.139	4443
908.256	4447
908.372	4493
908.488	4451
908.604	4329
908.72	4306
908.836	4371
908.952	4352
909.068	4478
909.184	4561
909.3	4459
909.415	4588
909.531	4535
909.647	4333
909.762	4390
909.878	4318
909.993	4504
910.108	4432
910.224	4409
910.339	4497
910.454	4413
910.57	4417
910.685	4337
910.8	4733
910.915	4592
911.03	4512
911.145	4405
911.259	4360
911.374	4360
911.489	4272
911.604	4306
911.718	4097
911.833	4181
911.947	4063
912.062	4059
912.176	4257
912.291	4249
912.405	4242
912.519	4485
912.633	4440
912.748	4424
912.862	4325
912.976	4204
913.09	4082
913.204	4177
913.318	4276
913.431	4375
913.545	4375
913.659	4409
913.772	4371
913.886	4257
914	4257
914.113	4333
914.226	4424
914.34	4371
914.453	4265
914.566	4398
914.68	4287
914.793	4341
914.906	4139
915.019	4124
915.132	4101
915.245	4192
915.358	4230
915.47	4215
915.583	4188
915.696	4314
915.809	4432
915.921	4512
916.034	4261
916.146	4261
916.259	4219
916.371	4356
916.483	4405
916.595	4253
916.708	4314
916.82	4253
916.932	4314
917.044	4318
917.156	4360
917.268	4265
917.38	4287
917.491	4291
917.603	4333
917.715	4432
917.826	4402
917.938	4333
918.049	4227
918.161	4360
918.272	4527
918.384	4550
918.495	4436
918.606	4344
918.717	4227
918.828	4314
918.939	4409
919.05	4284
919.161	4329
919.272	4177
919.383	4230
919.494	4455
919.604	4584
919.715	4440
919.826	4360
919.936	4417
920.047	4519
920.157	4489
920.267	4721
920.378	4550
920.488	4508
920.598	4725
920.708	4908
920.818	4767
920.928	4812
921.038	4953
921.148	4889
921.258	4645
921.368	4596
921.477	4481
921.587	4493
921.697	4363
921.806	4542
921.916	4440
922.025	4322
922.134	4249
922.244	4253
922.353	4325
922.462	4181
922.571	4143
922.68	4010
922.789	4017
922.898	4017
923.007	4029
923.116	4124
923.224	4078
923.333	4078
923.442	3949
923.55	3934
923.659	4032
923.767	4116
923.876	4006
923.984	4131
924.092	4002
924.201	4082
924.309	4063
924.417	4112
924.525	4082
924.633	4097
924.741	5094
924.849	3930
924.956	4120
925.064	3949
925.172	3915
925.279	3941
925.387	4090
925.494	4063
925.602	4227
925.709	4154
925.816	4048
925.924	4154
926.031	4227
926.138	4192
926.245	4196
926.352	4086
926.459	4227
926.566	4310
926.673	4139
926.779	4074
926.886	4071
926.993	3979
927.099	3983
927.206	3964
927.312	3968
927.419	4048
927.525	4051
927.631	4040
927.737	3930
927.843	3960
927.95	3876
928.056	3956
928.162	3987
928.267	4063
928.373	4569
928.479	4150
928.585	3907
928.69	4021
928.796	4093
928.901	3960
929.007	3865
929.112	4013
929.218	4032
929.323	3960
929.428	3937
929.533	4154
929.638	3876
929.743	3941
929.848	4071
929.953	3972
930.058	3907
930.163	3766
930.267	3838
930.372	3972
930.477	3766
930.581	4109
930.685	3941
930.79	3804
930.894	3876
930.998	3880
931.103	4040
931.207	3717
931.311	3698
931.415	3641
931.519	3504
931.623	3534
