Data from test_V78500241_570.txt Node
Date: Fri Mar 25 16:52:57 CST 2022
User: usil
Spectrometer: V785-0024
Trigger mode: 0
Integration Time (sec): 4.000000E-1
Scans to average: 1
Nonlinearity correction enabled: false
Boxcar width: 0
Storing dark spectrum: false
XAxis mode: Wavelengths
Number of Pixels in Spectrum: 1024
>>>>>Begin Spectral Data<<<<<
801.071	8050
801.214	8020
801.356	7940
801.499	7936
801.641	7856
801.783	7932
801.926	8046
802.068	8031
802.211	8043
802.353	8145
802.496	7928
802.638	8001
802.78	7944
802.923	7974
803.065	7871
803.208	7845
803.35	7986
803.492	8202
803.635	8153
803.777	8077
803.919	8191
804.061	8560
804.204	8183
804.346	7982
804.488	8031
804.63	8126
804.773	8092
804.915	8115
805.057	8385
805.199	8149
805.341	8275
805.483	8332
805.626	8256
805.768	8084
805.91	8199
806.052	8263
806.194	8027
806.336	8309
806.478	8130
806.62	8176
806.762	8149
806.904	8271
807.046	8446
807.188	8351
807.33	8301
807.472	8275
807.614	8164
807.756	8138
807.898	7986
808.04	7909
808.182	7993
808.324	7921
808.465	7928
808.607	8062
808.749	8077
808.891	8214
809.033	8248
809.174	8229
809.316	8039
809.458	8123
809.6	7955
809.741	8005
809.883	8043
810.025	8103
810.166	8107
810.308	8054
810.45	8058
810.591	7959
810.733	7761
810.875	7712
811.016	7514
811.158	7499
811.299	7628
811.441	7792
811.582	7685
811.724	7601
811.865	7578
812.007	7609
812.148	7704
812.29	7563
812.431	7723
812.573	7871
812.714	8039
812.855	8168
812.997	8309
813.138	8385
813.279	8282
813.421	8164
813.562	8096
813.703	7947
813.845	7803
813.986	7514
814.127	7396
814.268	7343
814.41	7244
814.551	7152
814.692	7209
814.833	7091
814.974	7126
815.115	7103
815.256	7027
815.397	6901
815.539	6939
815.68	6844
815.821	6848
815.962	6897
816.103	6894
816.244	6719
816.385	6608
816.526	6593
816.666	6513
816.807	6300
816.948	6494
817.089	6475
817.23	6445
817.371	6342
817.512	6380
817.653	6448
817.793	6365
817.934	6456
818.075	6509
818.216	6486
818.356	6426
818.497	6258
818.638	6129
818.778	6163
818.919	6194
819.06	6171
819.2	6277
819.341	6376
819.481	6372
819.622	6498
819.762	6722
819.903	6730
820.043	6612
820.184	6612
820.324	6570
820.465	6688
820.605	6585
820.746	6601
820.886	6536
821.026	6662
821.167	6726
821.307	6798
821.447	6719
821.588	6635
821.728	6544
821.868	6483
822.008	6270
822.149	6418
822.289	6399
822.429	6171
822.569	6064
822.709	6095
822.849	5980
822.99	5958
823.13	5946
823.27	5931
823.41	5805
823.55	5798
823.69	5798
823.83	5779
823.97	5668
824.11	5551
824.25	5581
824.389	5585
824.529	5581
824.669	5611
824.809	5646
824.949	5684
825.089	5638
825.228	5566
825.368	5379
825.508	5379
825.648	5353
825.787	5383
825.927	5429
826.067	5368
826.206	5303
826.346	5440
826.485	5379
826.625	5387
826.765	5547
826.904	5467
827.044	5311
827.183	5208
827.323	5162
827.462	5201
827.601	5185
827.741	5185
827.88	5246
828.02	5109
828.159	5216
828.298	5311
828.437	5391
828.577	5265
828.716	5543
828.855	5379
828.994	5201
829.134	5197
829.273	5220
829.412	5151
829.551	5159
829.69	5204
829.829	5311
829.968	5391
830.107	5311
830.246	5322
830.385	5166
830.524	5193
830.663	5098
830.802	5010
830.941	4908
831.08	4892
831.219	4942
831.357	5052
831.496	5132
831.635	4984
831.774	4885
831.913	4889
832.051	4706
832.19	4748
832.329	4873
832.467	4767
832.606	4645
832.744	4710
832.883	4744
833.022	4740
833.16	4858
833.299	4828
833.437	4854
833.576	4881
833.714	4862
833.852	4904
833.991	4915
834.129	4965
834.267	4980
834.406	4908
834.544	5025
834.682	5003
834.821	4961
834.959	5151
835.097	5064
835.235	5170
835.373	5086
835.511	5124
835.65	5041
835.788	5033
835.926	4908
836.064	4870
836.202	4934
836.34	5197
836.478	5231
836.615	5162
836.753	5246
836.891	5341
837.029	5242
837.167	5242
837.305	5201
837.443	5216
837.58	5079
837.718	5258
837.856	5197
837.993	5170
838.131	5231
838.269	5166
838.406	5216
838.544	5239
838.681	5045
838.819	5003
838.956	4892
839.094	4919
839.231	4984
839.369	5083
839.506	5433
839.643	5273
839.781	5045
839.918	5018
840.055	5166
840.193	5094
840.33	5174
840.467	5128
840.604	5280
840.742	5417
840.879	5132
841.016	5045
841.153	5151
841.29	5414
841.427	5372
841.564	5349
841.701	5402
841.838	5296
841.975	5242
842.112	5265
842.249	5151
842.385	5098
842.522	5341
842.659	5178
842.796	5113
842.933	5201
843.069	5166
843.206	5227
843.343	5383
843.479	5223
843.616	5326
843.752	5071
843.889	5041
844.025	5227
844.162	5018
844.298	5181
844.435	5075
844.571	5056
844.708	5216
844.844	5334
844.98	5349
845.117	5303
845.253	5155
845.389	5121
845.525	5151
845.661	5159
845.798	5079
845.934	5189
846.07	5064
846.206	5212
846.342	5288
846.478	5208
846.614	5041
846.75	5018
846.886	4953
847.022	5181
847.158	5014
847.294	5067
847.429	5113
847.565	5025
847.701	5345
847.837	4873
847.972	4831
848.108	4991
848.244	5010
848.379	4740
848.515	4771
848.65	4729
848.786	4797
848.921	4816
849.057	4862
849.192	4904
849.328	4831
849.463	4854
849.598	4854
849.734	4797
849.869	4637
850.004	4618
850.14	4660
850.275	4573
850.41	4558
850.545	4588
850.68	4618
850.815	4577
850.95	4630
851.085	4835
851.22	4721
851.355	4740
851.49	4656
851.625	4607
851.76	4637
851.895	4565
852.03	4546
852.165	4721
852.299	4687
852.434	4816
852.569	4774
852.703	4801
852.838	4862
852.973	4984
853.107	4877
853.242	4790
853.376	4672
853.511	4580
853.645	4641
853.78	4809
853.914	4679
854.048	4668
854.183	4698
854.317	4717
854.451	4862
854.585	4691
854.72	4641
854.854	4755
854.988	4645
855.122	4698
855.256	4546
855.39	4672
855.524	4793
855.658	4698
855.792	4672
855.926	4736
856.06	4828
856.194	4812
856.327	4675
856.461	4588
856.595	4588
856.729	4603
856.862	4725
856.996	4702
857.13	4710
857.263	4793
857.397	4782
857.53	4672
857.664	4733
857.797	4763
857.931	4801
858.064	4710
858.197	4774
858.331	4702
858.464	4618
858.597	4481
858.731	4630
858.864	4653
858.997	4584
859.13	4664
859.263	4679
859.396	4717
859.529	4584
859.662	4615
859.795	4512
859.928	4645
860.061	4767
860.194	4759
860.327	4664
860.46	4588
860.592	4706
860.725	4706
860.858	4759
860.99	4596
861.123	4565
861.256	4512
861.388	4660
861.521	5417
861.653	4519
861.786	4497
861.918	4432
862.05	4580
862.183	4508
862.315	4615
862.447	4694
862.58	4542
862.712	4402
862.844	4356
862.976	4493
863.108	4466
863.24	4866
863.372	4337
863.504	4402
863.636	4390
863.768	4455
863.9	4375
864.032	4375
864.164	4390
864.296	4459
864.428	4554
864.559	4550
864.691	4497
864.823	4542
864.954	4489
865.086	4531
865.217	4440
865.349	4314
865.48	4478
865.612	4474
865.743	4645
865.875	4481
866.006	4459
866.137	4466
866.269	4470
866.4	4436
866.531	4428
866.662	4333
866.793	4424
866.924	4428
867.055	4470
867.186	4428
867.317	4394
867.448	4371
867.579	4390
867.71	4402
867.841	4367
867.972	4428
868.103	4504
868.233	4417
868.364	4455
868.495	4512
868.625	4626
868.756	4774
868.886	4527
869.017	4687
869.147	4755
869.278	4782
869.408	4702
869.539	4641
869.669	4714
869.799	4596
869.929	4767
870.06	4755
870.19	4911
870.32	4900
870.45	4949
870.58	4976
870.71	5052
870.84	5075
870.97	4934
871.1	4942
871.23	5140
871.36	5136
871.489	5045
871.619	5128
871.749	5094
871.879	5132
872.008	5189
872.138	5075
872.267	4953
872.397	4873
872.526	4797
872.656	4717
872.785	4793
872.915	4961
873.044	5052
873.173	4957
873.303	5003
873.432	4987
873.561	4995
873.69	4885
873.819	4858
873.948	4889
874.077	4831
874.206	4752
874.335	4809
874.464	4911
874.593	5075
874.722	4965
874.851	5121
874.979	5006
875.108	5064
875.237	4957
875.365	4927
875.494	4873
875.623	5045
875.751	4812
875.88	4862
876.008	4991
876.136	4999
876.265	5250
876.393	5318
876.521	5299
876.65	5204
876.778	5143
876.906	5060
877.034	5048
877.162	5064
877.29	5006
877.418	5048
877.546	5105
877.674	4976
877.802	5018
877.93	5048
878.058	4942
878.185	4889
878.313	4957
878.441	4968
878.568	4759
878.696	4870
878.824	4957
878.951	4972
879.079	5113
879.206	5345
879.333	5155
879.461	5006
879.588	5025
879.715	5094
879.842	5220
879.97	5022
880.097	4744
880.224	4725
880.351	4812
880.478	4858
880.605	4755
880.732	4820
880.859	5064
880.986	4877
881.112	4923
881.239	4771
881.366	4691
881.493	4546
881.619	4634
881.746	4637
881.872	4656
881.999	4664
882.125	4683
882.252	4790
882.378	4847
882.505	4953
882.631	4809
882.757	4645
882.883	4733
883.01	4706
883.136	4683
883.262	4565
883.388	4645
883.514	4752
883.64	4885
883.766	4790
883.892	4656
884.018	4721
884.143	4896
884.269	4953
884.395	4668
884.52	4592
884.646	4675
884.772	4580
884.897	4519
885.023	4672
885.148	4759
885.274	4904
885.399	4771
885.524	4706
885.65	4694
885.775	4714
885.9	4714
886.025	4843
886.15	4778
886.275	4717
886.4	4672
886.525	4710
886.65	4683
886.775	4725
886.9	4923
887.025	5037
887.149	4820
887.274	4656
887.399	4584
887.523	4611
887.648	4615
887.773	4565
887.897	4763
888.021	4733
888.146	4694
888.27	4809
888.395	4949
888.519	4782
888.643	4767
888.767	4824
888.891	4668
889.015	4618
889.139	4664
889.263	4577
889.387	4729
889.511	4847
889.635	4771
889.759	4637
889.883	4630
890.006	4721
890.13	4767
890.254	4622
890.377	4698
890.501	4569
890.624	4527
890.748	4596
890.871	4535
890.995	4443
891.118	4363
891.241	4493
891.364	4565
891.488	4645
891.611	4512
891.734	4531
891.857	4626
891.98	4569
892.103	4656
892.226	4599
892.349	4512
892.471	4402
892.594	4535
892.717	4554
892.839	4607
892.962	4558
893.085	4653
893.207	4626
893.33	4447
893.452	4538
893.575	4634
893.697	4527
893.819	4805
893.941	4866
894.064	4736
894.186	4592
894.308	4580
894.43	4740
894.552	4831
894.674	4755
894.796	4558
894.918	4607
895.04	4611
895.161	4733
895.283	4683
895.405	4588
895.526	4630
895.648	4683
895.769	4675
895.891	4683
896.012	4778
896.134	4725
896.255	4664
896.376	4615
896.498	4660
896.619	4687
896.74	4592
896.861	4653
896.982	4911
897.103	5090
897.224	4816
897.345	4729
897.466	4645
897.587	4763
897.708	4927
897.828	4801
897.949	4687
898.07	4531
898.19	4683
898.311	4835
898.431	4687
898.552	4767
898.672	4801
898.792	4793
898.913	4710
899.033	4653
899.153	4504
899.273	4390
899.393	4443
899.513	4546
899.633	4519
899.753	4527
899.873	4508
899.993	4611
900.113	4535
900.232	4611
900.352	4538
900.472	4489
900.591	4367
900.711	4538
900.83	4462
900.95	4599
901.069	4675
901.189	4577
901.308	4352
901.427	4341
901.546	4424
901.665	4443
901.784	4508
901.904	4329
902.023	4325
902.141	4188
902.26	4116
902.379	4314
902.498	4223
902.617	4261
902.735	4375
902.854	4386
902.973	4314
903.091	4192
903.21	4177
903.328	4284
903.446	4318
903.565	4280
903.683	4344
903.801	4230
903.919	4417
904.038	4432
904.156	4310
904.274	4466
904.392	4440
904.51	4451
904.627	4466
904.745	4554
904.863	4637
904.981	4455
905.098	4341
905.216	4371
905.334	4367
905.451	4447
905.569	4470
905.686	4561
905.803	4550
905.921	4451
906.038	4569
906.155	4493
906.272	4371
906.389	4451
906.506	4356
906.623	4379
906.74	4344
906.857	4303
906.974	4371
907.091	4561
907.208	4664
907.324	4538
907.441	4485
907.557	4348
907.674	4337
907.79	4333
907.907	4371
908.023	4489
908.139	4474
908.256	4462
908.372	4462
908.488	4459
908.604	4348
908.72	4314
908.836	4375
908.952	4413
909.068	4436
909.184	4592
909.3	4459
909.415	4592
909.531	4489
909.647	4280
909.762	4322
909.878	4375
909.993	4428
910.108	4413
910.224	4398
910.339	4466
910.454	4409
910.57	4329
910.685	4261
910.8	4611
910.915	4584
911.03	4512
911.145	4341
911.259	4344
911.374	4318
911.489	4249
911.604	4246
911.718	4185
911.833	4215
911.947	4086
912.062	3968
912.176	4227
912.291	4177
912.405	4265
912.519	4493
912.633	4508
912.748	4337
912.862	4310
912.976	4238
913.09	4131
913.204	4185
913.318	4211
913.431	4333
913.545	4344
913.659	4459
913.772	4333
913.886	4261
914	4192
914.113	4375
914.226	4394
914.34	4405
914.453	4238
914.566	4451
914.68	4310
914.793	4352
914.906	4177
915.019	4116
915.132	4112
915.245	4196
915.358	4211
915.47	4261
915.583	4284
915.696	4306
915.809	4405
915.921	4421
916.034	4215
916.146	4268
916.259	4223
916.371	4379
916.483	4352
916.595	4249
916.708	4322
916.82	4318
916.932	4329
917.044	4341
917.156	4306
917.268	4219
917.38	4234
917.491	4299
917.603	4329
917.715	4390
917.826	4371
917.938	4348
918.049	4242
918.161	4375
918.272	4569
918.384	4500
918.495	4485
918.606	4318
918.717	4249
918.828	4287
918.939	4409
919.05	4253
919.161	4375
919.272	4116
919.383	4158
919.494	4466
919.604	4675
919.715	4402
919.826	4360
919.936	4379
920.047	4516
920.157	4474
920.267	4641
920.378	4569
920.488	4466
920.598	4694
920.708	4930
920.818	4790
920.928	4744
921.038	4976
921.148	4904
921.258	4626
921.368	4535
921.477	4481
921.587	4478
921.697	4367
921.806	4565
921.916	4405
922.025	4253
922.134	4303
922.244	4238
922.353	4360
922.462	4219
922.571	4139
922.68	4017
922.789	3972
922.898	3983
923.007	3991
923.116	4101
923.224	4051
923.333	4036
923.442	3953
923.55	3956
923.659	4021
923.767	4093
923.876	3934
923.984	4154
924.092	3949
924.201	4071
924.309	4109
924.417	4097
924.525	4017
924.633	4124
924.741	5075
924.849	3884
924.956	4097
925.064	3945
925.172	3903
925.279	4017
925.387	4059
925.494	4036
925.602	4181
925.709	4143
925.816	4036
925.924	4143
926.031	4249
926.138	4169
926.245	4185
926.352	4131
926.459	4268
926.566	4303
926.673	4139
926.779	4147
926.886	4055
926.993	3964
927.099	4002
927.206	3934
927.312	3903
927.419	4002
927.525	4036
927.631	4063
927.737	3960
927.843	3937
927.95	3854
928.056	3918
928.162	3979
928.267	4086
928.373	4634
928.479	4097
928.585	3892
928.69	4013
928.796	4036
928.901	3949
929.007	3865
929.112	4036
929.218	3979
929.323	3972
929.428	3926
929.533	4074
929.638	3892
929.743	3930
929.848	4036
929.953	4006
930.058	3918
930.163	3812
930.267	3827
930.372	3949
930.477	3865
930.581	4105
930.685	3945
930.79	3816
930.894	3876
930.998	3884
931.103	4013
931.207	3709
931.311	3713
931.415	3705
931.519	3515
931.623	3553
