Data from test_V78500241_747.txt Node
Date: Fri Mar 25 16:54:11 CST 2022
User: usil
Spectrometer: V785-0024
Trigger mode: 0
Integration Time (sec): 4.000000E-1
Scans to average: 1
Nonlinearity correction enabled: false
Boxcar width: 0
Storing dark spectrum: false
XAxis mode: Wavelengths
Number of Pixels in Spectrum: 1024
>>>>>Begin Spectral Data<<<<<
801.071	8016
801.214	8039
801.356	7868
801.499	7841
801.641	7902
801.783	7845
801.926	7921
802.068	8024
802.211	7997
802.353	8005
802.496	7860
802.638	7909
802.78	7940
802.923	7928
803.065	7868
803.208	7894
803.35	7989
803.492	8107
803.635	8199
803.777	8046
803.919	8123
804.061	8427
804.204	8123
804.346	8065
804.488	8024
804.63	8084
804.773	8005
804.915	8153
805.057	8320
805.199	8176
805.341	8172
805.483	8298
805.626	8233
805.768	8138
805.91	8138
806.052	8225
806.194	8115
806.336	8286
806.478	8126
806.62	8092
806.762	8069
806.904	8271
807.046	8404
807.188	8461
807.33	8248
807.472	8381
807.614	8145
807.756	8103
807.898	7936
808.04	7883
808.182	7887
808.324	7925
808.465	7879
808.607	8054
808.749	8046
808.891	8168
809.033	8275
809.174	8237
809.316	8096
809.458	8039
809.6	8054
809.741	8046
809.883	8043
810.025	8073
810.166	8001
810.308	8069
810.45	7986
810.591	7902
810.733	7731
810.875	7704
811.016	7510
811.158	7476
811.299	7567
811.441	7738
811.582	7696
811.724	7578
811.865	7495
812.007	7567
812.148	7559
812.29	7609
812.431	7723
812.573	7864
812.714	7940
812.855	8077
812.997	8290
813.138	8358
813.279	8145
813.421	8126
813.562	7986
813.703	7875
813.845	7776
813.986	7495
814.127	7324
814.268	7198
814.41	7247
814.551	7114
814.692	7187
814.833	7061
814.974	7091
815.115	7110
815.256	6943
815.397	6947
815.539	7000
815.68	6814
815.821	6772
815.962	6829
816.103	6768
816.244	6692
816.385	6639
816.526	6639
816.666	6452
816.807	6308
816.948	6407
817.089	6517
817.23	6433
817.371	6414
817.512	6361
817.653	6361
817.793	6369
817.934	6376
818.075	6445
818.216	6456
818.356	6395
818.497	6186
818.638	6136
818.778	6148
818.919	6148
819.06	6133
819.2	6369
819.341	6311
819.481	6338
819.622	6570
819.762	6810
819.903	6677
820.043	6662
820.184	6620
820.324	6551
820.465	6639
820.605	6623
820.746	6635
820.886	6475
821.026	6635
821.167	6738
821.307	6779
821.447	6764
821.588	6627
821.728	6555
821.868	6479
822.008	6296
822.149	6391
822.289	6323
822.429	6155
822.569	6110
822.709	6098
822.849	5980
822.99	5977
823.13	5942
823.27	5923
823.41	5832
823.55	5760
823.69	5760
823.83	5771
823.97	5642
824.11	5539
824.25	5501
824.389	5592
824.529	5589
824.669	5516
824.809	5619
824.949	5668
825.089	5577
825.228	5581
825.368	5414
825.508	5318
825.648	5440
825.787	5395
825.927	5410
826.067	5265
826.206	5311
826.346	5402
826.485	5387
826.625	5360
826.765	5512
826.904	5505
827.044	5254
827.183	5204
827.323	5105
827.462	5277
827.601	5147
827.741	5178
827.88	5242
828.02	5071
828.159	5227
828.298	5284
828.437	5322
828.577	5254
828.716	5474
828.855	5280
828.994	5208
829.134	5143
829.273	5189
829.412	5159
829.551	5117
829.69	5056
829.829	5273
829.968	5372
830.107	5273
830.246	5292
830.385	5102
830.524	5170
830.663	5025
830.802	4987
830.941	4885
831.08	4850
831.219	4987
831.357	5010
831.496	5132
831.635	4930
831.774	4873
831.913	4847
832.051	4771
832.19	4740
832.329	4889
832.467	4656
832.606	4596
832.744	4782
832.883	4790
833.022	4740
833.16	4805
833.299	4862
833.437	4858
833.576	4824
833.714	4850
833.852	4896
833.991	4892
834.129	4980
834.267	4915
834.406	4862
834.544	4976
834.682	5003
834.821	4908
834.959	5128
835.097	4987
835.235	5162
835.373	5086
835.511	5136
835.65	5041
835.788	5003
835.926	4862
836.064	4885
836.202	4843
836.34	5185
836.478	5246
836.615	5102
836.753	5231
836.891	5299
837.029	5269
837.167	5212
837.305	5170
837.443	5140
837.58	5083
837.718	5216
837.856	5189
837.993	5170
838.131	5197
838.269	5246
838.406	5220
838.544	5162
838.681	5033
838.819	4999
838.956	4923
839.094	4877
839.231	5014
839.369	5014
839.506	5436
839.643	5242
839.781	5045
839.918	5064
840.055	5121
840.193	5124
840.33	5128
840.467	5151
840.604	5239
840.742	5357
840.879	5033
841.016	5117
841.153	5128
841.29	5360
841.427	5337
841.564	5299
841.701	5337
841.838	5303
841.975	5201
842.112	5284
842.249	5159
842.385	5113
842.522	5364
842.659	5170
842.796	5140
842.933	5155
843.069	5132
843.206	5117
843.343	5303
843.479	5242
843.616	5223
843.752	5113
843.889	4965
844.025	5223
844.162	4949
844.298	5170
844.435	5067
844.571	5041
844.708	5162
844.844	5299
844.98	5372
845.117	5334
845.253	5159
845.389	5105
845.525	5162
845.661	5170
845.798	5022
845.934	5075
846.07	5045
846.206	5239
846.342	5273
846.478	5212
846.614	5025
846.75	4942
846.886	4915
847.022	5113
847.158	4980
847.294	5090
847.429	5121
847.565	5052
847.701	5318
847.837	4870
847.972	4801
848.108	4972
848.244	5033
848.379	4736
848.515	4725
848.65	4725
848.786	4729
848.921	4733
849.057	4847
849.192	4892
849.328	4809
849.463	4843
849.598	4839
849.734	4706
849.869	4691
850.004	4637
850.14	4694
850.275	4618
850.41	4512
850.545	4546
850.68	4622
850.815	4615
850.95	4668
851.085	4816
851.22	4755
851.355	4660
851.49	4611
851.625	4611
851.76	4656
851.895	4561
852.03	4535
852.165	4675
852.299	4668
852.434	4740
852.569	4778
852.703	4763
852.838	4767
852.973	4919
853.107	4938
853.242	4733
853.376	4668
853.511	4618
853.645	4580
853.78	4835
853.914	4687
854.048	4645
854.183	4618
854.317	4691
854.451	4873
854.585	4660
854.72	4622
854.854	4706
854.988	4618
855.122	4664
855.256	4466
855.39	4634
855.524	4778
855.658	4717
855.792	4717
855.926	4706
856.06	4790
856.194	4790
856.327	4717
856.461	4630
856.595	4584
856.729	4599
856.862	4733
856.996	4740
857.13	4702
857.263	4736
857.397	4755
857.53	4584
857.664	4687
857.797	4694
857.931	4759
858.064	4729
858.197	4736
858.331	4630
858.464	4618
858.597	4538
858.731	4653
858.864	4615
858.997	4580
859.13	4653
859.263	4611
859.396	4706
859.529	4527
859.662	4603
859.795	4542
859.928	4599
860.061	4767
860.194	4702
860.327	4615
860.46	4577
860.592	4637
860.725	4752
860.858	4717
860.99	4573
861.123	4542
861.256	4500
861.388	4577
861.521	5360
861.653	4462
861.786	4451
861.918	4443
862.05	4478
862.183	4504
862.315	4607
862.447	4645
862.58	4535
862.712	4390
862.844	4356
862.976	4489
863.108	4485
863.24	4915
863.372	4341
863.504	4432
863.636	4428
863.768	4489
863.9	4424
864.032	4402
864.164	4413
864.296	4542
864.428	4596
864.559	4527
864.691	4565
864.823	4531
864.954	4478
865.086	4493
865.217	4485
865.349	4432
865.48	4462
865.612	4485
865.743	4592
865.875	4504
866.006	4470
866.137	4466
866.269	4428
866.4	4447
866.531	4417
866.662	4360
866.793	4440
866.924	4428
867.055	4466
867.186	4436
867.317	4383
867.448	4379
867.579	4375
867.71	4379
867.841	4344
867.972	4470
868.103	4462
868.233	4466
868.364	4443
868.495	4466
868.625	4653
868.756	4702
868.886	4577
869.017	4622
869.147	4759
869.278	4755
869.408	4675
869.539	4626
869.669	4679
869.799	4656
869.929	4736
870.06	4755
870.19	4953
870.32	4881
870.45	4892
870.58	4999
870.71	5075
870.84	5121
870.97	4961
871.1	4908
871.23	5098
871.36	5140
871.489	4995
871.619	5147
871.749	5090
871.879	5136
872.008	5197
872.138	5025
872.267	4972
872.397	4809
872.526	4835
872.656	4725
872.785	4812
872.915	4923
873.044	5037
873.173	4866
873.303	4961
873.432	4976
873.561	4938
873.69	4873
873.819	4809
873.948	4900
874.077	4812
874.206	4767
874.335	4793
874.464	4923
874.593	5083
874.722	4927
874.851	5128
874.979	5102
875.108	5033
875.237	4919
875.365	4877
875.494	4930
875.623	4980
875.751	4797
875.88	4896
876.008	4953
876.136	4999
876.265	5162
876.393	5280
876.521	5239
876.65	5201
876.778	5181
876.906	5037
877.034	5029
877.162	5064
877.29	4965
877.418	5067
877.546	5022
877.674	5022
877.802	5060
877.93	5010
878.058	4938
878.185	4866
878.313	4946
878.441	4927
878.568	4790
878.696	4831
878.824	4976
878.951	5018
879.079	5094
879.206	5284
879.333	5090
879.461	4991
879.588	5014
879.715	5060
879.842	5223
879.97	5025
880.097	4774
880.224	4721
880.351	4801
880.478	4816
880.605	4717
880.732	4812
880.859	5041
880.986	4881
881.112	4915
881.239	4767
881.366	4691
881.493	4615
881.619	4599
881.746	4622
881.872	4668
881.999	4641
882.125	4645
882.252	4755
882.378	4866
882.505	4995
882.631	4828
882.757	4683
882.883	4748
883.01	4725
883.136	4656
883.262	4577
883.388	4573
883.514	4828
883.64	4889
883.766	4774
883.892	4649
884.018	4717
884.143	4904
884.269	5014
884.395	4675
884.52	4645
884.646	4637
884.772	4596
884.897	4622
885.023	4668
885.148	4797
885.274	4793
885.399	4797
885.524	4736
885.65	4694
885.775	4736
885.9	4717
886.025	4866
886.15	4790
886.275	4660
886.4	4618
886.525	4748
886.65	4679
886.775	4634
886.9	4873
887.025	5018
887.149	4805
887.274	4649
887.399	4607
887.523	4596
887.648	4580
887.773	4622
887.897	4782
888.021	4793
888.146	4672
888.27	4812
888.395	4927
888.519	4812
888.643	4816
888.767	4850
888.891	4664
889.015	4580
889.139	4603
889.263	4622
889.387	4793
889.511	4828
889.635	4801
889.759	4660
889.883	4675
890.006	4744
890.13	4824
890.254	4569
890.377	4653
890.501	4531
890.624	4550
890.748	4649
890.871	4531
890.995	4443
891.118	4398
891.241	4497
891.364	4531
891.488	4668
891.611	4500
891.734	4558
891.857	4637
891.98	4561
892.103	4641
892.226	4603
892.349	4546
892.471	4394
892.594	4535
892.717	4641
892.839	4588
892.962	4573
893.085	4599
893.207	4603
893.33	4440
893.452	4508
893.575	4672
893.697	4603
893.819	4774
893.941	4812
894.064	4771
894.186	4554
894.308	4561
894.43	4729
894.552	4820
894.674	4729
894.796	4565
894.918	4577
895.04	4512
895.161	4721
895.283	4672
895.405	4546
895.526	4649
895.648	4679
895.769	4668
895.891	4683
896.012	4702
896.134	4710
896.255	4679
896.376	4630
896.498	4618
896.619	4641
896.74	4611
896.861	4664
896.982	4930
897.103	4995
897.224	4831
897.345	4736
897.466	4664
897.587	4687
897.708	4896
897.828	4755
897.949	4622
898.07	4603
898.19	4664
898.311	4782
898.431	4717
898.552	4694
898.672	4824
898.792	4812
898.913	4752
899.033	4588
899.153	4523
899.273	4428
899.393	4485
899.513	4527
899.633	4500
899.753	4569
899.873	4512
899.993	4542
900.113	4504
900.232	4584
900.352	4550
900.472	4504
900.591	4428
900.711	4504
900.83	4470
900.95	4592
901.069	4649
901.189	4493
901.308	4341
901.427	4333
901.546	4390
901.665	4436
901.784	4489
901.904	4402
902.023	4333
902.141	4207
902.26	4188
902.379	4306
902.498	4287
902.617	4200
902.735	4363
902.854	4337
902.973	4371
903.091	4196
903.21	4223
903.328	4295
903.446	4268
903.565	4204
903.683	4348
903.801	4257
903.919	4383
904.038	4436
904.156	4348
904.274	4383
904.392	4371
904.51	4417
904.627	4451
904.745	4584
904.863	4645
904.981	4367
905.098	4268
905.216	4363
905.334	4432
905.451	4428
905.569	4459
905.686	4584
905.803	4599
905.921	4398
906.038	4535
906.155	4432
906.272	4386
906.389	4474
906.506	4325
906.623	4383
906.74	4390
906.857	4329
906.974	4386
907.091	4516
907.208	4664
907.324	4603
907.441	4497
907.557	4329
907.674	4379
907.79	4318
907.907	4379
908.023	4497
908.139	4462
908.256	4451
908.372	4455
908.488	4462
908.604	4333
908.72	4337
908.836	4367
908.952	4409
909.068	4413
909.184	4535
909.3	4455
909.415	4596
909.531	4584
909.647	4348
909.762	4394
909.878	4409
909.993	4436
910.108	4402
910.224	4424
910.339	4447
910.454	4390
910.57	4348
910.685	4329
910.8	4645
910.915	4615
911.03	4512
911.145	4341
911.259	4306
911.374	4375
911.489	4253
911.604	4261
911.718	4166
911.833	4211
911.947	4059
912.062	4002
912.176	4230
912.291	4234
912.405	4249
912.519	4474
912.633	4470
912.748	4344
912.862	4337
912.976	4242
913.09	4112
913.204	4200
913.318	4227
913.431	4379
913.545	4322
913.659	4413
913.772	4341
913.886	4223
914	4207
914.113	4379
914.226	4421
914.34	4394
914.453	4211
914.566	4379
914.68	4329
914.793	4329
914.906	4177
915.019	4109
915.132	4131
915.245	4166
915.358	4257
915.47	4211
915.583	4234
915.696	4352
915.809	4424
915.921	4413
916.034	4295
916.146	4299
916.259	4211
916.371	4356
916.483	4352
916.595	4227
916.708	4295
916.82	4329
916.932	4325
917.044	4356
917.156	4363
917.268	4223
917.38	4284
917.491	4276
917.603	4314
917.715	4466
917.826	4447
917.938	4363
918.049	4196
918.161	4394
918.272	4481
918.384	4516
918.495	4455
918.606	4322
918.717	4211
918.828	4295
918.939	4348
919.05	4299
919.161	4291
919.272	4143
919.383	4192
919.494	4424
919.604	4618
919.715	4459
919.826	4375
919.936	4424
920.047	4500
920.157	4462
920.267	4653
920.378	4500
920.488	4462
920.598	4725
920.708	4858
920.818	4782
920.928	4774
921.038	4968
921.148	4862
921.258	4599
921.368	4573
921.477	4497
921.587	4474
921.697	4367
921.806	4538
921.916	4424
922.025	4280
922.134	4280
922.244	4246
922.353	4306
922.462	4177
922.571	4162
922.68	3998
922.789	4010
922.898	4055
923.007	3994
923.116	4082
923.224	4097
923.333	4074
923.442	3956
923.55	3983
923.659	4013
923.767	4078
923.876	3987
923.984	4162
924.092	3960
924.201	4101
924.309	4101
924.417	4112
924.525	4059
924.633	4101
924.741	4908
924.849	3888
924.956	4143
925.064	3968
925.172	3899
925.279	4002
925.387	4082
925.494	4059
925.602	4211
925.709	4200
925.816	4112
925.924	4101
926.031	4219
926.138	4192
926.245	4238
926.352	4048
926.459	4249
926.566	4303
926.673	4192
926.779	4067
926.886	4097
926.993	3987
927.099	3979
927.206	3964
927.312	3922
927.419	4055
927.525	4013
927.631	4063
927.737	3979
927.843	3922
927.95	3857
928.056	3972
928.162	3987
928.267	4105
928.373	4710
928.479	4131
928.585	3930
928.69	4021
928.796	4048
928.901	3945
929.007	3835
929.112	3994
929.218	3960
929.323	3934
929.428	3964
929.533	4040
929.638	3880
929.743	3949
929.848	4021
929.953	4006
930.058	3922
930.163	3778
930.267	3827
930.372	3968
930.477	3793
930.581	4105
930.685	3934
930.79	3823
930.894	3899
930.998	3846
931.103	4048
931.207	3743
931.311	3720
931.415	3690
931.519	3507
931.623	3534
