Data from test_V78500241_1429.txt Node
Date: Fri Mar 25 16:58:56 CST 2022
User: usil
Spectrometer: V785-0024
Trigger mode: 0
Integration Time (sec): 4.000000E-1
Scans to average: 1
Nonlinearity correction enabled: false
Boxcar width: 0
Storing dark spectrum: false
XAxis mode: Wavelengths
Number of Pixels in Spectrum: 1024
>>>>>Begin Spectral Data<<<<<
801.071	7982
801.214	7947
801.356	7909
801.499	7845
801.641	7761
801.783	7750
801.926	7928
802.068	7875
802.211	7947
802.353	7970
802.496	7890
802.638	7860
802.78	7906
802.923	7925
803.065	7898
803.208	7875
803.35	7955
803.492	8092
803.635	8157
803.777	8031
803.919	8123
804.061	8499
804.204	8183
804.346	8088
804.488	7997
804.63	8100
804.773	8012
804.915	8138
805.057	8282
805.199	8164
805.341	8240
805.483	8256
805.626	8214
805.768	8130
805.91	8191
806.052	8210
806.194	8073
806.336	8256
806.478	8062
806.62	8039
806.762	8123
806.904	8233
807.046	8465
807.188	8339
807.33	8275
807.472	8305
807.614	8164
807.756	8142
807.898	7959
808.04	7940
808.182	7928
808.324	7906
808.465	7845
808.607	8058
808.749	8058
808.891	8168
809.033	8309
809.174	8126
809.316	8024
809.458	8043
809.6	7955
809.741	7997
809.883	8005
810.025	8073
810.166	8024
810.308	8020
810.45	7997
810.591	7887
810.733	7715
810.875	7643
811.016	7525
811.158	7464
811.299	7643
811.441	7651
811.582	7712
811.724	7533
811.865	7510
812.007	7582
812.148	7624
812.29	7590
812.431	7742
812.573	7890
812.714	7974
812.855	8062
812.997	8259
813.138	8294
813.279	8123
813.421	8168
813.562	8039
813.703	7814
813.845	7807
813.986	7419
814.127	7228
814.268	7168
814.41	7194
814.551	7149
814.692	7240
814.833	6981
814.974	7137
815.115	7046
815.256	6920
815.397	6939
815.539	6894
815.68	6821
815.821	6818
815.962	6852
816.103	6818
816.244	6688
816.385	6582
816.526	6608
816.666	6490
816.807	6308
816.948	6479
817.089	6437
817.23	6391
817.371	6418
817.512	6407
817.653	6422
817.793	6331
817.934	6399
818.075	6418
818.216	6483
818.356	6441
818.497	6308
818.638	6068
818.778	6152
818.919	6064
819.06	6159
819.2	6304
819.341	6304
819.481	6338
819.622	6445
819.762	6726
819.903	6760
820.043	6551
820.184	6555
820.324	6536
820.465	6719
820.605	6631
820.746	6654
820.886	6525
821.026	6677
821.167	6692
821.307	6757
821.447	6802
821.588	6650
821.728	6532
821.868	6452
822.008	6243
822.149	6342
822.289	6338
822.429	6144
822.569	6068
822.709	6064
822.849	5912
822.99	5904
823.13	5855
823.27	5980
823.41	5802
823.55	5760
823.69	5779
823.83	5752
823.97	5642
824.11	5528
824.25	5520
824.389	5505
824.529	5535
824.669	5467
824.809	5592
824.949	5676
825.089	5600
825.228	5604
825.368	5368
825.508	5299
825.648	5364
825.787	5353
825.927	5322
826.067	5201
826.206	5277
826.346	5387
826.485	5383
826.625	5402
826.765	5486
826.904	5448
827.044	5208
827.183	5159
827.323	5140
827.462	5220
827.601	5162
827.741	5212
827.88	5227
828.02	5090
828.159	5239
828.298	5326
828.437	5395
828.577	5269
828.716	5440
828.855	5303
828.994	5124
829.134	5121
829.273	5197
829.412	5136
829.551	5109
829.69	5124
829.829	5258
829.968	5376
830.107	5212
830.246	5269
830.385	5166
830.524	5109
830.663	5025
830.802	4987
830.941	4896
831.08	4889
831.219	4972
831.357	4961
831.496	5132
831.635	4946
831.774	4862
831.913	4812
832.051	4721
832.19	4729
832.329	4854
832.467	4759
832.606	4656
832.744	4721
832.883	4691
833.022	4691
833.16	4736
833.299	4767
833.437	4824
833.576	4831
833.714	4847
833.852	4812
833.991	4839
834.129	4953
834.267	4991
834.406	4919
834.544	4976
834.682	4904
834.821	4949
834.959	5132
835.097	4957
835.235	5166
835.373	5064
835.511	5083
835.65	5025
835.788	5010
835.926	4873
836.064	4862
836.202	4911
836.34	5132
836.478	5208
836.615	5124
836.753	5147
836.891	5326
837.029	5231
837.167	5185
837.305	5193
837.443	5132
837.58	5075
837.718	5220
837.856	5174
837.993	5174
838.131	5204
838.269	5162
838.406	5166
838.544	5201
838.681	4999
838.819	4976
838.956	4915
839.094	4904
839.231	4972
839.369	5083
839.506	5402
839.643	5254
839.781	5014
839.918	5025
840.055	5086
840.193	5109
840.33	5075
840.467	5132
840.604	5143
840.742	5440
840.879	5109
841.016	5060
841.153	5094
841.29	5379
841.427	5303
841.564	5326
841.701	5322
841.838	5277
841.975	5235
842.112	5254
842.249	5117
842.385	5109
842.522	5280
842.659	5155
842.796	5159
842.933	5174
843.069	5185
843.206	5071
843.343	5258
843.479	5223
843.616	5261
843.752	4991
843.889	4995
844.025	5189
844.162	5022
844.298	5208
844.435	5064
844.571	5029
844.708	5185
844.844	5220
844.98	5299
845.117	5235
845.253	5105
845.389	5083
845.525	5094
845.661	5113
845.798	4987
845.934	5143
846.07	4995
846.206	5201
846.342	5269
846.478	5181
846.614	5003
846.75	4923
846.886	4911
847.022	5098
847.158	4980
847.294	5105
847.429	5060
847.565	5006
847.701	5349
847.837	4847
847.972	4820
848.108	4892
848.244	4968
848.379	4812
848.515	4702
848.65	4748
848.786	4698
848.921	4763
849.057	4862
849.192	4873
849.328	4801
849.463	4820
849.598	4752
849.734	4763
849.869	4653
850.004	4577
850.14	4664
850.275	4641
850.41	4550
850.545	4512
850.68	4599
850.815	4653
850.95	4603
851.085	4820
851.22	4748
851.355	4656
851.49	4599
851.625	4626
851.76	4611
851.895	4542
852.03	4538
852.165	4615
852.299	4717
852.434	4786
852.569	4755
852.703	4744
852.838	4816
852.973	4854
853.107	4889
853.242	4679
853.376	4656
853.511	4538
853.645	4596
853.78	4824
853.914	4679
854.048	4694
854.183	4622
854.317	4672
854.451	4812
854.585	4668
854.72	4618
854.854	4763
854.988	4584
855.122	4622
855.256	4500
855.39	4672
855.524	4744
855.658	4721
855.792	4687
855.926	4702
856.06	4801
856.194	4759
856.327	4683
856.461	4580
856.595	4588
856.729	4588
856.862	4763
856.996	4679
857.13	4763
857.263	4748
857.397	4736
857.53	4626
857.664	4725
857.797	4721
857.931	4805
858.064	4660
858.197	4733
858.331	4694
858.464	4599
858.597	4523
858.731	4588
858.864	4569
858.997	4615
859.13	4622
859.263	4637
859.396	4763
859.529	4561
859.662	4550
859.795	4542
859.928	4645
860.061	4771
860.194	4778
860.327	4634
860.46	4546
860.592	4653
860.725	4740
860.858	4660
860.99	4546
861.123	4519
861.256	4546
861.388	4592
861.521	5395
861.653	4493
861.786	4363
861.918	4462
862.05	4531
862.183	4504
862.315	4645
862.447	4645
862.58	4527
862.712	4375
862.844	4341
862.976	4474
863.108	4500
863.24	4850
863.372	4329
863.504	4409
863.636	4322
863.768	4455
863.9	4424
864.032	4352
864.164	4363
864.296	4485
864.428	4497
864.559	4554
864.691	4535
864.823	4504
864.954	4493
865.086	4478
865.217	4398
865.349	4421
865.48	4462
865.612	4440
865.743	4622
865.875	4432
866.006	4447
866.137	4470
866.269	4432
866.4	4440
866.531	4398
866.662	4337
866.793	4390
866.924	4413
867.055	4466
867.186	4440
867.317	4379
867.448	4333
867.579	4390
867.71	4421
867.841	4314
867.972	4417
868.103	4447
868.233	4447
868.364	4402
868.495	4443
868.625	4675
868.756	4771
868.886	4584
869.017	4611
869.147	4755
869.278	4744
869.408	4683
869.539	4573
869.669	4706
869.799	4660
869.929	4740
870.06	4725
870.19	4934
870.32	4900
870.45	4930
870.58	5025
870.71	5098
870.84	5052
870.97	4984
871.1	4850
871.23	5159
871.36	5102
871.489	5003
871.619	5064
871.749	5090
871.879	5151
872.008	5178
872.138	5025
872.267	4972
872.397	4835
872.526	4763
872.656	4672
872.785	4740
872.915	4934
873.044	5003
873.173	4915
873.303	5003
873.432	4953
873.561	4972
873.69	4889
873.819	4820
873.948	4923
874.077	4790
874.206	4752
874.335	4771
874.464	4923
874.593	5060
874.722	4934
874.851	5094
874.979	4995
875.108	5056
875.237	4911
875.365	4919
875.494	4908
875.623	4972
875.751	4843
875.88	4892
876.008	4915
876.136	5037
876.265	5201
876.393	5296
876.521	5147
876.65	5197
876.778	5174
876.906	5052
877.034	5033
877.162	5041
877.29	4965
877.418	5022
877.546	5052
877.674	5029
877.802	4995
877.93	5033
878.058	4881
878.185	4873
878.313	4984
878.441	4892
878.568	4778
878.696	4862
878.824	4896
878.951	4976
879.079	5075
879.206	5277
879.333	5075
879.461	4961
879.588	4987
879.715	5075
879.842	5178
879.97	4911
880.097	4744
880.224	4744
880.351	4774
880.478	4809
880.605	4790
880.732	4793
880.859	5037
880.986	4889
881.112	4881
881.239	4755
881.366	4626
881.493	4535
881.619	4565
881.746	4626
881.872	4660
881.999	4641
882.125	4687
882.252	4763
882.378	4801
882.505	4942
882.631	4790
882.757	4683
882.883	4710
883.01	4679
883.136	4649
883.262	4599
883.388	4615
883.514	4812
883.64	4847
883.766	4782
883.892	4645
884.018	4710
884.143	4850
884.269	4980
884.395	4675
884.52	4618
884.646	4656
884.772	4558
884.897	4535
885.023	4611
885.148	4797
885.274	4870
885.399	4809
885.524	4710
885.65	4702
885.775	4691
885.9	4733
886.025	4854
886.15	4839
886.275	4752
886.4	4660
886.525	4744
886.65	4683
886.775	4672
886.9	4923
887.025	4961
887.149	4812
887.274	4698
887.399	4584
887.523	4634
887.648	4607
887.773	4599
887.897	4778
888.021	4847
888.146	4698
888.27	4805
888.395	4911
888.519	4797
888.643	4809
888.767	4911
888.891	4679
889.015	4618
889.139	4691
889.263	4637
889.387	4759
889.511	4866
889.635	4805
889.759	4687
889.883	4698
890.006	4782
890.13	4862
890.254	4687
890.377	4736
890.501	4550
890.624	4546
890.748	4706
890.871	4588
890.995	4443
891.118	4451
891.241	4535
891.364	4580
891.488	4660
891.611	4542
891.734	4573
891.857	4653
891.98	4577
892.103	4645
892.226	4607
892.349	4542
892.471	4470
892.594	4588
892.717	4626
892.839	4618
892.962	4603
893.085	4698
893.207	4634
893.33	4493
893.452	4577
893.575	4721
893.697	4675
893.819	4816
893.941	4850
894.064	4820
894.186	4611
894.308	4588
894.43	4786
894.552	4854
894.674	4831
894.796	4607
894.918	4645
895.04	4584
895.161	4698
895.283	4656
895.405	4641
895.526	4675
895.648	4759
895.769	4694
895.891	4774
896.012	4755
896.134	4733
896.255	4710
896.376	4641
896.498	4672
896.619	4656
896.74	4645
896.861	4679
896.982	4976
897.103	5083
897.224	4877
897.345	4782
897.466	4725
897.587	4774
897.708	4809
897.828	4812
897.949	4694
898.07	4565
898.19	4637
898.311	4816
898.431	4687
898.552	4706
898.672	4862
898.792	4850
898.913	4736
899.033	4679
899.153	4527
899.273	4447
899.393	4535
899.513	4538
899.633	4584
899.753	4565
899.873	4508
899.993	4592
900.113	4546
900.232	4645
900.352	4584
900.472	4523
900.591	4375
900.711	4565
900.83	4459
900.95	4653
901.069	4748
901.189	4561
901.308	4390
901.427	4341
901.546	4371
901.665	4523
901.784	4470
901.904	4386
902.023	4379
902.141	4230
902.26	4215
902.379	4356
902.498	4268
902.617	4284
902.735	4413
902.854	4432
902.973	4379
903.091	4284
903.21	4257
903.328	4303
903.446	4314
903.565	4276
903.683	4363
903.801	4325
903.919	4436
904.038	4421
904.156	4318
904.274	4451
904.392	4409
904.51	4481
904.627	4493
904.745	4611
904.863	4645
904.981	4421
905.098	4314
905.216	4394
905.334	4466
905.451	4451
905.569	4478
905.686	4565
905.803	4626
905.921	4421
906.038	4611
906.155	4500
906.272	4440
906.389	4447
906.506	4390
906.623	4371
906.74	4421
906.857	4299
906.974	4402
907.091	4607
907.208	4740
907.324	4641
907.441	4527
907.557	4356
907.674	4360
907.79	4356
907.907	4405
908.023	4527
908.139	4474
908.256	4436
908.372	4504
908.488	4497
908.604	4428
908.72	4348
908.836	4413
908.952	4417
909.068	4405
909.184	4565
909.3	4554
909.415	4569
909.531	4565
909.647	4367
909.762	4421
909.878	4417
909.993	4500
910.108	4443
910.224	4455
910.339	4508
910.454	4402
910.57	4367
910.685	4375
910.8	4675
910.915	4679
911.03	4531
911.145	4344
911.259	4367
911.374	4413
911.489	4337
911.604	4291
911.718	4227
911.833	4238
911.947	4109
912.062	4086
912.176	4207
912.291	4265
912.405	4314
912.519	4451
912.633	4459
912.748	4424
912.862	4363
912.976	4257
913.09	4101
913.204	4192
913.318	4291
913.431	4405
913.545	4386
913.659	4459
913.772	4424
913.886	4242
914	4291
914.113	4432
914.226	4474
914.34	4409
914.453	4261
914.566	4466
914.68	4314
914.793	4348
914.906	4192
915.019	4181
915.132	4051
915.245	4177
915.358	4249
915.47	4303
915.583	4352
915.696	4276
915.809	4409
915.921	4481
916.034	4268
916.146	4287
916.259	4223
916.371	4440
916.483	4398
916.595	4310
916.708	4333
916.82	4325
916.932	4344
917.044	4348
917.156	4409
917.268	4280
917.38	4299
917.491	4291
917.603	4341
917.715	4485
917.826	4497
917.938	4409
918.049	4249
918.161	4398
918.272	4546
918.384	4519
918.495	4478
918.606	4333
918.717	4261
918.828	4356
918.939	4402
919.05	4310
919.161	4348
919.272	4166
919.383	4249
919.494	4451
919.604	4634
919.715	4413
919.826	4394
919.936	4390
920.047	4569
920.157	4512
920.267	4812
920.378	4603
920.488	4497
920.598	4729
920.708	4889
920.818	4759
920.928	4782
921.038	4991
921.148	4923
921.258	4664
921.368	4550
921.477	4512
921.587	4447
921.697	4394
921.806	4546
921.916	4421
922.025	4257
922.134	4325
922.244	4261
922.353	4341
922.462	4162
922.571	4120
922.68	4006
922.789	3987
922.898	4093
923.007	3991
923.116	4124
923.224	4086
923.333	4139
923.442	4025
923.55	4025
923.659	4051
923.767	4135
923.876	4055
923.984	4101
924.092	4013
924.201	4063
924.309	4078
924.417	4131
924.525	4116
924.633	4135
924.741	5090
924.849	3918
924.956	4147
925.064	3987
925.172	3899
925.279	3956
925.387	4029
925.494	4105
925.602	4238
925.709	4219
925.816	4082
925.924	4131
926.031	4219
926.138	4173
926.245	4196
926.352	4082
926.459	4268
926.566	4314
926.673	4196
926.779	4082
926.886	4074
926.993	4017
927.099	3975
927.206	3945
927.312	3960
927.419	4051
927.525	4029
927.631	4101
927.737	3994
927.843	3979
927.95	3865
928.056	4010
928.162	3998
928.267	4040
928.373	4626
928.479	4135
928.585	3949
928.69	4040
928.796	4090
928.901	4021
929.007	3827
929.112	4036
929.218	3972
929.323	3987
929.428	3934
929.533	4158
929.638	3945
929.743	3964
929.848	4067
929.953	3991
930.058	3915
930.163	3781
930.267	3850
930.372	4006
930.477	3831
930.581	4139
930.685	3960
930.79	3854
930.894	3873
930.998	3873
931.103	4067
931.207	3717
931.311	3709
931.415	3713
931.519	3553
931.623	3610
