Data from test_V78500241_2044.txt Node
Date: Fri Mar 25 17:03:12 CST 2022
User: usil
Spectrometer: V785-0024
Trigger mode: 0
Integration Time (sec): 4.000000E-1
Scans to average: 1
Nonlinearity correction enabled: false
Boxcar width: 0
Storing dark spectrum: false
XAxis mode: Wavelengths
Number of Pixels in Spectrum: 1024
>>>>>Begin Spectral Data<<<<<
801.071	8039
801.214	7951
801.356	7837
801.499	7841
801.641	7814
801.783	7772
801.926	7906
802.068	7902
802.211	7917
802.353	7947
802.496	7788
802.638	7868
802.78	7890
802.923	7898
803.065	7978
803.208	7879
803.35	7967
803.492	8050
803.635	8130
803.777	8077
803.919	8092
804.061	8450
804.204	8111
804.346	8039
804.488	7982
804.63	8043
804.773	7951
804.915	8088
805.057	8305
805.199	8130
805.341	8225
805.483	8221
805.626	8180
805.768	8161
805.91	8187
806.052	8210
806.194	8153
806.336	8313
806.478	8058
806.62	8024
806.762	8134
806.904	8263
807.046	8511
807.188	8400
807.33	8301
807.472	8377
807.614	8214
807.756	8168
807.898	8001
808.04	7826
808.182	7936
808.324	7890
808.465	7887
808.607	8039
808.749	8115
808.891	8206
809.033	8298
809.174	8210
809.316	8100
809.458	8088
809.6	7967
809.741	8031
809.883	8069
810.025	8142
810.166	8096
810.308	8096
810.45	7955
810.591	7856
810.733	7696
810.875	7685
811.016	7476
811.158	7464
811.299	7552
811.441	7746
811.582	7674
811.724	7540
811.865	7601
812.007	7601
812.148	7647
812.29	7628
812.431	7727
812.573	7894
812.714	7955
812.855	8050
812.997	8180
813.138	8290
813.279	8077
813.421	8088
813.562	7940
813.703	7868
813.845	7738
813.986	7407
814.127	7270
814.268	7202
814.41	7190
814.551	7194
814.692	7293
814.833	7061
814.974	7118
815.115	7126
815.256	6973
815.397	6894
815.539	6977
815.68	6821
815.821	6741
815.962	6924
816.103	6818
816.244	6719
816.385	6639
816.526	6639
816.666	6464
816.807	6300
816.948	6441
817.089	6467
817.23	6448
817.371	6357
817.512	6403
817.653	6403
817.793	6342
817.934	6384
818.075	6479
818.216	6437
818.356	6418
818.497	6270
818.638	6117
818.778	6175
818.919	6102
819.06	6079
819.2	6357
819.341	6361
819.481	6437
819.622	6502
819.762	6703
819.903	6700
820.043	6563
820.184	6604
820.324	6589
820.465	6692
820.605	6696
820.746	6631
820.886	6555
821.026	6620
821.167	6696
821.307	6745
821.447	6745
821.588	6658
821.728	6555
821.868	6502
822.008	6262
822.149	6323
822.289	6376
822.429	6140
822.569	6114
822.709	6057
822.849	5912
822.99	5874
823.13	5908
823.27	5885
823.41	5817
823.55	5741
823.69	5752
823.83	5737
823.97	5653
824.11	5532
824.25	5471
824.389	5562
824.529	5596
824.669	5493
824.809	5619
824.949	5703
825.089	5627
825.228	5581
825.368	5372
825.508	5364
825.648	5318
825.787	5360
825.927	5376
826.067	5265
826.206	5261
826.346	5341
826.485	5376
826.625	5364
826.765	5509
826.904	5505
827.044	5242
827.183	5178
827.323	5105
827.462	5220
827.601	5159
827.741	5193
827.88	5231
828.02	5075
828.159	5254
828.298	5360
828.437	5368
828.577	5265
828.716	5490
828.855	5292
828.994	5159
829.134	5170
829.273	5212
829.412	5136
829.551	5067
829.69	5212
829.829	5242
829.968	5387
830.107	5284
830.246	5269
830.385	5155
830.524	5132
830.663	5025
830.802	4953
830.941	4896
831.08	4854
831.219	4953
831.357	4961
831.496	5140
831.635	4889
831.774	4866
831.913	4835
832.051	4725
832.19	4755
832.329	4862
832.467	4653
832.606	4641
832.744	4725
832.883	4714
833.022	4675
833.16	4782
833.299	4881
833.437	4793
833.576	4801
833.714	4866
833.852	4885
833.991	4908
834.129	4949
834.267	4896
834.406	4927
834.544	4938
834.682	4927
834.821	4938
834.959	5143
835.097	5029
835.235	5094
835.373	5079
835.511	5071
835.65	5079
835.788	5014
835.926	4881
836.064	4858
836.202	4839
836.34	5181
836.478	5250
836.615	5128
836.753	5201
836.891	5341
837.029	5261
837.167	5189
837.305	5170
837.443	5128
837.58	5048
837.718	5250
837.856	5223
837.993	5140
838.131	5204
838.269	5246
838.406	5193
838.544	5208
838.681	5041
838.819	4942
838.956	4847
839.094	4934
839.231	4942
839.369	5098
839.506	5444
839.643	5296
839.781	5060
839.918	5010
840.055	5064
840.193	5056
840.33	5105
840.467	5117
840.604	5227
840.742	5410
840.879	5090
841.016	5090
841.153	5132
841.29	5357
841.427	5299
841.564	5284
841.701	5334
841.838	5280
841.975	5231
842.112	5292
842.249	5105
842.385	5162
842.522	5280
842.659	5170
842.796	5185
842.933	5170
843.069	5143
843.206	5193
843.343	5269
843.479	5242
843.616	5277
843.752	5018
843.889	5033
844.025	5231
844.162	5025
844.298	5204
844.435	5094
844.571	5033
844.708	5162
844.844	5311
844.98	5315
845.117	5284
845.253	5121
845.389	5075
845.525	5151
845.661	5140
845.798	5079
845.934	5136
846.07	5041
846.206	5174
846.342	5273
846.478	5216
846.614	4980
846.75	4965
846.886	4938
847.022	5159
847.158	4972
847.294	5045
847.429	5056
847.565	5067
847.701	5296
847.837	4877
847.972	4801
848.108	4938
848.244	4949
848.379	4752
848.515	4736
848.65	4717
848.786	4793
848.921	4771
849.057	4790
849.192	4908
849.328	4763
849.463	4843
849.598	4870
849.734	4752
849.869	4729
850.004	4649
850.14	4626
850.275	4630
850.41	4500
850.545	4569
850.68	4622
850.815	4596
850.95	4653
851.085	4816
851.22	4740
851.355	4687
851.49	4596
851.625	4615
851.76	4649
851.895	4588
852.03	4573
852.165	4668
852.299	4736
852.434	4797
852.569	4725
852.703	4790
852.838	4850
852.973	4953
853.107	4885
853.242	4687
853.376	4626
853.511	4542
853.645	4637
853.78	4793
853.914	4694
854.048	4615
854.183	4622
854.317	4683
854.451	4850
854.585	4626
854.72	4569
854.854	4786
854.988	4615
855.122	4611
855.256	4531
855.39	4656
855.524	4778
855.658	4679
855.792	4706
855.926	4748
856.06	4763
856.194	4843
856.327	4679
856.461	4637
856.595	4630
856.729	4603
856.862	4710
856.996	4672
857.13	4691
857.263	4786
857.397	4824
857.53	4664
857.664	4725
857.797	4702
857.931	4752
858.064	4694
858.197	4691
858.331	4660
858.464	4569
858.597	4489
858.731	4607
858.864	4622
858.997	4569
859.13	4611
859.263	4649
859.396	4694
859.529	4588
859.662	4523
859.795	4516
859.928	4626
860.061	4744
860.194	4744
860.327	4618
860.46	4580
860.592	4729
860.725	4721
860.858	4714
860.99	4596
861.123	4546
861.256	4550
861.388	4577
861.521	5296
861.653	4432
861.786	4451
861.918	4451
862.05	4535
862.183	4527
862.315	4569
862.447	4630
862.58	4500
862.712	4424
862.844	4318
862.976	4466
863.108	4504
863.24	4782
863.372	4337
863.504	4390
863.636	4443
863.768	4459
863.9	4417
864.032	4386
864.164	4386
864.296	4508
864.428	4512
864.559	4561
864.691	4519
864.823	4550
864.954	4478
865.086	4516
865.217	4443
865.349	4409
865.48	4478
865.612	4455
865.743	4649
865.875	4443
866.006	4421
866.137	4481
866.269	4470
866.4	4424
866.531	4424
866.662	4386
866.793	4402
866.924	4413
867.055	4474
867.186	4443
867.317	4436
867.448	4409
867.579	4436
867.71	4413
867.841	4421
867.972	4459
868.103	4485
868.233	4424
868.364	4417
868.495	4470
868.625	4675
868.756	4752
868.886	4546
869.017	4584
869.147	4790
869.278	4786
869.408	4698
869.539	4675
869.669	4679
869.799	4694
869.929	4778
870.06	4733
870.19	4908
870.32	4949
870.45	4949
870.58	4976
870.71	5022
870.84	5105
870.97	4908
871.1	4896
871.23	5140
871.36	5113
871.489	4984
871.619	5048
871.749	5029
871.879	5109
872.008	5143
872.138	5033
872.267	4968
872.397	4873
872.526	4801
872.656	4729
872.785	4805
872.915	4904
873.044	5033
873.173	4927
873.303	4915
873.432	4915
873.561	4991
873.69	4816
873.819	4881
873.948	4877
874.077	4786
874.206	4767
874.335	4816
874.464	4904
874.593	5041
874.722	4984
874.851	5102
874.979	5090
875.108	5003
875.237	4896
875.365	4877
875.494	4911
875.623	4991
875.751	4831
875.88	4847
876.008	4999
876.136	5083
876.265	5178
876.393	5311
876.521	5269
876.65	5231
876.778	5143
876.906	5060
877.034	4980
877.162	5064
877.29	4968
877.418	5090
877.546	5025
877.674	5109
877.802	5003
877.93	5018
878.058	4919
878.185	4816
878.313	4934
878.441	4896
878.568	4774
878.696	4873
878.824	4896
878.951	4953
879.079	5109
879.206	5220
879.333	5098
879.461	5022
879.588	5018
879.715	5143
879.842	5223
879.97	4949
880.097	4797
880.224	4706
880.351	4790
880.478	4782
880.605	4759
880.732	4759
880.859	5086
880.986	4900
881.112	4938
881.239	4782
881.366	4702
881.493	4615
881.619	4588
881.746	4660
881.872	4649
881.999	4641
882.125	4683
882.252	4778
882.378	4793
882.505	4953
882.631	4809
882.757	4675
882.883	4763
883.01	4733
883.136	4630
883.262	4550
883.388	4622
883.514	4736
883.64	4824
883.766	4778
883.892	4664
884.018	4721
884.143	4839
884.269	4972
884.395	4630
884.52	4607
884.646	4622
884.772	4573
884.897	4527
885.023	4664
885.148	4774
885.274	4850
885.399	4809
885.524	4683
885.65	4694
885.775	4721
885.9	4710
886.025	4843
886.15	4843
886.275	4717
886.4	4668
886.525	4729
886.65	4733
886.775	4694
886.9	4927
887.025	5010
887.149	4847
887.274	4653
887.399	4542
887.523	4569
887.648	4573
887.773	4641
887.897	4763
888.021	4759
888.146	4679
888.27	4809
888.395	4885
888.519	4809
888.643	4809
888.767	4797
888.891	4675
889.015	4565
889.139	4634
889.263	4580
889.387	4721
889.511	4820
889.635	4774
889.759	4618
889.883	4687
890.006	4733
890.13	4824
890.254	4615
890.377	4714
890.501	4527
890.624	4485
890.748	4558
890.871	4500
890.995	4436
891.118	4352
891.241	4527
891.364	4504
891.488	4615
891.611	4558
891.734	4504
891.857	4611
891.98	4531
892.103	4634
892.226	4622
892.349	4538
892.471	4432
892.594	4565
892.717	4603
892.839	4561
892.962	4573
893.085	4641
893.207	4580
893.33	4421
893.452	4569
893.575	4694
893.697	4558
893.819	4812
893.941	4801
894.064	4774
894.186	4542
894.308	4569
894.43	4698
894.552	4763
894.674	4767
894.796	4535
894.918	4634
895.04	4558
895.161	4679
895.283	4664
895.405	4569
895.526	4622
895.648	4694
895.769	4691
895.891	4755
896.012	4733
896.134	4698
896.255	4675
896.376	4565
896.498	4641
896.619	4607
896.74	4580
896.861	4645
896.982	4919
897.103	5025
897.224	4816
897.345	4733
897.466	4649
897.587	4755
897.708	4873
897.828	4759
897.949	4702
898.07	4554
898.19	4622
898.311	4820
898.431	4691
898.552	4698
898.672	4831
898.792	4809
898.913	4733
899.033	4599
899.153	4512
899.273	4402
899.393	4527
899.513	4512
899.633	4516
899.753	4538
899.873	4497
899.993	4596
900.113	4512
900.232	4577
900.352	4538
900.472	4481
900.591	4371
900.711	4455
900.83	4424
900.95	4630
901.069	4664
901.189	4535
901.308	4344
901.427	4322
901.546	4325
901.665	4421
901.784	4546
901.904	4379
902.023	4322
902.141	4166
902.26	4188
902.379	4329
902.498	4257
902.617	4234
902.735	4363
902.854	4383
902.973	4356
903.091	4249
903.21	4223
903.328	4284
903.446	4295
903.565	4253
903.683	4352
903.801	4299
903.919	4421
904.038	4485
904.156	4325
904.274	4402
904.392	4455
904.51	4398
904.627	4432
904.745	4577
904.863	4626
904.981	4402
905.098	4306
905.216	4356
905.334	4394
905.451	4432
905.569	4428
905.686	4519
905.803	4531
905.921	4417
906.038	4561
906.155	4470
906.272	4375
906.389	4394
906.506	4310
906.623	4379
906.74	4402
906.857	4299
906.974	4375
907.091	4554
907.208	4672
907.324	4584
907.441	4466
907.557	4291
907.674	4379
907.79	4344
907.907	4375
908.023	4516
908.139	4493
908.256	4428
908.372	4436
908.488	4466
908.604	4375
908.72	4344
908.836	4390
908.952	4394
909.068	4428
909.184	4565
909.3	4455
909.415	4580
909.531	4565
909.647	4383
909.762	4379
909.878	4325
909.993	4443
910.108	4390
910.224	4375
910.339	4459
910.454	4398
910.57	4341
910.685	4329
910.8	4668
910.915	4607
911.03	4527
911.145	4318
911.259	4348
911.374	4398
911.489	4280
911.604	4310
911.718	4135
911.833	4181
911.947	4067
912.062	4002
912.176	4173
912.291	4238
912.405	4227
912.519	4497
912.633	4577
912.748	4360
912.862	4291
912.976	4223
913.09	4124
913.204	4169
913.318	4280
913.431	4341
913.545	4371
913.659	4481
913.772	4333
913.886	4299
914	4215
914.113	4367
914.226	4443
914.34	4386
914.453	4249
914.566	4466
914.68	4352
914.793	4276
914.906	4158
915.019	4093
915.132	4071
915.245	4200
915.358	4230
915.47	4253
915.583	4261
915.696	4230
915.809	4405
915.921	4485
916.034	4272
916.146	4223
916.259	4227
916.371	4383
916.483	4322
916.595	4253
916.708	4363
916.82	4291
916.932	4303
917.044	4322
917.156	4333
917.268	4246
917.38	4272
917.491	4280
917.603	4348
917.715	4462
917.826	4466
917.938	4318
918.049	4280
918.161	4398
918.272	4527
918.384	4554
918.495	4470
918.606	4299
918.717	4215
918.828	4333
918.939	4360
919.05	4238
919.161	4306
919.272	4093
919.383	4242
919.494	4440
919.604	4607
919.715	4432
919.826	4322
919.936	4409
920.047	4481
920.157	4489
920.267	4660
920.378	4569
920.488	4497
920.598	4672
920.708	4892
920.818	4771
920.928	4771
921.038	4961
921.148	4946
921.258	4687
921.368	4497
921.477	4478
921.587	4470
921.697	4337
921.806	4519
921.916	4470
922.025	4322
922.134	4219
922.244	4242
922.353	4322
922.462	4135
922.571	4055
922.68	3979
922.789	4002
922.898	4078
923.007	3983
923.116	4101
923.224	4063
923.333	4063
923.442	4036
923.55	3991
923.659	4029
923.767	4124
923.876	4013
923.984	4109
924.092	3968
924.201	4063
924.309	4112
924.417	4071
924.525	4051
924.633	4116
924.741	5083
924.849	3865
924.956	4124
925.064	3937
925.172	3918
925.279	3987
925.387	4017
925.494	4074
925.602	4219
925.709	4215
925.816	4029
925.924	4124
926.031	4196
926.138	4192
926.245	4181
926.352	4048
926.459	4253
926.566	4303
926.673	4158
926.779	4120
926.886	4090
926.993	3972
927.099	3911
927.206	3956
927.312	3945
927.419	4040
927.525	3979
927.631	4097
927.737	3968
927.843	3949
927.95	3831
928.056	3968
928.162	3991
928.267	4063
928.373	4558
928.479	4109
928.585	3888
928.69	4051
928.796	4082
928.901	3975
929.007	3850
929.112	4006
929.218	4010
929.323	3949
929.428	3960
929.533	4082
929.638	3949
929.743	3922
929.848	4048
929.953	4013
930.058	3926
930.163	3800
930.267	3819
930.372	3998
930.477	3819
930.581	4067
930.685	3972
930.79	3819
930.894	3903
930.998	3861
931.103	4067
931.207	3762
931.311	3705
931.415	3667
931.519	3523
931.623	3545
