Data from test_V78500241_348.txt Node
Date: Fri Mar 25 16:51:25 CST 2022
User: usil
Spectrometer: V785-0024
Trigger mode: 0
Integration Time (sec): 4.000000E-1
Scans to average: 1
Nonlinearity correction enabled: false
Boxcar width: 0
Storing dark spectrum: false
XAxis mode: Wavelengths
Number of Pixels in Spectrum: 1024
>>>>>Begin Spectral Data<<<<<
801.071	8077
801.214	8024
801.356	7963
801.499	7883
801.641	7803
801.783	7830
801.926	7940
802.068	7982
802.211	7947
802.353	8020
802.496	7864
802.638	7913
802.78	7978
802.923	7963
803.065	7887
803.208	7917
803.35	8027
803.492	8081
803.635	8126
803.777	7978
803.919	8191
804.061	8484
804.204	8187
804.346	8065
804.488	8001
804.63	8084
804.773	7986
804.915	8081
805.057	8286
805.199	8138
805.341	8229
805.483	8259
805.626	8199
805.768	8065
805.91	8142
806.052	8199
806.194	8161
806.336	8362
806.478	8172
806.62	8145
806.762	8218
806.904	8400
807.046	8480
807.188	8465
807.33	8301
807.472	8332
807.614	8161
807.756	8176
807.898	8081
808.04	7928
808.182	7993
808.324	7982
808.465	7997
808.607	8119
808.749	8111
808.891	8282
809.033	8355
809.174	8214
809.316	8126
809.458	8088
809.6	8043
809.741	8092
809.883	7997
810.025	8081
810.166	8126
810.308	8153
810.45	8069
810.591	7989
810.733	7765
810.875	7689
811.016	7571
811.158	7563
811.299	7677
811.441	7871
811.582	7822
811.724	7677
811.865	7681
812.007	7719
812.148	7636
812.29	7670
812.431	7784
812.573	7963
812.714	8103
812.855	8180
812.997	8221
813.138	8355
813.279	8221
813.421	8199
813.562	8126
813.703	7890
813.845	7814
813.986	7582
814.127	7308
814.268	7316
814.41	7247
814.551	7244
814.692	7225
814.833	7088
814.974	7156
815.115	7103
815.256	6962
815.397	6962
815.539	7038
815.68	6932
815.821	6878
815.962	6867
816.103	6935
816.244	6806
816.385	6722
816.526	6696
816.666	6635
816.807	6399
816.948	6544
817.089	6506
817.23	6513
817.371	6464
817.512	6437
817.653	6437
817.793	6418
817.934	6403
818.075	6494
818.216	6475
818.356	6422
818.497	6289
818.638	6114
818.778	6205
818.919	6144
819.06	6167
819.2	6361
819.341	6410
819.481	6407
819.622	6574
819.762	6776
819.903	6734
820.043	6654
820.184	6585
820.324	6597
820.465	6658
820.605	6639
820.746	6631
820.886	6559
821.026	6703
821.167	6753
821.307	6764
821.447	6779
821.588	6673
821.728	6650
821.868	6536
822.008	6418
822.149	6429
822.289	6452
822.429	6194
822.569	6117
822.709	6175
822.849	5999
822.99	5958
823.13	5897
823.27	5923
823.41	5870
823.55	5817
823.69	5783
823.83	5817
823.97	5707
824.11	5581
824.25	5589
824.389	5604
824.529	5638
824.669	5543
824.809	5665
824.949	5691
825.089	5646
825.228	5570
825.368	5433
825.508	5379
825.648	5357
825.787	5376
825.927	5444
826.067	5341
826.206	5322
826.346	5444
826.485	5455
826.625	5417
826.765	5535
826.904	5528
827.044	5277
827.183	5246
827.323	5185
827.462	5280
827.601	5231
827.741	5143
827.88	5280
828.02	5140
828.159	5250
828.298	5337
828.437	5387
828.577	5311
828.716	5532
828.855	5372
828.994	5201
829.134	5185
829.273	5246
829.412	5193
829.551	5170
829.69	5170
829.829	5292
829.968	5421
830.107	5322
830.246	5345
830.385	5288
830.524	5162
830.663	5136
830.802	5037
830.941	4991
831.08	4927
831.219	5029
831.357	5010
831.496	5166
831.635	4991
831.774	4904
831.913	4870
832.051	4752
832.19	4771
832.329	4889
832.467	4763
832.606	4672
832.744	4744
832.883	4759
833.022	4774
833.16	4839
833.299	4824
833.437	4839
833.576	4881
833.714	4911
833.852	4881
833.991	4915
834.129	4987
834.267	4987
834.406	4995
834.544	5010
834.682	4987
834.821	4976
834.959	5242
835.097	5006
835.235	5166
835.373	5083
835.511	5170
835.65	5029
835.788	5006
835.926	4896
836.064	4896
836.202	4957
836.34	5136
836.478	5299
836.615	5185
836.753	5258
836.891	5341
837.029	5318
837.167	5170
837.305	5201
837.443	5189
837.58	5140
837.718	5318
837.856	5216
837.993	5174
838.131	5280
838.269	5292
838.406	5216
838.544	5227
838.681	5140
838.819	5109
838.956	4942
839.094	4980
839.231	5052
839.369	5128
839.506	5501
839.643	5318
839.781	5121
839.918	5010
840.055	5151
840.193	5143
840.33	5083
840.467	5147
840.604	5181
840.742	5486
840.879	5151
841.016	5117
841.153	5162
841.29	5436
841.427	5330
841.564	5357
841.701	5414
841.838	5296
841.975	5269
842.112	5273
842.249	5181
842.385	5136
842.522	5395
842.659	5212
842.796	5162
842.933	5242
843.069	5124
843.206	5197
843.343	5341
843.479	5242
843.616	5318
843.752	5083
843.889	5083
844.025	5242
844.162	4987
844.298	5284
844.435	5155
844.571	5102
844.708	5265
844.844	5337
844.98	5376
845.117	5334
845.253	5170
845.389	5151
845.525	5204
845.661	5117
845.798	5083
845.934	5166
846.07	5071
846.206	5269
846.342	5353
846.478	5223
846.614	5052
846.75	5045
846.886	4976
847.022	5170
847.158	5045
847.294	5090
847.429	5113
847.565	5071
847.701	5326
847.837	4885
847.972	4831
848.108	4980
848.244	4972
848.379	4831
848.515	4786
848.65	4801
848.786	4786
848.921	4816
849.057	4896
849.192	4946
849.328	4889
849.463	4854
849.598	4850
849.734	4793
849.869	4744
850.004	4603
850.14	4698
850.275	4645
850.41	4565
850.545	4596
850.68	4626
850.815	4721
850.95	4687
851.085	4828
851.22	4805
851.355	4622
851.49	4634
851.625	4641
851.76	4660
851.895	4584
852.03	4531
852.165	4672
852.299	4767
852.434	4812
852.569	4797
852.703	4793
852.838	4850
852.973	4965
853.107	5006
853.242	4782
853.376	4656
853.511	4531
853.645	4656
853.78	4881
853.914	4687
854.048	4660
854.183	4622
854.317	4691
854.451	4847
854.585	4733
854.72	4672
854.854	4755
854.988	4630
855.122	4645
855.256	4535
855.39	4698
855.524	4778
855.658	4763
855.792	4740
855.926	4755
856.06	4801
856.194	4850
856.327	4675
856.461	4634
856.595	4622
856.729	4641
856.862	4793
856.996	4725
857.13	4763
857.263	4759
857.397	4881
857.53	4653
857.664	4683
857.797	4805
857.931	4782
858.064	4683
858.197	4763
858.331	4649
858.464	4641
858.597	4573
858.731	4683
858.864	4668
858.997	4584
859.13	4660
859.263	4672
859.396	4721
859.529	4618
859.662	4607
859.795	4538
859.928	4660
860.061	4793
860.194	4809
860.327	4653
860.46	4599
860.592	4733
860.725	4752
860.858	4778
860.99	4580
861.123	4523
861.256	4554
861.388	4599
861.521	5345
861.653	4504
861.786	4485
861.918	4500
862.05	4550
862.183	4630
862.315	4641
862.447	4679
862.58	4565
862.712	4424
862.844	4371
862.976	4519
863.108	4500
863.24	4786
863.372	4371
863.504	4478
863.636	4432
863.768	4474
863.9	4466
864.032	4394
864.164	4436
864.296	4497
864.428	4531
864.559	4573
864.691	4569
864.823	4573
864.954	4531
865.086	4504
865.217	4508
865.349	4481
865.48	4497
865.612	4516
865.743	4668
865.875	4519
866.006	4424
866.137	4504
866.269	4500
866.4	4485
866.531	4432
866.662	4432
866.793	4447
866.924	4459
867.055	4535
867.186	4493
867.317	4474
867.448	4383
867.579	4413
867.71	4402
867.841	4413
867.972	4462
868.103	4474
868.233	4474
868.364	4436
868.495	4519
868.625	4664
868.756	4790
868.886	4531
869.017	4626
869.147	4748
869.278	4752
869.408	4653
869.539	4641
869.669	4721
869.799	4672
869.929	4816
870.06	4759
870.19	4949
870.32	4938
870.45	4984
870.58	5014
870.71	5090
870.84	5071
870.97	4972
871.1	4892
871.23	5151
871.36	5128
871.489	5048
871.619	5067
871.749	5105
871.879	5143
872.008	5162
872.138	5052
872.267	5037
872.397	4870
872.526	4812
872.656	4721
872.785	4831
872.915	4904
873.044	5079
873.173	4957
873.303	5014
873.432	4957
873.561	4976
873.69	4904
873.819	4862
873.948	4927
874.077	4847
874.206	4721
874.335	4828
874.464	4968
874.593	5105
874.722	4942
874.851	5140
874.979	5102
875.108	5083
875.237	4946
875.365	4862
875.494	4885
875.623	4949
875.751	4850
875.88	4953
876.008	4957
876.136	5029
876.265	5227
876.393	5353
876.521	5307
876.65	5250
876.778	5189
876.906	5071
877.034	5029
877.162	5086
877.29	4968
877.418	5048
877.546	5052
877.674	5060
877.802	5018
877.93	5071
878.058	4953
878.185	4854
878.313	4961
878.441	4946
878.568	4809
878.696	4892
878.824	4957
878.951	4976
879.079	5128
879.206	5299
879.333	5151
879.461	5010
879.588	5075
879.715	5159
879.842	5326
879.97	5041
880.097	4801
880.224	4755
880.351	4835
880.478	4805
880.605	4812
880.732	4854
880.859	5071
880.986	4930
881.112	4965
881.239	4797
881.366	4706
881.493	4679
881.619	4580
881.746	4687
881.872	4664
881.999	4626
882.125	4706
882.252	4771
882.378	4820
882.505	4976
882.631	4862
882.757	4672
882.883	4759
883.01	4767
883.136	4679
883.262	4634
883.388	4687
883.514	4850
883.64	4885
883.766	4782
883.892	4675
884.018	4729
884.143	4904
884.269	5033
884.395	4721
884.52	4611
884.646	4687
884.772	4561
884.897	4592
885.023	4714
885.148	4755
885.274	4870
885.399	4809
885.524	4729
885.65	4721
885.775	4752
885.9	4702
886.025	4889
886.15	4774
886.275	4733
886.4	4634
886.525	4736
886.65	4691
886.775	4721
886.9	4915
887.025	5052
887.149	4835
887.274	4634
887.399	4611
887.523	4618
887.648	4580
887.773	4558
887.897	4763
888.021	4812
888.146	4714
888.27	4862
888.395	4930
888.519	4828
888.643	4801
888.767	4862
888.891	4710
889.015	4698
889.139	4672
889.263	4607
889.387	4790
889.511	4862
889.635	4812
889.759	4668
889.883	4664
890.006	4778
890.13	4847
890.254	4634
890.377	4664
890.501	4538
890.624	4516
890.748	4660
890.871	4561
890.995	4424
891.118	4436
891.241	4550
891.364	4584
891.488	4637
891.611	4474
891.734	4523
891.857	4584
891.98	4577
892.103	4687
892.226	4599
892.349	4459
892.471	4436
892.594	4519
892.717	4569
892.839	4577
892.962	4618
893.085	4660
893.207	4615
893.33	4455
893.452	4523
893.575	4664
893.697	4584
893.819	4767
893.941	4858
894.064	4771
894.186	4561
894.308	4577
894.43	4759
894.552	4835
894.674	4793
894.796	4565
894.918	4580
895.04	4558
895.161	4668
895.283	4710
895.405	4588
895.526	4683
895.648	4660
895.769	4706
895.891	4767
896.012	4778
896.134	4767
896.255	4702
896.376	4618
896.498	4641
896.619	4649
896.74	4641
896.861	4664
896.982	4927
897.103	5067
897.224	4824
897.345	4725
897.466	4668
897.587	4778
897.708	4862
897.828	4771
897.949	4660
898.07	4611
898.19	4584
898.311	4847
898.431	4672
898.552	4752
898.672	4854
898.792	4782
898.913	4752
899.033	4618
899.153	4531
899.273	4451
899.393	4504
899.513	4542
899.633	4535
899.753	4512
899.873	4558
899.993	4573
900.113	4558
900.232	4588
900.352	4577
900.472	4493
900.591	4386
900.711	4493
900.83	4417
900.95	4626
901.069	4672
901.189	4481
901.308	4398
901.427	4310
901.546	4390
901.665	4478
901.784	4531
901.904	4405
902.023	4268
902.141	4196
902.26	4181
902.379	4287
902.498	4291
902.617	4246
902.735	4379
902.854	4428
902.973	4352
903.091	4192
903.21	4219
903.328	4287
903.446	4310
903.565	4257
903.683	4375
903.801	4291
903.919	4443
904.038	4417
904.156	4322
904.274	4470
904.392	4386
904.51	4417
904.627	4481
904.745	4622
904.863	4645
904.981	4390
905.098	4333
905.216	4352
905.334	4386
905.451	4481
905.569	4489
905.686	4565
905.803	4592
905.921	4417
906.038	4523
906.155	4481
906.272	4371
906.389	4497
906.506	4344
906.623	4341
906.74	4386
906.857	4352
906.974	4352
907.091	4599
907.208	4675
907.324	4573
907.441	4432
907.557	4375
907.674	4344
907.79	4295
907.907	4375
908.023	4443
908.139	4493
908.256	4398
908.372	4436
908.488	4478
908.604	4337
908.72	4310
908.836	4341
908.952	4394
909.068	4440
909.184	4607
909.3	4508
909.415	4599
909.531	4497
909.647	4348
909.762	4375
909.878	4341
909.993	4409
910.108	4421
910.224	4440
910.339	4462
910.454	4436
910.57	4360
910.685	4325
910.8	4672
910.915	4611
911.03	4478
911.145	4341
911.259	4344
911.374	4402
911.489	4341
911.604	4325
911.718	4173
911.833	4246
911.947	4082
912.062	4021
912.176	4211
912.291	4234
912.405	4276
912.519	4493
912.633	4493
912.748	4394
912.862	4314
912.976	4204
913.09	4124
913.204	4230
913.318	4265
913.431	4348
913.545	4360
913.659	4455
913.772	4379
913.886	4246
914	4249
914.113	4375
914.226	4500
914.34	4383
914.453	4268
914.566	4413
914.68	4356
914.793	4322
914.906	4128
915.019	4147
915.132	4097
915.245	4204
915.358	4207
915.47	4291
915.583	4249
915.696	4291
915.809	4440
915.921	4421
916.034	4306
916.146	4249
916.259	4242
916.371	4402
916.483	4333
916.595	4253
916.708	4310
916.82	4367
916.932	4318
917.044	4329
917.156	4371
917.268	4268
917.38	4272
917.491	4287
917.603	4295
917.715	4443
917.826	4440
917.938	4329
918.049	4261
918.161	4383
918.272	4588
918.384	4542
918.495	4470
918.606	4291
918.717	4276
918.828	4318
918.939	4386
919.05	4265
919.161	4314
919.272	4131
919.383	4257
919.494	4485
919.604	4603
919.715	4497
919.826	4363
919.936	4398
920.047	4558
920.157	4504
920.267	4679
920.378	4550
920.488	4535
920.598	4672
920.708	4839
920.818	4759
920.928	4759
921.038	4980
921.148	4923
921.258	4675
921.368	4550
921.477	4493
921.587	4451
921.697	4394
921.806	4531
921.916	4459
922.025	4238
922.134	4295
922.244	4249
922.353	4287
922.462	4196
922.571	4185
922.68	4044
922.789	3975
922.898	4067
923.007	3991
923.116	4105
923.224	4101
923.333	4063
923.442	3979
923.55	3998
923.659	4021
923.767	4105
923.876	4025
923.984	4135
924.092	3991
924.201	4093
924.309	4097
924.417	4135
924.525	4029
924.633	4109
924.741	4854
924.849	3983
924.956	4135
925.064	3968
925.172	3907
925.279	4021
925.387	4078
925.494	4071
925.602	4200
925.709	4223
925.816	4044
925.924	4166
926.031	4230
926.138	4188
926.245	4204
926.352	4078
926.459	4276
926.566	4310
926.673	4177
926.779	4139
926.886	4082
926.993	3949
927.099	3975
927.206	3922
927.312	3922
927.419	4051
927.525	4013
927.631	4124
927.737	3979
927.843	3968
927.95	3857
928.056	3975
928.162	4013
928.267	4040
928.373	4721
928.479	4078
928.585	3903
928.69	4074
928.796	4105
928.901	3968
929.007	3865
929.112	4010
929.218	3960
929.323	3899
929.428	3968
929.533	4097
929.638	3930
929.743	3972
929.848	4025
929.953	4013
930.058	3926
930.163	3797
930.267	3808
930.372	3975
930.477	3831
930.581	4090
930.685	3937
930.79	3827
930.894	3880
930.998	3899
931.103	4013
931.207	3690
931.311	3675
931.415	3641
931.519	3595
931.623	3580
