Data from test_V78500241_91.txt Node
Date: Fri Mar 25 16:49:38 CST 2022
User: usil
Spectrometer: V785-0024
Trigger mode: 0
Integration Time (sec): 4.000000E-1
Scans to average: 1
Nonlinearity correction enabled: false
Boxcar width: 0
Storing dark spectrum: false
XAxis mode: Wavelengths
Number of Pixels in Spectrum: 1024
>>>>>Begin Spectral Data<<<<<
801.071	8073
801.214	8024
801.356	7963
801.499	7856
801.641	7852
801.783	7917
801.926	8100
802.068	8027
802.211	8107
802.353	8088
802.496	7963
802.638	7963
802.78	7970
802.923	7967
803.065	7944
803.208	7894
803.35	8016
803.492	8062
803.635	8183
803.777	7959
803.919	8172
804.061	8374
804.204	8210
804.346	8065
804.488	7928
804.63	8012
804.773	8073
804.915	8039
805.057	8279
805.199	8145
805.341	8199
805.483	8328
805.626	8221
805.768	8153
805.91	8126
806.052	8218
806.194	8100
806.336	8358
806.478	8176
806.62	8161
806.762	8225
806.904	8221
807.046	8431
807.188	8389
807.33	8408
807.472	8396
807.614	8210
807.756	8195
807.898	8077
808.04	7947
808.182	7883
808.324	7993
808.465	7944
808.607	7978
808.749	8134
808.891	8240
809.033	8351
809.174	8237
809.316	8065
809.458	8012
809.6	8062
809.741	8092
809.883	8084
810.025	8153
810.166	8077
810.308	8092
810.45	7989
810.591	7906
810.733	7803
810.875	7704
811.016	7495
811.158	7556
811.299	7571
811.441	7780
811.582	7792
811.724	7616
811.865	7636
812.007	7708
812.148	7704
812.29	7696
812.431	7849
812.573	7890
812.714	8153
812.855	8168
812.997	8309
813.138	8370
813.279	8183
813.421	8134
813.562	8054
813.703	7940
813.845	7788
813.986	7499
814.127	7297
814.268	7255
814.41	7263
814.551	7206
814.692	7335
814.833	7110
814.974	7156
815.115	7198
815.256	7042
815.397	6966
815.539	7008
815.68	6878
815.821	6844
815.962	6966
816.103	6840
816.244	6738
816.385	6639
816.526	6662
816.666	6506
816.807	6353
816.948	6471
817.089	6498
817.23	6471
817.371	6395
817.512	6410
817.653	6414
817.793	6388
817.934	6460
818.075	6528
818.216	6483
818.356	6475
818.497	6281
818.638	6178
818.778	6243
818.919	6178
819.06	6239
819.2	6304
819.341	6361
819.481	6426
819.622	6570
819.762	6821
819.903	6719
820.043	6665
820.184	6627
820.324	6620
820.465	6779
820.605	6753
820.746	6696
820.886	6597
821.026	6688
821.167	6700
821.307	6856
821.447	6818
821.588	6662
821.728	6650
821.868	6597
822.008	6350
822.149	6403
822.289	6361
822.429	6171
822.569	6102
822.709	6159
822.849	5885
822.99	5946
823.13	5961
823.27	5958
823.41	5821
823.55	5805
823.69	5798
823.83	5779
823.97	5726
824.11	5642
824.25	5516
824.389	5554
824.529	5573
824.669	5566
824.809	5680
824.949	5737
825.089	5703
825.228	5577
825.368	5459
825.508	5376
825.648	5402
825.787	5368
825.927	5417
826.067	5357
826.206	5326
826.346	5467
826.485	5455
826.625	5444
826.765	5566
826.904	5459
827.044	5269
827.183	5242
827.323	5181
827.462	5292
827.601	5216
827.741	5254
827.88	5254
828.02	5166
828.159	5307
828.298	5345
828.437	5421
828.577	5341
828.716	5516
828.855	5353
828.994	5201
829.134	5189
829.273	5231
829.412	5223
829.551	5193
829.69	5220
829.829	5261
829.968	5474
830.107	5303
830.246	5299
830.385	5235
830.524	5174
830.663	5117
830.802	5037
830.941	4965
831.08	4873
831.219	5029
831.357	4999
831.496	5178
831.635	4885
831.774	4889
831.913	4847
832.051	4729
832.19	4782
832.329	4866
832.467	4710
832.606	4717
832.744	4710
832.883	4767
833.022	4820
833.16	4801
833.299	4866
833.437	4847
833.576	4904
833.714	4930
833.852	4904
833.991	4934
834.129	5018
834.267	5033
834.406	4965
834.544	5056
834.682	5025
834.821	5037
834.959	5197
835.097	5003
835.235	5201
835.373	5094
835.511	5124
835.65	5010
835.788	5079
835.926	4968
836.064	4953
836.202	4987
836.34	5231
836.478	5269
836.615	5208
836.753	5208
836.891	5372
837.029	5296
837.167	5220
837.305	5178
837.443	5223
837.58	5155
837.718	5277
837.856	5231
837.993	5143
838.131	5254
838.269	5250
838.406	5220
838.544	5231
838.681	5109
838.819	5075
838.956	4949
839.094	4968
839.231	5022
839.369	5102
839.506	5463
839.643	5353
839.781	5064
839.918	5079
840.055	5166
840.193	5128
840.33	5113
840.467	5189
840.604	5208
840.742	5440
840.879	5121
841.016	5140
841.153	5178
841.29	5410
841.427	5387
841.564	5337
841.701	5383
841.838	5303
841.975	5284
842.112	5288
842.249	5174
842.385	5174
842.522	5330
842.659	5231
842.796	5201
842.933	5174
843.069	5201
843.206	5189
843.343	5299
843.479	5265
843.616	5322
843.752	5098
843.889	4995
844.025	5212
844.162	5029
844.298	5193
844.435	5117
844.571	5056
844.708	5239
844.844	5334
844.98	5406
845.117	5315
845.253	5143
845.389	5102
845.525	5201
845.661	5189
845.798	5060
845.934	5136
846.07	5117
846.206	5212
846.342	5307
846.478	5201
846.614	5056
846.75	5018
846.886	4953
847.022	5223
847.158	5067
847.294	5098
847.429	5170
847.565	5121
847.701	5360
847.837	4946
847.972	4850
848.108	4972
848.244	5010
848.379	4858
848.515	4736
848.65	4782
848.786	4816
848.921	4805
849.057	4900
849.192	4938
849.328	4885
849.463	4877
849.598	4809
849.734	4748
849.869	4771
850.004	4679
850.14	4679
850.275	4599
850.41	4554
850.545	4607
850.68	4599
850.815	4664
850.95	4626
851.085	4923
851.22	4778
851.355	4698
851.49	4645
851.625	4653
851.76	4672
851.895	4603
852.03	4580
852.165	4679
852.299	4755
852.434	4854
852.569	4759
852.703	4790
852.838	4896
852.973	5022
853.107	4942
853.242	4809
853.376	4748
853.511	4554
853.645	4615
853.78	4816
853.914	4744
854.048	4698
854.183	4660
854.317	4740
854.451	4828
854.585	4672
854.72	4668
854.854	4778
854.988	4660
855.122	4694
855.256	4580
855.39	4706
855.524	4839
855.658	4774
855.792	4725
855.926	4725
856.06	4797
856.194	4843
856.327	4714
856.461	4626
856.595	4618
856.729	4675
856.862	4752
856.996	4725
857.13	4809
857.263	4763
857.397	4771
857.53	4733
857.664	4778
857.797	4816
857.931	4797
858.064	4733
858.197	4805
858.331	4637
858.464	4641
858.597	4546
858.731	4668
858.864	4656
858.997	4599
859.13	4725
859.263	4656
859.396	4698
859.529	4637
859.662	4584
859.795	4580
859.928	4603
860.061	4763
860.194	4816
860.327	4634
860.46	4588
860.592	4774
860.725	4729
860.858	4748
860.99	4558
861.123	4546
861.256	4531
861.388	4599
861.521	5326
861.653	4470
861.786	4462
861.918	4489
862.05	4531
862.183	4554
862.315	4660
862.447	4660
862.58	4588
862.712	4386
862.844	4333
862.976	4523
863.108	4478
863.24	4946
863.372	4329
863.504	4440
863.636	4428
863.768	4523
863.9	4489
864.032	4451
864.164	4459
864.296	4508
864.428	4569
864.559	4603
864.691	4565
864.823	4531
864.954	4527
865.086	4554
865.217	4481
865.349	4402
865.48	4485
865.612	4504
865.743	4664
865.875	4504
866.006	4451
866.137	4523
866.269	4470
866.4	4432
866.531	4440
866.662	4402
866.793	4413
866.924	4432
867.055	4527
867.186	4432
867.317	4443
867.448	4432
867.579	4417
867.71	4413
867.841	4405
867.972	4474
868.103	4470
868.233	4443
868.364	4523
868.495	4497
868.625	4706
868.756	4759
868.886	4603
869.017	4660
869.147	4790
869.278	4786
869.408	4656
869.539	4683
869.669	4733
869.799	4687
869.929	4759
870.06	4717
870.19	4984
870.32	4980
870.45	4980
870.58	5010
870.71	5162
870.84	5128
870.97	4976
871.1	4938
871.23	5162
871.36	5178
871.489	5056
871.619	5090
871.749	5105
871.879	5174
872.008	5147
872.138	5079
872.267	5003
872.397	4866
872.526	4816
872.656	4778
872.785	4873
872.915	4949
873.044	5052
873.173	4949
873.303	4953
873.432	4972
873.561	4957
873.69	4892
873.819	4938
873.948	4972
874.077	4889
874.206	4790
874.335	4812
874.464	4949
874.593	5071
874.722	4987
874.851	5151
874.979	5102
875.108	5025
875.237	4957
875.365	4862
875.494	4961
875.623	5025
875.751	4889
875.88	4873
876.008	4987
876.136	5060
876.265	5208
876.393	5444
876.521	5315
876.65	5201
876.778	5181
876.906	5098
877.034	5079
877.162	5071
877.29	4961
877.418	5098
877.546	5064
877.674	5041
877.802	5071
877.93	4999
878.058	4965
878.185	4900
878.313	4972
878.441	4987
878.568	4793
878.696	4923
878.824	4991
878.951	5056
879.079	5147
879.206	5315
879.333	5121
879.461	4999
879.588	5010
879.715	5170
879.842	5250
879.97	5045
880.097	4816
880.224	4790
880.351	4828
880.478	4881
880.605	4782
880.732	4816
880.859	5136
880.986	4892
881.112	4938
881.239	4820
881.366	4698
881.493	4626
881.619	4615
881.746	4691
881.872	4675
881.999	4668
882.125	4755
882.252	4828
882.378	4854
882.505	4976
882.631	4805
882.757	4710
882.883	4763
883.01	4778
883.136	4698
883.262	4603
883.388	4599
883.514	4809
883.64	4889
883.766	4828
883.892	4664
884.018	4790
884.143	4911
884.269	5048
884.395	4698
884.52	4649
884.646	4656
884.772	4618
884.897	4599
885.023	4656
885.148	4797
885.274	4858
885.399	4809
885.524	4725
885.65	4736
885.775	4748
885.9	4698
886.025	4904
886.15	4877
886.275	4782
886.4	4683
886.525	4725
886.65	4717
886.775	4733
886.9	4949
887.025	5003
887.149	4820
887.274	4653
887.399	4577
887.523	4607
887.648	4645
887.773	4577
887.897	4752
888.021	4786
888.146	4698
888.27	4866
888.395	4949
888.519	4854
888.643	4850
888.767	4877
888.891	4675
889.015	4630
889.139	4698
889.263	4584
889.387	4759
889.511	4889
889.635	4828
889.759	4672
889.883	4675
890.006	4763
890.13	4870
890.254	4645
890.377	4725
890.501	4519
890.624	4599
890.748	4577
890.871	4535
890.995	4421
891.118	4417
891.241	4535
891.364	4577
891.488	4626
891.611	4554
891.734	4565
891.857	4675
891.98	4611
892.103	4683
892.226	4607
892.349	4588
892.471	4436
892.594	4554
892.717	4607
892.839	4603
892.962	4592
893.085	4672
893.207	4573
893.33	4474
893.452	4535
893.575	4656
893.697	4603
893.819	4915
893.941	4873
894.064	4835
894.186	4618
894.308	4596
894.43	4767
894.552	4866
894.674	4759
894.796	4580
894.918	4607
895.04	4580
895.161	4736
895.283	4653
895.405	4634
895.526	4660
895.648	4683
895.769	4694
895.891	4729
896.012	4733
896.134	4759
896.255	4710
896.376	4672
896.498	4618
896.619	4733
896.74	4607
896.861	4672
896.982	4923
897.103	5140
897.224	4862
897.345	4816
897.466	4664
897.587	4744
897.708	4854
897.828	4793
897.949	4664
898.07	4588
898.19	4641
898.311	4843
898.431	4679
898.552	4786
898.672	4831
898.792	4862
898.913	4782
899.033	4660
899.153	4569
899.273	4481
899.393	4538
899.513	4527
899.633	4656
899.753	4546
899.873	4535
899.993	4596
900.113	4580
900.232	4580
900.352	4569
900.472	4508
900.591	4440
900.711	4504
900.83	4447
900.95	4630
901.069	4664
901.189	4561
901.308	4375
901.427	4333
901.546	4356
901.665	4497
901.784	4519
901.904	4443
902.023	4322
902.141	4249
902.26	4158
902.379	4344
902.498	4291
902.617	4276
902.735	4417
902.854	4394
902.973	4409
903.091	4207
903.21	4238
903.328	4299
903.446	4268
903.565	4314
903.683	4363
903.801	4246
903.919	4424
904.038	4443
904.156	4322
904.274	4432
904.392	4424
904.51	4481
904.627	4459
904.745	4611
904.863	4653
904.981	4413
905.098	4337
905.216	4383
905.334	4481
905.451	4466
905.569	4466
905.686	4626
905.803	4542
905.921	4447
906.038	4577
906.155	4497
906.272	4409
906.389	4523
906.506	4352
906.623	4424
906.74	4352
906.857	4329
906.974	4348
907.091	4618
907.208	4691
907.324	4607
907.441	4542
907.557	4325
907.674	4409
907.79	4303
907.907	4394
908.023	4538
908.139	4497
908.256	4455
908.372	4470
908.488	4489
908.604	4367
908.72	4337
908.836	4417
908.952	4390
909.068	4428
909.184	4546
909.3	4523
909.415	4599
909.531	4615
909.647	4413
909.762	4398
909.878	4363
909.993	4478
910.108	4421
910.224	4394
910.339	4489
910.454	4447
910.57	4360
910.685	4341
910.8	4679
910.915	4664
911.03	4466
911.145	4379
911.259	4352
911.374	4375
911.489	4284
911.604	4310
911.718	4207
911.833	4192
911.947	4071
912.062	4059
912.176	4253
912.291	4249
912.405	4284
912.519	4504
912.633	4497
912.748	4417
912.862	4360
912.976	4242
913.09	4105
913.204	4219
913.318	4280
913.431	4390
913.545	4383
913.659	4447
913.772	4402
913.886	4223
914	4238
914.113	4375
914.226	4436
914.34	4413
914.453	4257
914.566	4417
914.68	4341
914.793	4325
914.906	4200
915.019	4116
915.132	4051
915.245	4181
915.358	4215
915.47	4234
915.583	4291
915.696	4348
915.809	4447
915.921	4459
916.034	4280
916.146	4253
916.259	4234
916.371	4436
916.483	4363
916.595	4322
916.708	4337
916.82	4299
916.932	4329
917.044	4360
917.156	4386
917.268	4253
917.38	4261
917.491	4287
917.603	4367
917.715	4493
917.826	4474
917.938	4383
918.049	4204
918.161	4421
918.272	4599
918.384	4558
918.495	4470
918.606	4337
918.717	4295
918.828	4371
918.939	4386
919.05	4303
919.161	4386
919.272	4169
919.383	4257
919.494	4474
919.604	4641
919.715	4481
919.826	4371
919.936	4424
920.047	4561
920.157	4531
920.267	4721
920.378	4493
920.488	4535
920.598	4767
920.708	4919
920.818	4797
920.928	4816
921.038	4987
921.148	4961
921.258	4710
921.368	4630
921.477	4569
921.587	4485
921.697	4398
921.806	4588
921.916	4451
922.025	4234
922.134	4306
922.244	4204
922.353	4325
922.462	4204
922.571	4158
922.68	4063
922.789	4006
922.898	4090
923.007	4071
923.116	4105
923.224	4074
923.333	4166
923.442	3987
923.55	4017
923.659	4044
923.767	4112
923.876	4006
923.984	4116
924.092	3975
924.201	4074
924.309	4120
924.417	4124
924.525	4090
924.633	4128
924.741	4927
924.849	3953
924.956	4147
925.064	3994
925.172	3922
925.279	3987
925.387	4063
925.494	4105
925.602	4276
925.709	4238
925.816	4078
925.924	4200
926.031	4249
926.138	4215
926.245	4230
926.352	4116
926.459	4242
926.566	4337
926.673	4185
926.779	4101
926.886	4128
926.993	4010
927.099	3949
927.206	4010
927.312	4013
927.419	4074
927.525	4055
927.631	4139
927.737	3979
927.843	3968
927.95	3857
928.056	3945
928.162	4017
928.267	4128
928.373	4630
928.479	4147
928.585	3949
928.69	4067
928.796	4135
928.901	4029
929.007	3857
929.112	4074
929.218	4025
929.323	3964
929.428	3964
929.533	4147
929.638	3945
929.743	3975
929.848	4036
929.953	3998
930.058	3968
930.163	3793
930.267	3896
930.372	3983
930.477	3804
930.581	4120
930.685	3972
930.79	3876
930.894	3899
930.998	3884
931.103	4048
931.207	3724
931.311	3709
931.415	3679
931.519	3557
931.623	3549
