Data from test_V78500241_1877.txt Node
Date: Fri Mar 25 17:02:03 CST 2022
User: usil
Spectrometer: V785-0024
Trigger mode: 0
Integration Time (sec): 4.000000E-1
Scans to average: 1
Nonlinearity correction enabled: false
Boxcar width: 0
Storing dark spectrum: false
XAxis mode: Wavelengths
Number of Pixels in Spectrum: 1024
>>>>>Begin Spectral Data<<<<<
801.071	8046
801.214	8012
801.356	7860
801.499	7811
801.641	7845
801.783	7814
801.926	7917
802.068	7974
802.211	7959
802.353	7989
802.496	7845
802.638	7818
802.78	7909
802.923	7864
803.065	7879
803.208	7845
803.35	7974
803.492	8005
803.635	8138
803.777	8054
803.919	8069
804.061	8492
804.204	8149
804.346	8103
804.488	7936
804.63	8126
804.773	7978
804.915	8035
805.057	8240
805.199	8164
805.341	8180
805.483	8263
805.626	8218
805.768	8157
805.91	8134
806.052	8161
806.194	8088
806.336	8259
806.478	8062
806.62	7959
806.762	8111
806.904	8294
807.046	8446
807.188	8362
807.33	8240
807.472	8393
807.614	8210
807.756	8191
807.898	7974
808.04	7841
808.182	7906
808.324	7830
808.465	7944
808.607	8016
808.749	8058
808.891	8199
809.033	8286
809.174	8221
809.316	8046
809.458	8134
809.6	8008
809.741	8027
809.883	8035
810.025	8119
810.166	8149
810.308	8054
810.45	7906
810.591	7875
810.733	7674
810.875	7658
811.016	7521
811.158	7460
811.299	7594
811.441	7628
811.582	7662
811.724	7525
811.865	7525
812.007	7556
812.148	7624
812.29	7559
812.431	7708
812.573	7856
812.714	7970
812.855	8176
812.997	8195
813.138	8244
813.279	8218
813.421	8088
813.562	8005
813.703	7826
813.845	7700
813.986	7407
814.127	7217
814.268	7103
814.41	7168
814.551	7202
814.692	7225
814.833	7126
814.974	7099
815.115	7088
815.256	6989
815.397	6806
815.539	6837
815.68	6882
815.821	6741
815.962	6848
816.103	6768
816.244	6715
816.385	6635
816.526	6612
816.666	6498
816.807	6232
816.948	6422
817.089	6422
817.23	6437
817.371	6323
817.512	6361
817.653	6353
817.793	6323
817.934	6384
818.075	6441
818.216	6437
818.356	6494
818.497	6243
818.638	6091
818.778	6129
818.919	6140
819.06	6163
819.2	6338
819.341	6327
819.481	6350
819.622	6574
819.762	6715
819.903	6745
820.043	6563
820.184	6589
820.324	6563
820.465	6749
820.605	6620
820.746	6677
820.886	6517
821.026	6711
821.167	6711
821.307	6741
821.447	6719
821.588	6650
821.728	6547
821.868	6471
822.008	6308
822.149	6376
822.289	6357
822.429	6129
822.569	6121
822.709	6125
822.849	5927
822.99	5904
823.13	5950
823.27	5893
823.41	5786
823.55	5767
823.69	5783
823.83	5809
823.97	5703
824.11	5532
824.25	5509
824.389	5509
824.529	5516
824.669	5543
824.809	5577
824.949	5619
825.089	5589
825.228	5573
825.368	5368
825.508	5315
825.648	5360
825.787	5341
825.927	5337
826.067	5311
826.206	5303
826.346	5330
826.485	5425
826.625	5410
826.765	5524
826.904	5433
827.044	5227
827.183	5185
827.323	5098
827.462	5189
827.601	5166
827.741	5181
827.88	5201
828.02	5113
828.159	5201
828.298	5315
828.437	5311
828.577	5277
828.716	5467
828.855	5261
828.994	5185
829.134	5151
829.273	5147
829.412	5174
829.551	5128
829.69	5147
829.829	5242
829.968	5341
830.107	5280
830.246	5307
830.385	5174
830.524	5113
830.663	5045
830.802	4965
830.941	4858
831.08	4946
831.219	4961
831.357	4957
831.496	5102
831.635	4889
831.774	4904
831.913	4793
832.051	4714
832.19	4778
832.329	4831
832.467	4694
832.606	4622
832.744	4740
832.883	4717
833.022	4721
833.16	4759
833.299	4812
833.437	4786
833.576	4778
833.714	4843
833.852	4843
833.991	4858
834.129	4942
834.267	4965
834.406	4873
834.544	4923
834.682	5018
834.821	4987
834.959	5151
835.097	4965
835.235	5185
835.373	5079
835.511	5109
835.65	4965
835.788	5025
835.926	4915
836.064	4892
836.202	4923
836.34	5128
836.478	5208
836.615	5075
836.753	5223
836.891	5288
837.029	5261
837.167	5208
837.305	5162
837.443	5170
837.58	5121
837.718	5284
837.856	5189
837.993	5151
838.131	5269
838.269	5193
838.406	5159
838.544	5189
838.681	5025
838.819	4934
838.956	4877
839.094	4881
839.231	5025
839.369	5064
839.506	5436
839.643	5223
839.781	5048
839.918	5006
840.055	5067
840.193	5052
840.33	5075
840.467	5128
840.604	5201
840.742	5383
840.879	5033
841.016	5075
841.153	5136
841.29	5357
841.427	5280
841.564	5284
841.701	5299
841.838	5246
841.975	5246
842.112	5250
842.249	5143
842.385	5109
842.522	5341
842.659	5166
842.796	5075
842.933	5181
843.069	5140
843.206	5151
843.343	5258
843.479	5216
843.616	5227
843.752	5018
843.889	5018
844.025	5189
844.162	5006
844.298	5231
844.435	5060
844.571	5033
844.708	5193
844.844	5288
844.98	5292
845.117	5269
845.253	5170
845.389	5079
845.525	5189
845.661	5155
845.798	4984
845.934	5067
846.07	5003
846.206	5227
846.342	5246
846.478	5132
846.614	5018
846.75	4942
846.886	4892
847.022	5140
847.158	5033
847.294	5014
847.429	5121
847.565	5006
847.701	5307
847.837	4870
847.972	4831
848.108	4915
848.244	4946
848.379	4748
848.515	4717
848.65	4710
848.786	4714
848.921	4786
849.057	4858
849.192	4942
849.328	4835
849.463	4854
849.598	4854
849.734	4774
849.869	4683
850.004	4607
850.14	4611
850.275	4622
850.41	4504
850.545	4542
850.68	4592
850.815	4641
850.95	4599
851.085	4816
851.22	4721
851.355	4683
851.49	4588
851.625	4634
851.76	4641
851.895	4474
852.03	4474
852.165	4649
852.299	4675
852.434	4763
852.569	4759
852.703	4725
852.838	4850
852.973	4946
853.107	4942
853.242	4774
853.376	4672
853.511	4558
853.645	4592
853.78	4774
853.914	4637
854.048	4645
854.183	4653
854.317	4668
854.451	4839
854.585	4675
854.72	4645
854.854	4702
854.988	4596
855.122	4641
855.256	4512
855.39	4645
855.524	4752
855.658	4717
855.792	4694
855.926	4683
856.06	4744
856.194	4778
856.327	4702
856.461	4596
856.595	4607
856.729	4626
856.862	4687
856.996	4687
857.13	4721
857.263	4694
857.397	4801
857.53	4630
857.664	4748
857.797	4675
857.931	4786
858.064	4615
858.197	4717
858.331	4618
858.464	4561
858.597	4531
858.731	4615
858.864	4649
858.997	4592
859.13	4691
859.263	4641
859.396	4611
859.529	4573
859.662	4550
859.795	4538
859.928	4660
860.061	4736
860.194	4694
860.327	4573
860.46	4573
860.592	4710
860.725	4675
860.858	4717
860.99	4569
861.123	4500
861.256	4508
861.388	4599
861.521	5372
861.653	4497
861.786	4451
861.918	4409
862.05	4485
862.183	4519
862.315	4615
862.447	4630
862.58	4519
862.712	4405
862.844	4299
862.976	4462
863.108	4470
863.24	4835
863.372	4322
863.504	4363
863.636	4440
863.768	4531
863.9	4398
864.032	4383
864.164	4371
864.296	4478
864.428	4561
864.559	4561
864.691	4573
864.823	4508
864.954	4455
865.086	4546
865.217	4440
865.349	4402
865.48	4466
865.612	4489
865.743	4588
865.875	4478
866.006	4428
866.137	4398
866.269	4489
866.4	4443
866.531	4379
866.662	4402
866.793	4417
866.924	4409
867.055	4485
867.186	4455
867.317	4447
867.448	4310
867.579	4386
867.71	4424
867.841	4375
867.972	4481
868.103	4451
868.233	4485
868.364	4447
868.495	4523
868.625	4702
868.756	4786
868.886	4569
869.017	4618
869.147	4774
869.278	4793
869.408	4687
869.539	4660
869.669	4725
869.799	4668
869.929	4767
870.06	4729
870.19	4991
870.32	4938
870.45	4961
870.58	5029
870.71	5143
870.84	5143
870.97	4972
871.1	4927
871.23	5151
871.36	5159
871.489	5083
871.619	5140
871.749	5147
871.879	5136
872.008	5174
872.138	5075
872.267	5018
872.397	4873
872.526	4843
872.656	4725
872.785	4782
872.915	4972
873.044	5083
873.173	4957
873.303	4972
873.432	4946
873.561	5006
873.69	4915
873.819	4889
873.948	4965
874.077	4892
874.206	4763
874.335	4831
874.464	4980
874.593	5048
874.722	4999
874.851	5147
874.979	5102
875.108	5117
875.237	4987
875.365	4896
875.494	4919
875.623	4999
875.751	4870
875.88	4904
876.008	5025
876.136	5071
876.265	5193
876.393	5364
876.521	5288
876.65	5299
876.778	5204
876.906	5143
877.034	5041
877.162	5086
877.29	5018
877.418	5086
877.546	5102
877.674	5041
877.802	5048
877.93	4999
878.058	4957
878.185	4870
878.313	5018
878.441	4942
878.568	4889
878.696	4930
878.824	4984
878.951	5018
879.079	5181
879.206	5357
879.333	5094
879.461	5033
879.588	5025
879.715	5128
879.842	5223
879.97	5048
880.097	4801
880.224	4793
880.351	4835
880.478	4850
880.605	4790
880.732	4816
880.859	5105
880.986	4938
881.112	4919
881.239	4850
881.366	4721
881.493	4630
881.619	4637
881.746	4618
881.872	4706
881.999	4653
882.125	4687
882.252	4831
882.378	4850
882.505	4915
882.631	4816
882.757	4679
882.883	4729
883.01	4767
883.136	4702
883.262	4637
883.388	4668
883.514	4812
883.64	4881
883.766	4790
883.892	4710
884.018	4755
884.143	4919
884.269	5041
884.395	4744
884.52	4675
884.646	4630
884.772	4630
884.897	4596
885.023	4660
885.148	4809
885.274	4889
885.399	4793
885.524	4736
885.65	4748
885.775	4771
885.9	4740
886.025	4873
886.15	4778
886.275	4721
886.4	4679
886.525	4714
886.65	4729
886.775	4683
886.9	4968
887.025	5067
887.149	4854
887.274	4630
887.399	4630
887.523	4641
887.648	4584
887.773	4596
887.897	4805
888.021	4797
888.146	4702
888.27	4850
888.395	4923
888.519	4839
888.643	4820
888.767	4801
888.891	4687
889.015	4641
889.139	4672
889.263	4622
889.387	4767
889.511	4923
889.635	4812
889.759	4729
889.883	4683
890.006	4744
890.13	4904
890.254	4645
890.377	4717
890.501	4626
890.624	4546
890.748	4653
890.871	4569
890.995	4428
891.118	4363
891.241	4554
891.364	4550
891.488	4679
891.611	4512
891.734	4626
891.857	4615
891.98	4603
892.103	4721
892.226	4584
892.349	4538
892.471	4405
892.594	4573
892.717	4653
892.839	4592
892.962	4615
893.085	4698
893.207	4668
893.33	4493
893.452	4584
893.575	4702
893.697	4634
893.819	4809
893.941	4843
894.064	4812
894.186	4584
894.308	4596
894.43	4774
894.552	4828
894.674	4771
894.796	4565
894.918	4626
895.04	4615
895.161	4736
895.283	4668
895.405	4584
895.526	4622
895.648	4729
895.769	4740
895.891	4733
896.012	4748
896.134	4767
896.255	4653
896.376	4672
896.498	4653
896.619	4698
896.74	4622
896.861	4672
896.982	4934
897.103	5151
897.224	4839
897.345	4771
897.466	4649
897.587	4755
897.708	4873
897.828	4774
897.949	4660
898.07	4611
898.19	4626
898.311	4816
898.431	4645
898.552	4767
898.672	4839
898.792	4843
898.913	4790
899.033	4675
899.153	4535
899.273	4459
899.393	4519
899.513	4508
899.633	4584
899.753	4550
899.873	4561
899.993	4599
900.113	4554
900.232	4615
900.352	4527
900.472	4493
900.591	4440
900.711	4527
900.83	4451
900.95	4626
901.069	4687
901.189	4584
901.308	4390
901.427	4383
901.546	4360
901.665	4554
901.784	4546
901.904	4417
902.023	4375
902.141	4246
902.26	4227
902.379	4333
902.498	4253
902.617	4272
902.735	4360
902.854	4417
902.973	4379
903.091	4261
903.21	4253
903.328	4341
903.446	4276
903.565	4268
903.683	4398
903.801	4329
903.919	4402
904.038	4459
904.156	4322
904.274	4417
904.392	4390
904.51	4470
904.627	4550
904.745	4588
904.863	4698
904.981	4405
905.098	4284
905.216	4428
905.334	4424
905.451	4451
905.569	4489
905.686	4542
905.803	4538
905.921	4451
906.038	4546
906.155	4485
906.272	4417
906.389	4516
906.506	4329
906.623	4402
906.74	4405
906.857	4348
906.974	4360
907.091	4577
907.208	4702
907.324	4622
907.441	4542
907.557	4360
907.674	4371
907.79	4295
907.907	4390
908.023	4504
908.139	4508
908.256	4485
908.372	4459
908.488	4455
908.604	4409
908.72	4356
908.836	4402
908.952	4394
909.068	4459
909.184	4569
909.3	4474
909.415	4588
909.531	4634
909.647	4348
909.762	4390
909.878	4390
909.993	4485
910.108	4466
910.224	4455
910.339	4500
910.454	4405
910.57	4398
910.685	4360
910.8	4679
910.915	4634
911.03	4493
911.145	4363
911.259	4375
911.374	4383
911.489	4344
911.604	4284
911.718	4188
911.833	4223
911.947	4101
912.062	4059
912.176	4192
912.291	4223
912.405	4238
912.519	4455
912.633	4546
912.748	4413
912.862	4344
912.976	4215
913.09	4139
913.204	4173
913.318	4310
913.431	4424
913.545	4390
913.659	4470
913.772	4398
913.886	4234
914	4185
914.113	4451
914.226	4447
914.34	4394
914.453	4249
914.566	4443
914.68	4356
914.793	4352
914.906	4181
915.019	4166
915.132	4120
915.245	4173
915.358	4196
915.47	4227
915.583	4268
915.696	4348
915.809	4421
915.921	4440
916.034	4325
916.146	4249
916.259	4173
916.371	4379
916.483	4386
916.595	4314
916.708	4341
916.82	4371
916.932	4371
917.044	4310
917.156	4375
917.268	4310
917.38	4306
917.491	4276
917.603	4375
917.715	4394
917.826	4440
917.938	4379
918.049	4227
918.161	4421
918.272	4554
918.384	4508
918.495	4459
918.606	4310
918.717	4280
918.828	4356
918.939	4367
919.05	4223
919.161	4337
919.272	4128
919.383	4253
919.494	4421
919.604	4588
919.715	4443
919.826	4348
919.936	4424
920.047	4546
920.157	4512
920.267	4679
920.378	4626
920.488	4508
920.598	4691
920.708	4904
920.818	4744
920.928	4763
921.038	4961
921.148	4919
921.258	4630
921.368	4554
921.477	4519
921.587	4504
921.697	4398
921.806	4580
921.916	4462
922.025	4272
922.134	4303
922.244	4246
922.353	4367
922.462	4238
922.571	4169
922.68	3998
922.789	3968
922.898	4017
923.007	4010
923.116	4139
923.224	4059
923.333	4082
923.442	4036
923.55	3994
923.659	4044
923.767	4105
923.876	3987
923.984	4166
924.092	3960
924.201	4067
924.309	4078
924.417	4120
924.525	4097
924.633	4124
924.741	5064
924.849	3975
924.956	4116
925.064	3972
925.172	3945
925.279	4006
925.387	4097
925.494	4101
925.602	4257
925.709	4242
925.816	4036
925.924	4109
926.031	4215
926.138	4139
926.245	4257
926.352	4090
926.459	4287
926.566	4276
926.673	4166
926.779	4093
926.886	4090
926.993	4002
927.099	3941
927.206	3949
927.312	3941
927.419	4071
927.525	4036
927.631	4154
927.737	3968
927.843	3964
927.95	3884
928.056	3968
928.162	4013
928.267	4074
928.373	4611
928.479	4093
928.585	3869
928.69	4002
928.796	4051
928.901	3968
929.007	3831
929.112	3937
929.218	4036
929.323	3934
929.428	3945
929.533	4097
929.638	3888
929.743	3968
929.848	4044
929.953	3998
930.058	3930
930.163	3793
930.267	3846
930.372	3945
930.477	3816
930.581	4093
930.685	3934
930.79	3850
930.894	3892
930.998	3903
931.103	4025
931.207	3736
931.311	3686
931.415	3682
931.519	3557
931.623	3534
