Data from test_V78500241_1099.txt Node
Date: Fri Mar 25 16:56:38 CST 2022
User: usil
Spectrometer: V785-0024
Trigger mode: 0
Integration Time (sec): 4.000000E-1
Scans to average: 1
Nonlinearity correction enabled: false
Boxcar width: 0
Storing dark spectrum: false
XAxis mode: Wavelengths
Number of Pixels in Spectrum: 1024
>>>>>Begin Spectral Data<<<<<
801.071	8043
801.214	8046
801.356	7913
801.499	7868
801.641	7776
801.783	7727
801.926	7959
802.068	7852
802.211	7921
802.353	7944
802.496	7807
802.638	7864
802.78	7841
802.923	7959
803.065	7875
803.208	7864
803.35	7909
803.492	8054
803.635	8126
803.777	7993
803.919	8103
804.061	8400
804.204	8142
804.346	8081
804.488	7940
804.63	8130
804.773	8020
804.915	8142
805.057	8225
805.199	8138
805.341	8199
805.483	8259
805.626	8206
805.768	8187
805.91	8176
806.052	8153
806.194	8107
806.336	8240
806.478	8103
806.62	8081
806.762	8172
806.904	8271
807.046	8446
807.188	8332
807.33	8275
807.472	8313
807.614	8123
807.756	8130
807.898	8008
808.04	7837
808.182	7814
808.324	7932
808.465	7887
808.607	8103
808.749	8115
808.891	8237
809.033	8305
809.174	8142
809.316	8062
809.458	8035
809.6	7963
809.741	8027
809.883	8039
810.025	8092
810.166	8058
810.308	7909
810.45	7986
810.591	7940
810.733	7761
810.875	7643
811.016	7506
811.158	7468
811.299	7567
811.441	7685
811.582	7681
811.724	7601
811.865	7487
812.007	7533
812.148	7582
812.29	7620
812.431	7712
812.573	7887
812.714	8020
812.855	8081
812.997	8214
813.138	8339
813.279	8248
813.421	8046
813.562	7906
813.703	7811
813.845	7757
813.986	7449
814.127	7232
814.268	7213
814.41	7187
814.551	7137
814.692	7194
814.833	7027
814.974	7057
815.115	7080
815.256	6935
815.397	6894
815.539	6966
815.68	6810
815.821	6749
815.962	6909
816.103	6795
816.244	6753
816.385	6642
816.526	6612
816.666	6464
816.807	6277
816.948	6407
817.089	6506
817.23	6399
817.371	6357
817.512	6426
817.653	6338
817.793	6426
817.934	6414
818.075	6422
818.216	6471
818.356	6353
818.497	6220
818.638	6152
818.778	6152
818.919	6216
819.06	6148
819.2	6266
819.341	6365
819.481	6369
819.622	6574
819.762	6730
819.903	6719
820.043	6536
820.184	6620
820.324	6540
820.465	6658
820.605	6665
820.746	6658
820.886	6452
821.026	6669
821.167	6726
821.307	6776
821.447	6715
821.588	6627
821.728	6593
821.868	6471
822.008	6338
822.149	6369
822.289	6346
822.429	6140
822.569	6022
822.709	6190
822.849	5950
822.99	5961
823.13	5908
823.27	5916
823.41	5752
823.55	5821
823.69	5779
823.83	5783
823.97	5699
824.11	5520
824.25	5512
824.389	5539
824.529	5539
824.669	5539
824.809	5623
824.949	5627
825.089	5592
825.228	5551
825.368	5372
825.508	5364
825.648	5326
825.787	5429
825.927	5322
826.067	5261
826.206	5265
826.346	5376
826.485	5414
826.625	5398
826.765	5524
826.904	5520
827.044	5269
827.183	5201
827.323	5132
827.462	5223
827.601	5132
827.741	5193
827.88	5193
828.02	5109
828.159	5246
828.298	5280
828.437	5357
828.577	5280
828.716	5528
828.855	5288
828.994	5170
829.134	5151
829.273	5223
829.412	5109
829.551	5090
829.69	5143
829.829	5239
829.968	5360
830.107	5250
830.246	5334
830.385	5223
830.524	5151
830.663	5025
830.802	4930
830.941	4881
831.08	4843
831.219	4961
831.357	4987
831.496	5151
831.635	4896
831.774	4816
831.913	4866
832.051	4687
832.19	4736
832.329	4816
832.467	4668
832.606	4656
832.744	4672
832.883	4736
833.022	4725
833.16	4771
833.299	4771
833.437	4820
833.576	4820
833.714	4850
833.852	4850
833.991	4900
834.129	4965
834.267	4980
834.406	4885
834.544	4965
834.682	4923
834.821	4930
834.959	5136
835.097	5003
835.235	5136
835.373	5075
835.511	5052
835.65	5071
835.788	5071
835.926	4919
836.064	4904
836.202	4949
836.34	5113
836.478	5254
836.615	5113
836.753	5201
836.891	5258
837.029	5265
837.167	5162
837.305	5155
837.443	5132
837.58	5075
837.718	5227
837.856	5189
837.993	5170
838.131	5208
838.269	5204
838.406	5208
838.544	5162
838.681	5041
838.819	5018
838.956	4938
839.094	4957
839.231	4934
839.369	5083
839.506	5429
839.643	5261
839.781	5060
839.918	5018
840.055	5124
840.193	5098
840.33	5102
840.467	5166
840.604	5136
840.742	5372
840.879	5086
841.016	5079
841.153	5083
841.29	5337
841.427	5353
841.564	5292
841.701	5299
841.838	5208
841.975	5208
842.112	5246
842.249	5185
842.385	5147
842.522	5307
842.659	5166
842.796	5098
842.933	5159
843.069	5090
843.206	5170
843.343	5242
843.479	5189
843.616	5250
843.752	5037
843.889	4980
844.025	5185
844.162	4957
844.298	5197
844.435	5105
844.571	5041
844.708	5174
844.844	5261
844.98	5296
845.117	5239
845.253	5109
845.389	5060
845.525	5162
845.661	5151
845.798	5033
845.934	5151
846.07	5037
846.206	5155
846.342	5242
846.478	5124
846.614	5029
846.75	4953
846.886	4972
847.022	5132
847.158	4953
847.294	5071
847.429	5083
847.565	5064
847.701	5284
847.837	4820
847.972	4801
848.108	4972
848.244	4953
848.379	4740
848.515	4729
848.65	4744
848.786	4786
848.921	4733
849.057	4881
849.192	4911
849.328	4793
849.463	4828
849.598	4816
849.734	4755
849.869	4675
850.004	4653
850.14	4615
850.275	4622
850.41	4523
850.545	4538
850.68	4607
850.815	4588
850.95	4592
851.085	4812
851.22	4752
851.355	4607
851.49	4607
851.625	4660
851.76	4649
851.895	4512
852.03	4519
852.165	4630
852.299	4691
852.434	4767
852.569	4721
852.703	4725
852.838	4812
852.973	4877
853.107	4885
853.242	4710
853.376	4710
853.511	4512
853.645	4618
853.78	4824
853.914	4668
854.048	4702
854.183	4649
854.317	4759
854.451	4831
854.585	4634
854.72	4622
854.854	4740
854.988	4573
855.122	4634
855.256	4542
855.39	4649
855.524	4797
855.658	4706
855.792	4698
855.926	4721
856.06	4714
856.194	4843
856.327	4679
856.461	4569
856.595	4645
856.729	4603
856.862	4759
856.996	4694
857.13	4702
857.263	4702
857.397	4786
857.53	4634
857.664	4759
857.797	4721
857.931	4744
858.064	4660
858.197	4721
858.331	4672
858.464	4618
858.597	4470
858.731	4599
858.864	4641
858.997	4611
859.13	4584
859.263	4698
859.396	4714
859.529	4573
859.662	4542
859.795	4565
859.928	4592
860.061	4801
860.194	4736
860.327	4573
860.46	4584
860.592	4714
860.725	4706
860.858	4656
860.99	4561
861.123	4535
861.256	4516
861.388	4603
861.521	5330
861.653	4462
861.786	4413
861.918	4421
862.05	4523
862.183	4500
862.315	4615
862.447	4668
862.58	4546
862.712	4402
862.844	4322
862.976	4459
863.108	4447
863.24	4759
863.372	4280
863.504	4459
863.636	4413
863.768	4413
863.9	4424
864.032	4367
864.164	4413
864.296	4413
864.428	4535
864.559	4550
864.691	4508
864.823	4508
864.954	4447
865.086	4504
865.217	4424
865.349	4379
865.48	4436
865.612	4409
865.743	4622
865.875	4447
866.006	4390
866.137	4493
866.269	4424
866.4	4371
866.531	4394
866.662	4394
866.793	4402
866.924	4417
867.055	4466
867.186	4447
867.317	4375
867.448	4337
867.579	4367
867.71	4394
867.841	4363
867.972	4451
868.103	4455
868.233	4440
868.364	4367
868.495	4462
868.625	4660
868.756	4759
868.886	4550
869.017	4618
869.147	4778
869.278	4755
869.408	4660
869.539	4649
869.669	4714
869.799	4615
869.929	4771
870.06	4752
870.19	4968
870.32	4881
870.45	4953
870.58	4991
870.71	5086
870.84	5105
870.97	4938
871.1	4908
871.23	5075
871.36	5098
871.489	4995
871.619	5094
871.749	5117
871.879	5109
872.008	5170
872.138	4999
872.267	5022
872.397	4835
872.526	4759
872.656	4691
872.785	4755
872.915	4915
873.044	5022
873.173	4885
873.303	4961
873.432	4934
873.561	4949
873.69	4828
873.819	4896
873.948	4946
874.077	4782
874.206	4752
874.335	4801
874.464	4972
874.593	5041
874.722	4904
874.851	5083
874.979	5064
875.108	4999
875.237	4919
875.365	4904
875.494	4885
875.623	4930
875.751	4793
875.88	4847
876.008	4915
876.136	4999
876.265	5147
876.393	5292
876.521	5212
876.65	5201
876.778	5208
876.906	5102
877.034	5052
877.162	5010
877.29	4930
877.418	5033
877.546	5037
877.674	4987
877.802	5014
877.93	4999
878.058	4911
878.185	4854
878.313	4908
878.441	4946
878.568	4763
878.696	4881
878.824	4953
878.951	4908
879.079	5136
879.206	5299
879.333	5064
879.461	5006
879.588	5086
879.715	5147
879.842	5216
879.97	4987
880.097	4809
880.224	4714
880.351	4755
880.478	4831
880.605	4816
880.732	4801
880.859	5064
880.986	4862
881.112	4915
881.239	4782
881.366	4656
881.493	4584
881.619	4622
881.746	4607
881.872	4645
881.999	4679
882.125	4694
882.252	4782
882.378	4847
882.505	4957
882.631	4736
882.757	4645
882.883	4714
883.01	4733
883.136	4641
883.262	4592
883.388	4599
883.514	4752
883.64	4866
883.766	4767
883.892	4641
884.018	4691
884.143	4862
884.269	4938
884.395	4656
884.52	4645
884.646	4668
884.772	4577
884.897	4577
885.023	4630
885.148	4786
885.274	4805
885.399	4797
885.524	4729
885.65	4649
885.775	4736
885.9	4687
886.025	4881
886.15	4774
886.275	4706
886.4	4603
886.525	4694
886.65	4725
886.775	4733
886.9	4957
887.025	5041
887.149	4839
887.274	4630
887.399	4603
887.523	4618
887.648	4584
887.773	4607
887.897	4763
888.021	4744
888.146	4675
888.27	4801
888.395	4930
888.519	4767
888.643	4801
888.767	4824
888.891	4679
889.015	4584
889.139	4634
889.263	4561
889.387	4744
889.511	4870
889.635	4835
889.759	4637
889.883	4630
890.006	4740
890.13	4797
890.254	4637
890.377	4683
890.501	4550
890.624	4497
890.748	4603
890.871	4512
890.995	4413
891.118	4363
891.241	4504
891.364	4508
891.488	4618
891.611	4500
891.734	4535
891.857	4615
891.98	4538
892.103	4645
892.226	4607
892.349	4485
892.471	4421
892.594	4523
892.717	4634
892.839	4569
892.962	4599
893.085	4584
893.207	4565
893.33	4470
893.452	4546
893.575	4653
893.697	4550
893.819	4786
893.941	4805
894.064	4755
894.186	4542
894.308	4542
894.43	4721
894.552	4812
894.674	4752
894.796	4546
894.918	4558
895.04	4531
895.161	4721
895.283	4656
895.405	4569
895.526	4668
895.648	4706
895.769	4649
895.891	4687
896.012	4672
896.134	4725
896.255	4664
896.376	4618
896.498	4622
896.619	4653
896.74	4596
896.861	4649
896.982	4873
897.103	5056
897.224	4847
897.345	4763
897.466	4668
897.587	4748
897.708	4862
897.828	4763
897.949	4668
898.07	4580
898.19	4626
898.311	4778
898.431	4634
898.552	4752
898.672	4820
898.792	4793
898.913	4702
899.033	4588
899.153	4535
899.273	4424
899.393	4497
899.513	4527
899.633	4558
899.753	4508
899.873	4493
899.993	4573
900.113	4531
900.232	4535
900.352	4554
900.472	4489
900.591	4394
900.711	4493
900.83	4440
900.95	4618
901.069	4656
901.189	4554
901.308	4352
901.427	4325
901.546	4333
901.665	4531
901.784	4481
901.904	4390
902.023	4337
902.141	4215
902.26	4169
902.379	4310
902.498	4261
902.617	4227
902.735	4394
902.854	4421
902.973	4375
903.091	4173
903.21	4219
903.328	4272
903.446	4249
903.565	4230
903.683	4325
903.801	4249
903.919	4398
904.038	4417
904.156	4314
904.274	4402
904.392	4402
904.51	4428
904.627	4478
904.745	4531
904.863	4641
904.981	4409
905.098	4272
905.216	4363
905.334	4436
905.451	4417
905.569	4466
905.686	4550
905.803	4569
905.921	4405
906.038	4538
906.155	4481
906.272	4386
906.389	4436
906.506	4367
906.623	4375
906.74	4379
906.857	4276
906.974	4386
907.091	4535
907.208	4691
907.324	4596
907.441	4481
907.557	4367
907.674	4409
907.79	4276
907.907	4375
908.023	4508
908.139	4447
908.256	4379
908.372	4443
908.488	4421
908.604	4344
908.72	4306
908.836	4356
908.952	4375
909.068	4409
909.184	4603
909.3	4470
909.415	4565
909.531	4516
909.647	4348
909.762	4413
909.878	4341
909.993	4428
910.108	4451
910.224	4421
910.339	4470
910.454	4417
910.57	4337
910.685	4325
910.8	4630
910.915	4558
911.03	4485
911.145	4325
911.259	4325
911.374	4322
911.489	4268
911.604	4265
911.718	4147
911.833	4192
911.947	4135
912.062	3975
912.176	4227
912.291	4230
912.405	4253
912.519	4451
912.633	4558
912.748	4394
912.862	4272
912.976	4158
913.09	4078
913.204	4166
913.318	4234
913.431	4344
913.545	4363
913.659	4493
913.772	4363
913.886	4246
914	4242
914.113	4325
914.226	4451
914.34	4356
914.453	4181
914.566	4409
914.68	4280
914.793	4310
914.906	4147
915.019	4074
915.132	4059
915.245	4188
915.358	4242
915.47	4147
915.583	4200
915.696	4280
915.809	4379
915.921	4390
916.034	4227
916.146	4242
916.259	4249
916.371	4417
916.483	4367
916.595	4295
916.708	4341
916.82	4322
916.932	4322
917.044	4352
917.156	4276
917.268	4230
917.38	4287
917.491	4284
917.603	4356
917.715	4466
917.826	4447
917.938	4344
918.049	4230
918.161	4383
918.272	4512
918.384	4504
918.495	4413
918.606	4329
918.717	4192
918.828	4333
918.939	4383
919.05	4253
919.161	4360
919.272	4135
919.383	4166
919.494	4455
919.604	4664
919.715	4394
919.826	4375
919.936	4352
920.047	4504
920.157	4519
920.267	4664
920.378	4531
920.488	4489
920.598	4687
920.708	4858
920.818	4748
920.928	4782
921.038	4934
921.148	4889
921.258	4630
921.368	4558
921.477	4481
921.587	4424
921.697	4371
921.806	4546
921.916	4436
922.025	4238
922.134	4303
922.244	4192
922.353	4333
922.462	4177
922.571	4166
922.68	4002
922.789	3956
922.898	4063
923.007	3975
923.116	4086
923.224	4025
923.333	4051
923.442	3998
923.55	3949
923.659	4010
923.767	4131
923.876	4013
923.984	4131
924.092	4002
924.201	4097
924.309	4082
924.417	4112
924.525	4013
924.633	4090
924.741	4873
924.849	3915
924.956	4143
925.064	3918
925.172	3899
925.279	3930
925.387	4067
925.494	4063
925.602	4154
925.709	4150
925.816	4017
925.924	4116
926.031	4196
926.138	4124
926.245	4181
926.352	4097
926.459	4261
926.566	4284
926.673	4158
926.779	4090
926.886	4112
926.993	3972
927.099	3945
927.206	3930
927.312	3964
927.419	4040
927.525	4040
927.631	4101
927.737	3945
927.843	3907
927.95	3831
928.056	3941
928.162	3991
928.267	4086
928.373	4672
928.479	4124
928.585	3903
928.69	4055
928.796	4055
928.901	3983
929.007	3876
929.112	3983
929.218	3960
929.323	3922
929.428	3907
929.533	4090
929.638	3907
929.743	3918
929.848	4040
929.953	3964
930.058	3934
930.163	3816
930.267	3838
930.372	3922
930.477	3789
930.581	4090
930.685	3964
930.79	3800
930.894	3907
930.998	3838
931.103	4032
931.207	3698
931.311	3682
931.415	3705
931.519	3473
931.623	3515
