Data from test_V78500241_1059.txt Node
Date: Fri Mar 25 16:56:21 CST 2022
User: usil
Spectrometer: V785-0024
Trigger mode: 0
Integration Time (sec): 4.000000E-1
Scans to average: 1
Nonlinearity correction enabled: false
Boxcar width: 0
Storing dark spectrum: false
XAxis mode: Wavelengths
Number of Pixels in Spectrum: 1024
>>>>>Begin Spectral Data<<<<<
801.071	8058
801.214	8050
801.356	7917
801.499	7871
801.641	7772
801.783	7753
801.926	7913
802.068	7925
802.211	7986
802.353	7898
802.496	7795
802.638	7852
802.78	7807
802.923	7928
803.065	7875
803.208	7963
803.35	7944
803.492	8119
803.635	8157
803.777	8016
803.919	8123
804.061	8404
804.204	8180
804.346	8050
804.488	8050
804.63	8180
804.773	8100
804.915	8100
805.057	8328
805.199	8195
805.341	8248
805.483	8317
805.626	8172
805.768	8084
805.91	8214
806.052	8126
806.194	8115
806.336	8294
806.478	8126
806.62	8058
806.762	8199
806.904	8202
807.046	8423
807.188	8355
807.33	8275
807.472	8366
807.614	8130
807.756	8103
807.898	8005
808.04	7845
808.182	7928
808.324	7932
808.465	7921
808.607	8103
808.749	8088
808.891	8229
809.033	8290
809.174	8225
809.316	8043
809.458	8096
809.6	7951
809.741	8062
809.883	7986
810.025	8050
810.166	8020
810.308	8016
810.45	7963
810.591	7894
810.733	7799
810.875	7708
811.016	7540
811.158	7506
811.299	7636
811.441	7693
811.582	7677
811.724	7529
811.865	7495
812.007	7567
812.148	7620
812.29	7609
812.431	7723
812.573	7909
812.714	7951
812.855	8103
812.997	8183
813.138	8347
813.279	8172
813.421	8168
813.562	8054
813.703	7879
813.845	7674
813.986	7434
814.127	7263
814.268	7179
814.41	7194
814.551	7149
814.692	7095
814.833	7050
814.974	7072
815.115	7103
815.256	6954
815.397	6947
815.539	6897
815.68	6829
815.821	6844
815.962	6890
816.103	6825
816.244	6745
816.385	6635
816.526	6688
816.666	6437
816.807	6350
816.948	6448
817.089	6475
817.23	6464
817.371	6357
817.512	6471
817.653	6403
817.793	6429
817.934	6414
818.075	6467
818.216	6448
818.356	6346
818.497	6273
818.638	6091
818.778	6186
818.919	6102
819.06	6129
819.2	6277
819.341	6243
819.481	6338
819.622	6506
819.762	6757
819.903	6726
820.043	6559
820.184	6521
820.324	6608
820.465	6677
820.605	6692
820.746	6681
820.886	6464
821.026	6650
821.167	6722
821.307	6856
821.447	6722
821.588	6612
821.728	6536
821.868	6460
822.008	6342
822.149	6357
822.289	6342
822.429	6125
822.569	6068
822.709	6060
822.849	5946
822.99	5908
823.13	5973
823.27	5927
823.41	5767
823.55	5756
823.69	5752
823.83	5760
823.97	5653
824.11	5562
824.25	5452
824.389	5535
824.529	5592
824.669	5474
824.809	5604
824.949	5619
825.089	5630
825.228	5528
825.368	5337
825.508	5387
825.648	5337
825.787	5357
825.927	5414
826.067	5292
826.206	5277
826.346	5391
826.485	5402
826.625	5383
826.765	5543
826.904	5516
827.044	5246
827.183	5193
827.323	5121
827.462	5231
827.601	5140
827.741	5174
827.88	5208
828.02	5132
828.159	5242
828.298	5277
828.437	5334
828.577	5307
828.716	5478
828.855	5307
828.994	5201
829.134	5090
829.273	5189
829.412	5121
829.551	5098
829.69	5223
829.829	5227
829.968	5395
830.107	5254
830.246	5250
830.385	5181
830.524	5128
830.663	5071
830.802	4984
830.941	4900
831.08	4900
831.219	4999
831.357	4976
831.496	5155
831.635	4938
831.774	4847
831.913	4850
832.051	4805
832.19	4744
832.329	4820
832.467	4694
832.606	4660
832.744	4733
832.883	4698
833.022	4717
833.16	4774
833.299	4797
833.437	4812
833.576	4850
833.714	4847
833.852	4862
833.991	4961
834.129	4946
834.267	4923
834.406	4911
834.544	4999
834.682	4949
834.821	4911
834.959	5147
835.097	4980
835.235	5117
835.373	5079
835.511	5071
835.65	5006
835.788	5014
835.926	4866
836.064	4866
836.202	4946
836.34	5178
836.478	5193
836.615	5083
836.753	5204
836.891	5258
837.029	5292
837.167	5261
837.305	5140
837.443	5105
837.58	5045
837.718	5246
837.856	5181
837.993	5094
838.131	5235
838.269	5223
838.406	5170
838.544	5151
838.681	5029
838.819	4987
838.956	4892
839.094	4915
839.231	4984
839.369	5048
839.506	5474
839.643	5250
839.781	5060
839.918	5006
840.055	5067
840.193	5060
840.33	5121
840.467	5197
840.604	5159
840.742	5448
840.879	5048
841.016	5048
841.153	5113
841.29	5360
841.427	5299
841.564	5315
841.701	5334
841.838	5307
841.975	5189
842.112	5277
842.249	5113
842.385	5105
842.522	5307
842.659	5197
842.796	5147
842.933	5220
843.069	5155
843.206	5170
843.343	5315
843.479	5208
843.616	5261
843.752	5018
843.889	4991
844.025	5235
844.162	5014
844.298	5208
844.435	5075
844.571	5006
844.708	5166
844.844	5269
844.98	5288
845.117	5269
845.253	5162
845.389	5052
845.525	5136
845.661	5109
845.798	5025
845.934	5208
846.07	5041
846.206	5155
846.342	5242
846.478	5204
846.614	4987
846.75	5014
846.886	4919
847.022	5094
847.158	4999
847.294	5041
847.429	5075
847.565	5079
847.701	5315
847.837	4854
847.972	4843
848.108	4934
848.244	4911
848.379	4736
848.515	4736
848.65	4706
848.786	4763
848.921	4809
849.057	4892
849.192	4908
849.328	4778
849.463	4862
849.598	4793
849.734	4748
849.869	4740
850.004	4641
850.14	4660
850.275	4592
850.41	4497
850.545	4527
850.68	4588
850.815	4637
850.95	4656
851.085	4835
851.22	4755
851.355	4660
851.49	4603
851.625	4618
851.76	4656
851.895	4596
852.03	4512
852.165	4630
852.299	4714
852.434	4778
852.569	4767
852.703	4744
852.838	4805
852.973	4923
853.107	4896
853.242	4687
853.376	4664
853.511	4497
853.645	4573
853.78	4793
853.914	4733
854.048	4702
854.183	4653
854.317	4679
854.451	4847
854.585	4733
854.72	4634
854.854	4759
854.988	4577
855.122	4641
855.256	4531
855.39	4679
855.524	4793
855.658	4710
855.792	4717
855.926	4721
856.06	4733
856.194	4763
856.327	4683
856.461	4588
856.595	4615
856.729	4611
856.862	4748
856.996	4714
857.13	4706
857.263	4786
857.397	4786
857.53	4645
857.664	4721
857.797	4706
857.931	4710
858.064	4694
858.197	4721
858.331	4592
858.464	4641
858.597	4474
858.731	4565
858.864	4649
858.997	4573
859.13	4584
859.263	4626
859.396	4717
859.529	4584
859.662	4603
859.795	4516
859.928	4618
860.061	4733
860.194	4763
860.327	4580
860.46	4584
860.592	4691
860.725	4698
860.858	4710
860.99	4569
861.123	4538
861.256	4527
861.388	4622
861.521	5303
861.653	4493
861.786	4417
861.918	4443
862.05	4497
862.183	4550
862.315	4580
862.447	4679
862.58	4538
862.712	4421
862.844	4314
862.976	4443
863.108	4485
863.24	4904
863.372	4276
863.504	4462
863.636	4394
863.768	4485
863.9	4428
864.032	4352
864.164	4405
864.296	4447
864.428	4558
864.559	4546
864.691	4504
864.823	4489
864.954	4508
865.086	4466
865.217	4405
865.349	4402
865.48	4417
865.612	4459
865.743	4569
865.875	4462
866.006	4455
866.137	4447
866.269	4421
866.4	4440
866.531	4478
866.662	4394
866.793	4398
866.924	4405
867.055	4478
867.186	4417
867.317	4394
867.448	4379
867.579	4379
867.71	4375
867.841	4375
867.972	4436
868.103	4462
868.233	4436
868.364	4470
868.495	4500
868.625	4649
868.756	4691
868.886	4546
869.017	4607
869.147	4793
869.278	4714
869.408	4622
869.539	4607
869.669	4714
869.799	4607
869.929	4763
870.06	4710
870.19	4908
870.32	4854
870.45	4923
870.58	5006
870.71	5067
870.84	5086
870.97	4889
871.1	4896
871.23	5071
871.36	5083
871.489	4987
871.619	5064
871.749	5029
871.879	5105
872.008	5178
872.138	5064
872.267	4976
872.397	4873
872.526	4812
872.656	4706
872.785	4835
872.915	4919
873.044	4976
873.173	4923
873.303	4938
873.432	4911
873.561	4987
873.69	4904
873.819	4862
873.948	4904
874.077	4862
874.206	4828
874.335	4755
874.464	4927
874.593	5048
874.722	4919
874.851	5098
874.979	4980
875.108	5025
875.237	4847
875.365	4835
875.494	4892
875.623	4946
875.751	4820
875.88	4908
876.008	4911
876.136	5018
876.265	5204
876.393	5326
876.521	5212
876.65	5197
876.778	5193
876.906	5075
877.034	5033
877.162	5048
877.29	4999
877.418	5037
877.546	5033
877.674	5022
877.802	4987
877.93	5025
878.058	4953
878.185	4892
878.313	4946
878.441	4972
878.568	4771
878.696	4839
878.824	4942
878.951	4965
879.079	5105
879.206	5303
879.333	5071
879.461	4949
879.588	5003
879.715	5109
879.842	5193
879.97	5033
880.097	4778
880.224	4755
880.351	4828
880.478	4820
880.605	4820
880.732	4801
880.859	5105
880.986	4919
881.112	4911
881.239	4801
881.366	4641
881.493	4569
881.619	4569
881.746	4634
881.872	4626
881.999	4660
882.125	4664
882.252	4771
882.378	4759
882.505	4965
882.631	4729
882.757	4660
882.883	4710
883.01	4755
883.136	4702
883.262	4622
883.388	4603
883.514	4736
883.64	4831
883.766	4786
883.892	4714
884.018	4733
884.143	4862
884.269	4980
884.395	4702
884.52	4653
884.646	4599
884.772	4569
884.897	4561
885.023	4637
885.148	4759
885.274	4831
885.399	4824
885.524	4702
885.65	4736
885.775	4744
885.9	4729
886.025	4809
886.15	4774
886.275	4744
886.4	4607
886.525	4714
886.65	4656
886.775	4660
886.9	4835
887.025	4965
887.149	4824
887.274	4660
887.399	4554
887.523	4637
887.648	4546
887.773	4569
887.897	4733
888.021	4748
888.146	4611
888.27	4793
888.395	4870
888.519	4729
888.643	4854
888.767	4843
888.891	4656
889.015	4580
889.139	4641
889.263	4580
889.387	4748
889.511	4866
889.635	4774
889.759	4637
889.883	4637
890.006	4706
890.13	4809
890.254	4626
890.377	4649
890.501	4554
890.624	4508
890.748	4607
890.871	4478
890.995	4390
891.118	4386
891.241	4485
891.364	4523
891.488	4634
891.611	4512
891.734	4493
891.857	4550
891.98	4531
892.103	4649
892.226	4577
892.349	4516
892.471	4413
892.594	4577
892.717	4592
892.839	4531
892.962	4569
893.085	4645
893.207	4588
893.33	4440
893.452	4508
893.575	4698
893.697	4584
893.819	4759
893.941	4801
894.064	4778
894.186	4573
894.308	4550
894.43	4694
894.552	4797
894.674	4679
894.796	4504
894.918	4565
895.04	4485
895.161	4687
895.283	4679
895.405	4561
895.526	4656
895.648	4672
895.769	4683
895.891	4717
896.012	4675
896.134	4717
896.255	4675
896.376	4626
896.498	4603
896.619	4702
896.74	4565
896.861	4622
896.982	4927
897.103	5105
897.224	4812
897.345	4744
897.466	4649
897.587	4744
897.708	4862
897.828	4820
897.949	4653
898.07	4565
898.19	4660
898.311	4862
898.431	4641
898.552	4725
898.672	4820
898.792	4812
898.913	4721
899.033	4611
899.153	4516
899.273	4447
899.393	4500
899.513	4508
899.633	4512
899.753	4531
899.873	4470
899.993	4596
900.113	4535
900.232	4622
900.352	4538
900.472	4459
900.591	4383
900.711	4481
900.83	4363
900.95	4618
901.069	4634
901.189	4569
901.308	4329
901.427	4367
901.546	4329
901.665	4459
901.784	4504
901.904	4333
902.023	4299
902.141	4200
902.26	4207
902.379	4322
902.498	4253
902.617	4227
902.735	4409
902.854	4386
902.973	4318
903.091	4147
903.21	4207
903.328	4287
903.446	4246
903.565	4265
903.683	4367
903.801	4280
903.919	4413
904.038	4371
904.156	4314
904.274	4440
904.392	4413
904.51	4436
904.627	4470
904.745	4565
904.863	4618
904.981	4421
905.098	4333
905.216	4383
905.334	4440
905.451	4478
905.569	4436
905.686	4546
905.803	4516
905.921	4394
906.038	4558
906.155	4516
906.272	4390
906.389	4443
906.506	4352
906.623	4383
906.74	4375
906.857	4314
906.974	4398
907.091	4531
907.208	4729
907.324	4580
907.441	4447
907.557	4325
907.674	4356
907.79	4291
907.907	4405
908.023	4474
908.139	4493
908.256	4462
908.372	4459
908.488	4409
908.604	4367
908.72	4314
908.836	4360
908.952	4371
909.068	4421
909.184	4573
909.3	4443
909.415	4607
909.531	4535
909.647	4333
909.762	4348
909.878	4272
909.993	4470
910.108	4405
910.224	4394
910.339	4455
910.454	4367
910.57	4348
910.685	4268
910.8	4656
910.915	4615
911.03	4519
911.145	4344
911.259	4348
911.374	4394
911.489	4272
911.604	4299
911.718	4185
911.833	4196
911.947	4112
912.062	3998
912.176	4188
912.291	4257
912.405	4215
912.519	4413
912.633	4523
912.748	4363
912.862	4272
912.976	4219
913.09	4120
913.204	4162
913.318	4223
913.431	4360
913.545	4363
913.659	4424
913.772	4341
913.886	4238
914	4196
914.113	4386
914.226	4394
914.34	4394
914.453	4215
914.566	4417
914.68	4337
914.793	4306
914.906	4162
915.019	4177
915.132	4055
915.245	4211
915.358	4169
915.47	4215
915.583	4280
915.696	4287
915.809	4402
915.921	4440
916.034	4268
916.146	4230
916.259	4242
916.371	4367
916.483	4325
916.595	4242
916.708	4303
916.82	4287
916.932	4333
917.044	4341
917.156	4310
917.268	4177
917.38	4253
917.491	4242
917.603	4398
917.715	4409
917.826	4447
917.938	4341
918.049	4253
918.161	4383
918.272	4500
918.384	4538
918.495	4424
918.606	4253
918.717	4253
918.828	4344
918.939	4367
919.05	4207
919.161	4314
919.272	4143
919.383	4227
919.494	4451
919.604	4603
919.715	4428
919.826	4352
919.936	4421
920.047	4542
920.157	4493
920.267	4698
920.378	4554
920.488	4481
920.598	4698
920.708	4873
920.818	4767
920.928	4763
921.038	4930
921.148	4873
921.258	4622
921.368	4508
921.477	4516
921.587	4489
921.697	4348
921.806	4558
921.916	4424
922.025	4341
922.134	4261
922.244	4200
922.353	4295
922.462	4150
922.571	4124
922.68	4040
922.789	3949
922.898	4006
923.007	4002
923.116	4128
923.224	4071
923.333	4051
923.442	3979
923.55	3964
923.659	4017
923.767	4112
923.876	4002
923.984	4116
924.092	3949
924.201	4017
924.309	4097
924.417	4097
924.525	4029
924.633	4071
924.741	5064
924.849	3915
924.956	4135
925.064	3930
925.172	3915
925.279	3953
925.387	4010
925.494	4090
925.602	4219
925.709	4185
925.816	4013
925.924	4131
926.031	4166
926.138	4124
926.245	4223
926.352	4071
926.459	4287
926.566	4303
926.673	4150
926.779	4044
926.886	4074
926.993	3979
927.099	3930
927.206	3911
927.312	3907
927.419	4071
927.525	4021
927.631	4059
927.737	3926
927.843	3915
927.95	3816
928.056	3922
928.162	3994
928.267	4048
928.373	4679
928.479	4135
928.585	3861
928.69	4025
928.796	4044
928.901	3979
929.007	3850
929.112	4002
929.218	3956
929.323	3975
929.428	3975
929.533	4120
929.638	3896
929.743	3968
929.848	4017
929.953	3945
930.058	3911
930.163	3816
930.267	3816
930.372	3953
930.477	3789
930.581	4093
930.685	3945
930.79	3789
930.894	3876
930.998	3892
931.103	4059
931.207	3732
931.311	3675
931.415	3667
931.519	3530
931.623	3545
