Data from test_V78500241_1496.txt Node
Date: Fri Mar 25 16:59:24 CST 2022
User: usil
Spectrometer: V785-0024
Trigger mode: 0
Integration Time (sec): 4.000000E-1
Scans to average: 1
Nonlinearity correction enabled: false
Boxcar width: 0
Storing dark spectrum: false
XAxis mode: Wavelengths
Number of Pixels in Spectrum: 1024
>>>>>Begin Spectral Data<<<<<
801.071	8005
801.214	8027
801.356	7890
801.499	7868
801.641	7818
801.783	7830
801.926	7944
802.068	7921
802.211	7967
802.353	7970
802.496	7875
802.638	7887
802.78	7906
802.923	7970
803.065	7898
803.208	7792
803.35	7974
803.492	8065
803.635	8279
803.777	8046
803.919	8077
804.061	8469
804.204	8130
804.346	8024
804.488	7974
804.63	8115
804.773	8008
804.915	8153
805.057	8275
805.199	8130
805.341	8240
805.483	8320
805.626	8206
805.768	8187
805.91	8233
806.052	8233
806.194	8138
806.336	8279
806.478	8054
806.62	8077
806.762	8157
806.904	8256
807.046	8492
807.188	8381
807.33	8339
807.472	8351
807.614	8157
807.756	8164
807.898	8005
808.04	7917
808.182	7852
808.324	7898
808.465	7959
808.607	8046
808.749	8123
808.891	8183
809.033	8271
809.174	8191
809.316	8096
809.458	8138
809.6	7989
809.741	8062
809.883	8073
810.025	8069
810.166	8046
810.308	8043
810.45	8035
810.591	7860
810.733	7757
810.875	7639
811.016	7502
811.158	7502
811.299	7616
811.441	7780
811.582	7727
811.724	7540
811.865	7544
812.007	7548
812.148	7636
812.29	7677
812.431	7750
812.573	7967
812.714	7997
812.855	8100
812.997	8191
813.138	8370
813.279	8233
813.421	8084
813.562	8020
813.703	7841
813.845	7704
813.986	7449
814.127	7209
814.268	7251
814.41	7152
814.551	7149
814.692	7175
814.833	7107
814.974	7198
815.115	7122
815.256	6996
815.397	6890
815.539	6932
815.68	6825
815.821	6837
815.962	6924
816.103	6844
816.244	6703
816.385	6597
816.526	6597
816.666	6555
816.807	6334
816.948	6422
817.089	6418
817.23	6399
817.371	6399
817.512	6388
817.653	6357
817.793	6372
817.934	6467
818.075	6448
818.216	6422
818.356	6361
818.497	6281
818.638	6125
818.778	6155
818.919	6155
819.06	6190
819.2	6292
819.341	6350
819.481	6388
819.622	6483
819.762	6722
819.903	6726
820.043	6608
820.184	6669
820.324	6589
820.465	6669
820.605	6646
820.746	6700
820.886	6559
821.026	6650
821.167	6654
821.307	6802
821.447	6779
821.588	6684
821.728	6601
821.868	6513
822.008	6334
822.149	6346
822.289	6403
822.429	6140
822.569	6136
822.709	6144
822.849	5912
822.99	5904
823.13	5920
823.27	5977
823.41	5836
823.55	5798
823.69	5813
823.83	5767
823.97	5665
824.11	5554
824.25	5486
824.389	5535
824.529	5604
824.669	5478
824.809	5653
824.949	5680
825.089	5638
825.228	5551
825.368	5410
825.508	5379
825.648	5395
825.787	5372
825.927	5372
826.067	5307
826.206	5299
826.346	5383
826.485	5391
826.625	5493
826.765	5573
826.904	5452
827.044	5231
827.183	5201
827.323	5162
827.462	5296
827.601	5147
827.741	5189
827.88	5204
828.02	5090
828.159	5269
828.298	5311
828.437	5387
828.577	5239
828.716	5463
828.855	5299
828.994	5189
829.134	5113
829.273	5227
829.412	5201
829.551	5166
829.69	5162
829.829	5288
829.968	5364
830.107	5280
830.246	5288
830.385	5227
830.524	5128
830.663	5079
830.802	4999
830.941	4900
831.08	4896
831.219	4991
831.357	4942
831.496	5109
831.635	4900
831.774	4847
831.913	4873
832.051	4694
832.19	4782
832.329	4854
832.467	4702
832.606	4603
832.744	4748
832.883	4729
833.022	4763
833.16	4801
833.299	4839
833.437	4850
833.576	4805
833.714	4873
833.852	4889
833.991	4908
834.129	4999
834.267	4953
834.406	4968
834.544	4999
834.682	4980
834.821	4987
834.959	5174
835.097	4991
835.235	5102
835.373	5033
835.511	5060
835.65	5022
835.788	5010
835.926	4938
836.064	4831
836.202	4900
836.34	5216
836.478	5193
836.615	5162
836.753	5246
836.891	5292
837.029	5254
837.167	5178
837.305	5140
837.443	5132
837.58	5060
837.718	5231
837.856	5185
837.993	5166
838.131	5242
838.269	5208
838.406	5193
838.544	5201
838.681	5090
838.819	5033
838.956	4908
839.094	4866
839.231	5010
839.369	5117
839.506	5421
839.643	5235
839.781	5060
839.918	4972
840.055	5102
840.193	5098
840.33	5117
840.467	5143
840.604	5189
840.742	5421
840.879	5098
841.016	5128
841.153	5166
841.29	5326
841.427	5341
841.564	5345
841.701	5357
841.838	5250
841.975	5254
842.112	5239
842.249	5121
842.385	5083
842.522	5410
842.659	5178
842.796	5140
842.933	5197
843.069	5143
843.206	5105
843.343	5296
843.479	5284
843.616	5197
843.752	5014
843.889	5041
844.025	5208
844.162	5029
844.298	5185
844.435	5105
844.571	5022
844.708	5216
844.844	5273
844.98	5330
845.117	5326
845.253	5166
845.389	5094
845.525	5151
845.661	5155
845.798	5052
845.934	5117
846.07	5064
846.206	5181
846.342	5258
846.478	5159
846.614	4995
846.75	4991
846.886	4949
847.022	5105
847.158	5045
847.294	5022
847.429	5075
847.565	5086
847.701	5288
847.837	4850
847.972	4782
848.108	4946
848.244	4927
848.379	4767
848.515	4733
848.65	4694
848.786	4759
848.921	4771
849.057	4881
849.192	4889
849.328	4816
849.463	4847
849.598	4809
849.734	4763
849.869	4679
850.004	4660
850.14	4664
850.275	4588
850.41	4535
850.545	4577
850.68	4558
850.815	4637
850.95	4653
851.085	4820
851.22	4767
851.355	4679
851.49	4656
851.625	4672
851.76	4607
851.895	4580
852.03	4516
852.165	4683
852.299	4710
852.434	4797
852.569	4714
852.703	4797
852.838	4870
852.973	4919
853.107	4911
853.242	4767
853.376	4649
853.511	4565
853.645	4672
853.78	4820
853.914	4672
854.048	4653
854.183	4615
854.317	4706
854.451	4858
854.585	4672
854.72	4634
854.854	4725
854.988	4615
855.122	4634
855.256	4516
855.39	4675
855.524	4771
855.658	4729
855.792	4710
855.926	4752
856.06	4733
856.194	4850
856.327	4702
856.461	4637
856.595	4592
856.729	4630
856.862	4748
856.996	4725
857.13	4729
857.263	4721
857.397	4831
857.53	4668
857.664	4740
857.797	4790
857.931	4767
858.064	4653
858.197	4714
858.331	4645
858.464	4607
858.597	4519
858.731	4645
858.864	4622
858.997	4584
859.13	4687
859.263	4679
859.396	4656
859.529	4561
859.662	4569
859.795	4538
859.928	4660
860.061	4721
860.194	4729
860.327	4618
860.46	4542
860.592	4755
860.725	4767
860.858	4717
860.99	4592
861.123	4554
861.256	4535
861.388	4603
861.521	5326
861.653	4497
861.786	4459
861.918	4481
862.05	4508
862.183	4538
862.315	4588
862.447	4675
862.58	4558
862.712	4390
862.844	4360
862.976	4500
863.108	4432
863.24	4778
863.372	4291
863.504	4409
863.636	4436
863.768	4462
863.9	4432
864.032	4337
864.164	4383
864.296	4466
864.428	4542
864.559	4538
864.691	4535
864.823	4497
864.954	4440
865.086	4516
865.217	4462
865.349	4398
865.48	4447
865.612	4466
865.743	4656
865.875	4443
866.006	4367
866.137	4500
866.269	4436
866.4	4402
866.531	4421
866.662	4363
866.793	4443
866.924	4428
867.055	4504
867.186	4409
867.317	4440
867.448	4383
867.579	4363
867.71	4409
867.841	4352
867.972	4504
868.103	4497
868.233	4413
868.364	4432
868.495	4546
868.625	4675
868.756	4721
868.886	4592
869.017	4569
869.147	4752
869.278	4752
869.408	4653
869.539	4622
869.669	4706
869.799	4702
869.929	4752
870.06	4714
870.19	4900
870.32	4911
870.45	4957
870.58	4991
870.71	5086
870.84	5079
870.97	4984
871.1	4862
871.23	5079
871.36	5086
871.489	5037
871.619	5033
871.749	5094
871.879	5079
872.008	5201
872.138	5079
872.267	4938
872.397	4812
872.526	4820
872.656	4778
872.785	4805
872.915	4984
873.044	5060
873.173	4915
873.303	4980
873.432	4911
873.561	4934
873.69	4892
873.819	4885
873.948	4923
874.077	4771
874.206	4801
874.335	4812
874.464	4896
874.593	5067
874.722	4942
874.851	5113
874.979	5014
875.108	5033
875.237	4889
875.365	4900
875.494	4881
875.623	4991
875.751	4824
875.88	4900
876.008	5022
876.136	5006
876.265	5185
876.393	5357
876.521	5250
876.65	5201
876.778	5121
876.906	5052
877.034	5041
877.162	5037
877.29	4999
877.418	5052
877.546	4999
877.674	4976
877.802	4995
877.93	5006
878.058	4927
878.185	4847
878.313	4957
878.441	4976
878.568	4786
878.696	4862
878.824	4957
878.951	5045
879.079	5132
879.206	5280
879.333	5098
879.461	5003
879.588	4999
879.715	5140
879.842	5189
879.97	5014
880.097	4752
880.224	4767
880.351	4847
880.478	4835
880.605	4797
880.732	4778
880.859	5029
880.986	4816
881.112	4873
881.239	4809
881.366	4656
881.493	4607
881.619	4561
881.746	4584
881.872	4698
881.999	4698
882.125	4656
882.252	4755
882.378	4805
882.505	4934
882.631	4744
882.757	4630
882.883	4755
883.01	4717
883.136	4736
883.262	4584
883.388	4634
883.514	4793
883.64	4896
883.766	4740
883.892	4675
884.018	4679
884.143	4881
884.269	4980
884.395	4656
884.52	4645
884.646	4622
884.772	4577
884.897	4550
885.023	4645
885.148	4797
885.274	4862
885.399	4820
885.524	4725
885.65	4706
885.775	4790
885.9	4744
886.025	4839
886.15	4805
886.275	4725
886.4	4630
886.525	4694
886.65	4683
886.775	4698
886.9	4889
887.025	5037
887.149	4816
887.274	4630
887.399	4622
887.523	4615
887.648	4573
887.773	4618
887.897	4767
888.021	4774
888.146	4668
888.27	4767
888.395	4911
888.519	4805
888.643	4790
888.767	4820
888.891	4679
889.015	4596
889.139	4645
889.263	4588
889.387	4736
889.511	4812
889.635	4801
889.759	4637
889.883	4660
890.006	4714
890.13	4809
890.254	4615
890.377	4645
890.501	4527
890.624	4519
890.748	4618
890.871	4519
890.995	4443
891.118	4386
891.241	4508
891.364	4497
891.488	4630
891.611	4497
891.734	4527
891.857	4611
891.98	4569
892.103	4607
892.226	4542
892.349	4485
892.471	4394
892.594	4565
892.717	4603
892.839	4588
892.962	4561
893.085	4645
893.207	4554
893.33	4485
893.452	4542
893.575	4641
893.697	4603
893.819	4801
893.941	4831
894.064	4790
894.186	4527
894.308	4538
894.43	4710
894.552	4858
894.674	4706
894.796	4569
894.918	4565
895.04	4546
895.161	4683
895.283	4656
895.405	4580
895.526	4641
895.648	4668
895.769	4675
895.891	4653
896.012	4660
896.134	4740
896.255	4668
896.376	4611
896.498	4626
896.619	4660
896.74	4611
896.861	4641
896.982	4885
897.103	5067
897.224	4771
897.345	4778
897.466	4630
897.587	4710
897.708	4866
897.828	4748
897.949	4702
898.07	4569
898.19	4592
898.311	4812
898.431	4660
898.552	4733
898.672	4771
898.792	4786
898.913	4733
899.033	4622
899.153	4478
899.273	4417
899.393	4447
899.513	4474
899.633	4527
899.753	4546
899.873	4489
899.993	4535
900.113	4550
900.232	4634
900.352	4561
900.472	4504
900.591	4341
900.711	4470
900.83	4402
900.95	4577
901.069	4694
901.189	4523
901.308	4318
901.427	4344
901.546	4371
901.665	4478
901.784	4508
901.904	4436
902.023	4284
902.141	4196
902.26	4143
902.379	4322
902.498	4280
902.617	4188
902.735	4421
902.854	4352
902.973	4360
903.091	4188
903.21	4230
903.328	4314
903.446	4272
903.565	4253
903.683	4375
903.801	4284
903.919	4417
904.038	4409
904.156	4356
904.274	4413
904.392	4341
904.51	4474
904.627	4474
904.745	4523
904.863	4649
904.981	4417
905.098	4299
905.216	4325
905.334	4417
905.451	4451
905.569	4356
905.686	4561
905.803	4550
905.921	4417
906.038	4508
906.155	4500
906.272	4333
906.389	4428
906.506	4291
906.623	4352
906.74	4424
906.857	4306
906.974	4402
907.091	4550
907.208	4672
907.324	4554
907.441	4527
907.557	4398
907.674	4352
907.79	4337
907.907	4383
908.023	4489
908.139	4459
908.256	4451
908.372	4470
908.488	4394
908.604	4348
908.72	4280
908.836	4390
908.952	4341
909.068	4462
909.184	4569
909.3	4455
909.415	4599
909.531	4493
909.647	4375
909.762	4375
909.878	4310
909.993	4436
910.108	4394
910.224	4432
910.339	4466
910.454	4394
910.57	4329
910.685	4299
910.8	4641
910.915	4607
911.03	4462
911.145	4341
911.259	4344
911.374	4360
911.489	4310
911.604	4272
911.718	4169
911.833	4215
911.947	4067
912.062	4017
912.176	4223
912.291	4223
912.405	4211
912.519	4436
912.633	4497
912.748	4394
912.862	4322
912.976	4162
913.09	4154
913.204	4192
913.318	4234
913.431	4322
913.545	4386
913.659	4443
913.772	4344
913.886	4238
914	4227
914.113	4379
914.226	4440
914.34	4398
914.453	4238
914.566	4402
914.68	4303
914.793	4352
914.906	4158
915.019	4139
915.132	4112
915.245	4166
915.358	4238
915.47	4196
915.583	4223
915.696	4322
915.809	4360
915.921	4443
916.034	4253
916.146	4276
916.259	4227
916.371	4383
916.483	4322
916.595	4280
916.708	4314
916.82	4272
916.932	4352
917.044	4367
917.156	4322
917.268	4249
917.38	4306
917.491	4268
917.603	4310
917.715	4417
917.826	4428
917.938	4341
918.049	4253
918.161	4360
918.272	4550
918.384	4523
918.495	4417
918.606	4276
918.717	4234
918.828	4314
918.939	4379
919.05	4257
919.161	4322
919.272	4116
919.383	4223
919.494	4478
919.604	4630
919.715	4447
919.826	4379
919.936	4424
920.047	4500
920.157	4516
920.267	4679
920.378	4535
920.488	4500
920.598	4702
920.708	4885
920.818	4733
920.928	4725
921.038	4908
921.148	4927
921.258	4656
921.368	4546
921.477	4478
921.587	4455
921.697	4371
921.806	4550
921.916	4474
922.025	4249
922.134	4272
922.244	4265
922.353	4268
922.462	4207
922.571	4082
922.68	3975
922.789	3979
922.898	3994
923.007	3956
923.116	4105
923.224	4063
923.333	4048
923.442	3949
923.55	4006
923.659	4006
923.767	4116
923.876	4032
923.984	4124
924.092	4006
924.201	4040
924.309	4120
924.417	4105
924.525	4071
924.633	4120
924.741	4938
924.849	3899
924.956	4135
925.064	3956
925.172	3907
925.279	3994
925.387	4044
925.494	4082
925.602	4154
925.709	4192
925.816	4048
925.924	4109
926.031	4207
926.138	4169
926.245	4188
926.352	4074
926.459	4227
926.566	4295
926.673	4166
926.779	4097
926.886	4101
926.993	4017
927.099	3960
927.206	3918
927.312	3964
927.419	4082
927.525	4010
927.631	4059
927.737	3930
927.843	3911
927.95	3831
928.056	3953
928.162	4025
928.267	4029
928.373	4596
928.479	4147
928.585	3876
928.69	3991
928.796	4067
928.901	3945
929.007	3854
929.112	4021
929.218	3975
929.323	3979
929.428	3934
929.533	4078
929.638	3930
929.743	3994
929.848	4036
929.953	4006
930.058	3892
930.163	3770
930.267	3831
930.372	3968
930.477	3816
930.581	4078
930.685	3975
930.79	3823
930.894	3865
930.998	3854
931.103	4025
931.207	3671
931.311	3705
931.415	3675
931.519	3511
931.623	3515
