Data from test_V78500241_695.txt Node
Date: Fri Mar 25 16:53:50 CST 2022
User: usil
Spectrometer: V785-0024
Trigger mode: 0
Integration Time (sec): 4.000000E-1
Scans to average: 1
Nonlinearity correction enabled: false
Boxcar width: 0
Storing dark spectrum: false
XAxis mode: Wavelengths
Number of Pixels in Spectrum: 1024
>>>>>Begin Spectral Data<<<<<
801.071	8027
801.214	8046
801.356	7932
801.499	7887
801.641	7860
801.783	7868
801.926	8043
802.068	8031
802.211	8039
802.353	7986
802.496	7856
802.638	7887
802.78	7925
802.923	7906
803.065	7841
803.208	7822
803.35	8043
803.492	8031
803.635	8202
803.777	8088
803.919	8153
804.061	8434
804.204	8123
804.346	7986
804.488	7982
804.63	8062
804.773	8008
804.915	8088
805.057	8271
805.199	8218
805.341	8210
805.483	8294
805.626	8214
805.768	8077
805.91	8191
806.052	8221
806.194	8100
806.336	8252
806.478	8111
806.62	8069
806.762	8176
806.904	8271
807.046	8469
807.188	8351
807.33	8320
807.472	8332
807.614	8145
807.756	8103
807.898	7917
808.04	7849
808.182	7864
808.324	7947
808.465	7890
808.607	7993
808.749	8123
808.891	8172
809.033	8256
809.174	8229
809.316	8084
809.458	8107
809.6	8065
809.741	8016
809.883	8008
810.025	8062
810.166	8069
810.308	8046
810.45	8077
810.591	7898
810.733	7738
810.875	7723
811.016	7537
811.158	7540
811.299	7578
811.441	7742
811.582	7715
811.724	7556
811.865	7514
812.007	7643
812.148	7601
812.29	7651
812.431	7677
812.573	7887
812.714	7989
812.855	8145
812.997	8237
813.138	8332
813.279	8214
813.421	8096
813.562	8050
813.703	7928
813.845	7700
813.986	7487
814.127	7259
814.268	7324
814.41	7194
814.551	7110
814.692	7175
814.833	7076
814.974	7072
815.115	7122
815.256	6962
815.397	7015
815.539	7038
815.68	6958
815.821	6772
815.962	6901
816.103	6852
816.244	6665
816.385	6604
816.526	6604
816.666	6517
816.807	6357
816.948	6441
817.089	6433
817.23	6426
817.371	6365
817.512	6388
817.653	6429
817.793	6346
817.934	6407
818.075	6429
818.216	6479
818.356	6395
818.497	6197
818.638	6129
818.778	6194
818.919	6175
819.06	6121
819.2	6323
819.341	6258
819.481	6353
819.622	6540
819.762	6730
819.903	6719
820.043	6536
820.184	6570
820.324	6597
820.465	6734
820.605	6677
820.746	6673
820.886	6502
821.026	6604
821.167	6711
821.307	6802
821.447	6738
821.588	6692
821.728	6582
821.868	6452
822.008	6311
822.149	6395
822.289	6376
822.429	6129
822.569	6106
822.709	6117
822.849	5984
822.99	5923
823.13	5954
823.27	5912
823.41	5748
823.55	5817
823.69	5794
823.83	5729
823.97	5714
824.11	5585
824.25	5566
824.389	5528
824.529	5619
824.669	5471
824.809	5619
824.949	5642
825.089	5627
825.228	5562
825.368	5391
825.508	5360
825.648	5368
825.787	5425
825.927	5410
826.067	5311
826.206	5292
826.346	5414
826.485	5395
826.625	5387
826.765	5509
826.904	5512
827.044	5269
827.183	5166
827.323	5155
827.462	5235
827.601	5136
827.741	5193
827.88	5246
828.02	5064
828.159	5284
828.298	5322
828.437	5368
828.577	5303
828.716	5490
828.855	5311
828.994	5193
829.134	5094
829.273	5216
829.412	5193
829.551	5166
829.69	5185
829.829	5246
829.968	5357
830.107	5223
830.246	5258
830.385	5155
830.524	5151
830.663	5060
830.802	5022
830.941	4885
831.08	4930
831.219	4987
831.357	5029
831.496	5181
831.635	4915
831.774	4843
831.913	4858
832.051	4755
832.19	4729
832.329	4870
832.467	4725
832.606	4634
832.744	4740
832.883	4691
833.022	4721
833.16	4805
833.299	4873
833.437	4790
833.576	4847
833.714	4873
833.852	4885
833.991	4923
834.129	4968
834.267	4915
834.406	4949
834.544	4976
834.682	5018
834.821	4953
834.959	5166
835.097	4976
835.235	5117
835.373	5098
835.511	5102
835.65	5029
835.788	5014
835.926	4885
836.064	4862
836.202	4942
836.34	5166
836.478	5212
836.615	5079
836.753	5220
836.891	5311
837.029	5242
837.167	5143
837.305	5181
837.443	5178
837.58	5083
837.718	5201
837.856	5128
837.993	5155
838.131	5284
838.269	5216
838.406	5162
838.544	5181
838.681	5086
838.819	5029
838.956	4858
839.094	4904
839.231	5025
839.369	5079
839.506	5448
839.643	5299
839.781	5113
839.918	5060
840.055	5109
840.193	5094
840.33	5113
840.467	5136
840.604	5223
840.742	5402
840.879	5105
841.016	5105
841.153	5132
841.29	5376
841.427	5334
841.564	5322
841.701	5376
841.838	5303
841.975	5201
842.112	5250
842.249	5083
842.385	5121
842.522	5357
842.659	5189
842.796	5216
842.933	5235
843.069	5212
843.206	5178
843.343	5334
843.479	5235
843.616	5277
843.752	5022
843.889	5014
844.025	5197
844.162	5064
844.298	5231
844.435	5090
844.571	5060
844.708	5208
844.844	5341
844.98	5368
845.117	5299
845.253	5143
845.389	5105
845.525	5140
845.661	5136
845.798	5037
845.934	5090
846.07	5048
846.206	5174
846.342	5288
846.478	5170
846.614	5060
846.75	4953
846.886	4930
847.022	5189
847.158	4999
847.294	5098
847.429	5136
847.565	5006
847.701	5341
847.837	4889
847.972	4767
848.108	4953
848.244	4915
848.379	4748
848.515	4687
848.65	4687
848.786	4752
848.921	4778
849.057	4870
849.192	4843
849.328	4790
849.463	4843
849.598	4786
849.734	4771
849.869	4702
850.004	4675
850.14	4664
850.275	4637
850.41	4512
850.545	4565
850.68	4626
850.815	4592
850.95	4634
851.085	4843
851.22	4736
851.355	4698
851.49	4599
851.625	4637
851.76	4656
851.895	4554
852.03	4508
852.165	4649
852.299	4744
852.434	4835
852.569	4752
852.703	4782
852.838	4824
852.973	4919
853.107	4919
853.242	4793
853.376	4687
853.511	4538
853.645	4626
853.78	4873
853.914	4694
854.048	4710
854.183	4615
854.317	4714
854.451	4904
854.585	4687
854.72	4615
854.854	4774
854.988	4569
855.122	4641
855.256	4512
855.39	4691
855.524	4778
855.658	4675
855.792	4706
855.926	4752
856.06	4717
856.194	4782
856.327	4675
856.461	4577
856.595	4618
856.729	4672
856.862	4797
856.996	4710
857.13	4729
857.263	4786
857.397	4812
857.53	4694
857.664	4694
857.797	4771
857.931	4786
858.064	4653
858.197	4748
858.331	4649
858.464	4565
858.597	4573
858.731	4622
858.864	4660
858.997	4580
859.13	4694
859.263	4672
859.396	4714
859.529	4573
859.662	4599
859.795	4550
859.928	4618
860.061	4752
860.194	4797
860.327	4656
860.46	4546
860.592	4725
860.725	4687
860.858	4736
860.99	4561
861.123	4504
861.256	4512
861.388	4641
861.521	5315
861.653	4516
861.786	4462
861.918	4462
862.05	4470
862.183	4527
862.315	4622
862.447	4656
862.58	4561
862.712	4363
862.844	4325
862.976	4478
863.108	4466
863.24	4919
863.372	4337
863.504	4363
863.636	4432
863.768	4481
863.9	4424
864.032	4363
864.164	4383
864.296	4493
864.428	4531
864.559	4550
864.691	4508
864.823	4512
864.954	4462
865.086	4516
865.217	4455
865.349	4386
865.48	4440
865.612	4485
865.743	4641
865.875	4428
866.006	4440
866.137	4459
866.269	4462
866.4	4436
866.531	4405
866.662	4409
866.793	4428
866.924	4424
867.055	4519
867.186	4462
867.317	4443
867.448	4383
867.579	4402
867.71	4402
867.841	4337
867.972	4451
868.103	4470
868.233	4436
868.364	4436
868.495	4535
868.625	4634
868.756	4778
868.886	4561
869.017	4622
869.147	4774
869.278	4717
869.408	4630
869.539	4577
869.669	4664
869.799	4649
869.929	4733
870.06	4748
870.19	4934
870.32	4896
870.45	4889
870.58	4991
870.71	5056
870.84	5098
870.97	4957
871.1	4934
871.23	5128
871.36	5098
871.489	5018
871.619	5052
871.749	5105
871.879	5105
872.008	5159
872.138	4991
872.267	4987
872.397	4828
872.526	4774
872.656	4725
872.785	4831
872.915	4968
873.044	5064
873.173	4957
873.303	4976
873.432	4938
873.561	4927
873.69	4885
873.819	4877
873.948	4889
874.077	4805
874.206	4809
874.335	4801
874.464	4942
874.593	5075
874.722	4953
874.851	5159
874.979	5052
875.108	4991
875.237	4938
875.365	4866
875.494	4873
875.623	4972
875.751	4809
875.88	4877
876.008	4987
876.136	5014
876.265	5178
876.393	5296
876.521	5185
876.65	5239
876.778	5162
876.906	5117
877.034	5029
877.162	5048
877.29	4987
877.418	5071
877.546	4984
877.674	5086
877.802	4984
877.93	4980
878.058	4900
878.185	4854
878.313	4934
878.441	4873
878.568	4816
878.696	4850
878.824	4999
878.951	4968
879.079	5109
879.206	5189
879.333	5090
879.461	4972
879.588	5025
879.715	5136
879.842	5193
879.97	5025
880.097	4790
880.224	4755
880.351	4793
880.478	4805
880.605	4767
880.732	4744
880.859	5064
880.986	4911
881.112	4885
881.239	4824
881.366	4660
881.493	4599
881.619	4546
881.746	4622
881.872	4634
881.999	4653
882.125	4656
882.252	4786
882.378	4870
882.505	4972
882.631	4793
882.757	4649
882.883	4767
883.01	4752
883.136	4679
883.262	4580
883.388	4573
883.514	4816
883.64	4866
883.766	4828
883.892	4691
884.018	4759
884.143	4873
884.269	5041
884.395	4672
884.52	4634
884.646	4649
884.772	4592
884.897	4558
885.023	4660
885.148	4786
885.274	4843
885.399	4809
885.524	4717
885.65	4683
885.775	4763
885.9	4668
886.025	4831
886.15	4752
886.275	4714
886.4	4630
886.525	4710
886.65	4702
886.775	4641
886.9	4938
887.025	5060
887.149	4786
887.274	4664
887.399	4607
887.523	4615
887.648	4611
887.773	4542
887.897	4774
888.021	4793
888.146	4729
888.27	4809
888.395	4908
888.519	4831
888.643	4816
888.767	4778
888.891	4675
889.015	4626
889.139	4634
889.263	4550
889.387	4736
889.511	4896
889.635	4793
889.759	4596
889.883	4626
890.006	4702
890.13	4847
890.254	4626
890.377	4706
890.501	4546
890.624	4512
890.748	4607
890.871	4493
890.995	4455
891.118	4409
891.241	4493
891.364	4558
891.488	4626
891.611	4550
891.734	4527
891.857	4550
891.98	4577
892.103	4668
892.226	4592
892.349	4523
892.471	4451
892.594	4550
892.717	4615
892.839	4569
892.962	4558
893.085	4687
893.207	4607
893.33	4466
893.452	4512
893.575	4626
893.697	4573
893.819	4774
893.941	4771
894.064	4793
894.186	4546
894.308	4554
894.43	4725
894.552	4790
894.674	4771
894.796	4535
894.918	4618
895.04	4580
895.161	4702
895.283	4622
895.405	4538
895.526	4649
895.648	4710
895.769	4752
895.891	4736
896.012	4725
896.134	4786
896.255	4691
896.376	4580
896.498	4607
896.619	4645
896.74	4527
896.861	4641
896.982	4908
897.103	5071
897.224	4828
897.345	4717
897.466	4660
897.587	4710
897.708	4850
897.828	4744
897.949	4725
898.07	4630
898.19	4637
898.311	4816
898.431	4698
898.552	4729
898.672	4820
898.792	4782
898.913	4771
899.033	4626
899.153	4478
899.273	4447
899.393	4481
899.513	4542
899.633	4538
899.753	4565
899.873	4531
899.993	4531
900.113	4573
900.232	4599
900.352	4569
900.472	4462
900.591	4356
900.711	4531
900.83	4383
900.95	4596
901.069	4672
901.189	4538
901.308	4341
901.427	4352
901.546	4386
901.665	4470
901.784	4527
901.904	4386
902.023	4299
902.141	4173
902.26	4173
902.379	4341
902.498	4219
902.617	4230
902.735	4371
902.854	4360
902.973	4337
903.091	4147
903.21	4257
903.328	4303
903.446	4284
903.565	4215
903.683	4329
903.801	4322
903.919	4379
904.038	4432
904.156	4299
904.274	4459
904.392	4402
904.51	4398
904.627	4432
904.745	4596
904.863	4622
904.981	4398
905.098	4287
905.216	4375
905.334	4405
905.451	4409
905.569	4386
905.686	4523
905.803	4550
905.921	4436
906.038	4565
906.155	4451
906.272	4390
906.389	4478
906.506	4352
906.623	4329
906.74	4398
906.857	4287
906.974	4386
907.091	4519
907.208	4641
907.324	4565
907.441	4459
907.557	4341
907.674	4303
907.79	4287
907.907	4371
908.023	4462
908.139	4459
908.256	4386
908.372	4436
908.488	4443
908.604	4314
908.72	4322
908.836	4379
908.952	4383
909.068	4462
909.184	4569
909.3	4519
909.415	4580
909.531	4554
909.647	4337
909.762	4390
909.878	4352
909.993	4474
910.108	4447
910.224	4409
910.339	4493
910.454	4409
910.57	4341
910.685	4265
910.8	4637
910.915	4561
911.03	4493
911.145	4333
911.259	4363
911.374	4325
911.489	4325
911.604	4268
911.718	4162
911.833	4242
911.947	4055
912.062	4029
912.176	4227
912.291	4238
912.405	4276
912.519	4485
912.633	4462
912.748	4356
912.862	4310
912.976	4219
913.09	4063
913.204	4169
913.318	4257
913.431	4367
913.545	4413
913.659	4394
913.772	4322
913.886	4242
914	4211
914.113	4363
914.226	4398
914.34	4356
914.453	4268
914.566	4402
914.68	4284
914.793	4337
914.906	4116
915.019	4135
915.132	4074
915.245	4177
915.358	4192
915.47	4253
915.583	4287
915.696	4306
915.809	4428
915.921	4409
916.034	4249
916.146	4253
916.259	4227
916.371	4417
916.483	4318
916.595	4287
916.708	4333
916.82	4310
916.932	4356
917.044	4318
917.156	4318
917.268	4207
917.38	4329
917.491	4253
917.603	4322
917.715	4424
917.826	4402
917.938	4371
918.049	4280
918.161	4375
918.272	4554
918.384	4531
918.495	4424
918.606	4310
918.717	4200
918.828	4322
918.939	4356
919.05	4265
919.161	4348
919.272	4090
919.383	4261
919.494	4417
919.604	4599
919.715	4459
919.826	4360
919.936	4379
920.047	4554
920.157	4470
920.267	4721
920.378	4516
920.488	4481
920.598	4706
920.708	4873
920.818	4740
920.928	4805
921.038	4995
921.148	4892
921.258	4717
921.368	4584
921.477	4474
921.587	4481
921.697	4363
921.806	4584
921.916	4459
922.025	4265
922.134	4257
922.244	4227
922.353	4333
922.462	4173
922.571	4101
922.68	3994
922.789	3968
922.898	3972
923.007	4013
923.116	4105
923.224	4048
923.333	4071
923.442	3953
923.55	3979
923.659	4021
923.767	4101
923.876	3994
923.984	4124
924.092	4006
924.201	4078
924.309	4086
924.417	4116
924.525	4044
924.633	4078
924.741	5041
924.849	3930
924.956	4124
925.064	3975
925.172	3907
925.279	3968
925.387	4048
925.494	4021
925.602	4211
925.709	4188
925.816	4040
925.924	4124
926.031	4246
926.138	4169
926.245	4230
926.352	4086
926.459	4219
926.566	4314
926.673	4143
926.779	4086
926.886	4086
926.993	4010
927.099	3956
927.206	3888
927.312	3941
927.419	4067
927.525	3979
927.631	4109
927.737	3930
927.843	3949
927.95	3835
928.056	3918
928.162	3972
928.267	4093
928.373	4660
928.479	4116
928.585	3880
928.69	4059
928.796	4082
928.901	3941
929.007	3827
929.112	4013
929.218	3994
929.323	3960
929.428	3994
929.533	4116
929.638	3896
929.743	3968
929.848	4067
929.953	4006
930.058	3945
930.163	3808
930.267	3842
930.372	4006
930.477	3808
930.581	4071
930.685	3960
930.79	3838
930.894	3892
930.998	3880
931.103	4074
931.207	3724
931.311	3766
931.415	3675
931.519	3534
931.623	3538
