Data from test_V78500241_1288.txt Node
Date: Fri Mar 25 16:57:57 CST 2022
User: usil
Spectrometer: V785-0024
Trigger mode: 0
Integration Time (sec): 4.000000E-1
Scans to average: 1
Nonlinearity correction enabled: false
Boxcar width: 0
Storing dark spectrum: false
XAxis mode: Wavelengths
Number of Pixels in Spectrum: 1024
>>>>>Begin Spectral Data<<<<<
801.071	7982
801.214	7986
801.356	7936
801.499	7841
801.641	7727
801.783	7738
801.926	7959
802.068	8016
802.211	7959
802.353	7986
802.496	7792
802.638	7841
802.78	7898
802.923	7917
803.065	7879
803.208	7849
803.35	7993
803.492	8073
803.635	8153
803.777	8016
803.919	8123
804.061	8393
804.204	8145
804.346	8062
804.488	7974
804.63	8081
804.773	8035
804.915	8050
805.057	8282
805.199	8210
805.341	8210
805.483	8309
805.626	8142
805.768	8126
805.91	8271
806.052	8206
806.194	8100
806.336	8275
806.478	8069
806.62	7989
806.762	8183
806.904	8309
807.046	8469
807.188	8301
807.33	8279
807.472	8343
807.614	8218
807.756	8115
807.898	8024
808.04	7921
808.182	7947
808.324	7906
808.465	7982
808.607	8115
808.749	8134
808.891	8119
809.033	8248
809.174	8221
809.316	7997
809.458	8092
809.6	7970
809.741	8005
809.883	8046
810.025	8153
810.166	8100
810.308	8035
810.45	8058
810.591	7951
810.733	7700
810.875	7696
811.016	7495
811.158	7457
811.299	7601
811.441	7708
811.582	7693
811.724	7563
811.865	7476
812.007	7582
812.148	7578
812.29	7624
812.431	7746
812.573	7879
812.714	8005
812.855	8123
812.997	8210
813.138	8355
813.279	8191
813.421	8081
813.562	7963
813.703	7860
813.845	7765
813.986	7438
814.127	7156
814.268	7225
814.41	7202
814.551	7133
814.692	7168
814.833	7114
814.974	7076
815.115	7110
815.256	6901
815.397	6840
815.539	6943
815.68	6829
815.821	6730
815.962	6932
816.103	6776
816.244	6730
816.385	6677
816.526	6627
816.666	6433
816.807	6292
816.948	6376
817.089	6388
817.23	6357
817.371	6353
817.512	6372
817.653	6376
817.793	6342
817.934	6365
818.075	6467
818.216	6380
818.356	6407
818.497	6251
818.638	6148
818.778	6178
818.919	6171
819.06	6201
819.2	6353
819.341	6338
819.481	6327
819.622	6521
819.762	6783
819.903	6715
820.043	6570
820.184	6582
820.324	6566
820.465	6734
820.605	6646
820.746	6585
820.886	6479
821.026	6631
821.167	6658
821.307	6760
821.447	6772
821.588	6669
821.728	6490
821.868	6464
822.008	6277
822.149	6346
822.289	6315
822.429	6133
822.569	6057
822.709	6148
822.849	5847
822.99	5901
823.13	5874
823.27	5874
823.41	5790
823.55	5783
823.69	5722
823.83	5805
823.97	5699
824.11	5497
824.25	5463
824.389	5558
824.529	5634
824.669	5501
824.809	5638
824.949	5668
825.089	5577
825.228	5566
825.368	5364
825.508	5318
825.648	5265
825.787	5360
825.927	5368
826.067	5349
826.206	5258
826.346	5391
826.485	5337
826.625	5421
826.765	5535
826.904	5436
827.044	5269
827.183	5216
827.323	5064
827.462	5277
827.601	5159
827.741	5143
827.88	5140
828.02	5094
828.159	5231
828.298	5242
828.437	5341
828.577	5326
828.716	5528
828.855	5345
828.994	5181
829.134	5162
829.273	5140
829.412	5121
829.551	5170
829.69	5155
829.829	5197
829.968	5337
830.107	5235
830.246	5299
830.385	5124
830.524	5079
830.663	5006
830.802	4934
830.941	4854
831.08	4885
831.219	4987
831.357	4972
831.496	5204
831.635	4908
831.774	4835
831.913	4816
832.051	4733
832.19	4744
832.329	4828
832.467	4679
832.606	4634
832.744	4698
832.883	4714
833.022	4637
833.16	4778
833.299	4809
833.437	4843
833.576	4847
833.714	4850
833.852	4835
833.991	4866
834.129	4976
834.267	4946
834.406	4870
834.544	4938
834.682	4949
834.821	4949
834.959	5124
835.097	4919
835.235	5155
835.373	5086
835.511	5056
835.65	4968
835.788	5010
835.926	4854
836.064	4854
836.202	4961
836.34	5113
836.478	5231
836.615	5098
836.753	5185
836.891	5258
837.029	5254
837.167	5223
837.305	5147
837.443	5121
837.58	5033
837.718	5265
837.856	5204
837.993	5121
838.131	5208
838.269	5185
838.406	5189
838.544	5147
838.681	5003
838.819	4949
838.956	4930
839.094	4923
839.231	4972
839.369	5075
839.506	5402
839.643	5239
839.781	5052
839.918	4999
840.055	5098
840.193	5052
840.33	5124
840.467	5185
840.604	5178
840.742	5440
840.879	5045
841.016	5109
841.153	5105
841.29	5315
841.427	5337
841.564	5318
841.701	5360
841.838	5246
841.975	5185
842.112	5208
842.249	5136
842.385	5045
842.522	5299
842.659	5151
842.796	5136
842.933	5143
843.069	5189
843.206	5174
843.343	5288
843.479	5265
843.616	5223
843.752	4953
843.889	5003
844.025	5227
844.162	5029
844.298	5201
844.435	5105
844.571	5014
844.708	5185
844.844	5379
844.98	5353
845.117	5307
845.253	5185
845.389	5056
845.525	5121
845.661	5159
845.798	4995
845.934	5094
846.07	5014
846.206	5155
846.342	5296
846.478	5174
846.614	4968
846.75	4984
846.886	4911
847.022	5136
847.158	4972
847.294	5045
847.429	5094
847.565	5022
847.701	5326
847.837	4835
847.972	4790
848.108	4953
848.244	4927
848.379	4767
848.515	4725
848.65	4660
848.786	4736
848.921	4683
849.057	4774
849.192	4866
849.328	4801
849.463	4828
849.598	4786
849.734	4698
849.869	4687
850.004	4580
850.14	4569
850.275	4569
850.41	4542
850.545	4558
850.68	4599
850.815	4569
850.95	4588
851.085	4805
851.22	4736
851.355	4653
851.49	4599
851.625	4596
851.76	4630
851.895	4546
852.03	4508
852.165	4645
852.299	4725
852.434	4778
852.569	4725
852.703	4752
852.838	4790
852.973	4889
853.107	4892
853.242	4698
853.376	4691
853.511	4508
853.645	4618
853.78	4778
853.914	4691
854.048	4675
854.183	4645
854.317	4698
854.451	4790
854.585	4664
854.72	4615
854.854	4767
854.988	4569
855.122	4653
855.256	4546
855.39	4626
855.524	4831
855.658	4702
855.792	4698
855.926	4717
856.06	4698
856.194	4774
856.327	4687
856.461	4584
856.595	4615
856.729	4611
856.862	4740
856.996	4710
857.13	4725
857.263	4710
857.397	4782
857.53	4603
857.664	4717
857.797	4714
857.931	4717
858.064	4653
858.197	4725
858.331	4653
858.464	4596
858.597	4512
858.731	4641
858.864	4580
858.997	4565
859.13	4599
859.263	4702
859.396	4683
859.529	4596
859.662	4611
859.795	4512
859.928	4649
860.061	4733
860.194	4740
860.327	4622
860.46	4497
860.592	4679
860.725	4721
860.858	4656
860.99	4558
861.123	4485
861.256	4474
861.388	4592
861.521	5185
861.653	4489
861.786	4459
861.918	4462
862.05	4504
862.183	4535
862.315	4538
862.447	4668
862.58	4516
862.712	4402
862.844	4360
862.976	4481
863.108	4421
863.24	4862
863.372	4337
863.504	4409
863.636	4421
863.768	4470
863.9	4440
864.032	4398
864.164	4394
864.296	4481
864.428	4516
864.559	4489
864.691	4546
864.823	4508
864.954	4470
865.086	4455
865.217	4516
865.349	4390
865.48	4440
865.612	4459
865.743	4634
865.875	4417
866.006	4352
866.137	4459
866.269	4447
866.4	4428
866.531	4402
866.662	4394
866.793	4394
866.924	4371
867.055	4554
867.186	4440
867.317	4451
867.448	4287
867.579	4383
867.71	4402
867.841	4356
867.972	4421
868.103	4497
868.233	4443
868.364	4432
868.495	4489
868.625	4634
868.756	4744
868.886	4538
869.017	4615
869.147	4698
869.278	4702
869.408	4618
869.539	4588
869.669	4698
869.799	4675
869.929	4755
870.06	4729
870.19	4885
870.32	4911
870.45	4915
870.58	4961
870.71	5109
870.84	5090
870.97	4919
871.1	4889
871.23	5098
871.36	5090
871.489	5003
871.619	5060
871.749	5067
871.879	5094
872.008	5166
872.138	5079
872.267	5018
872.397	4828
872.526	4790
872.656	4691
872.785	4824
872.915	4961
873.044	5014
873.173	4881
873.303	4984
873.432	4934
873.561	4908
873.69	4900
873.819	4805
873.948	4927
874.077	4801
874.206	4778
874.335	4763
874.464	4930
874.593	5010
874.722	4930
874.851	5094
874.979	5048
875.108	5056
875.237	4938
875.365	4889
875.494	4854
875.623	4961
875.751	4797
875.88	4866
876.008	4968
876.136	5033
876.265	5155
876.393	5337
876.521	5231
876.65	5197
876.778	5113
876.906	5025
877.034	5025
877.162	5094
877.29	4991
877.418	5022
877.546	4995
877.674	5052
877.802	4972
877.93	5006
878.058	4965
878.185	4858
878.313	4896
878.441	4915
878.568	4816
878.696	4862
878.824	4911
878.951	5022
879.079	5121
879.206	5292
879.333	5075
879.461	5048
879.588	4995
879.715	5109
879.842	5204
879.97	5010
880.097	4797
880.224	4733
880.351	4805
880.478	4801
880.605	4755
880.732	4740
880.859	5037
880.986	4850
881.112	4885
881.239	4740
881.366	4683
881.493	4592
881.619	4596
881.746	4653
881.872	4630
881.999	4596
882.125	4721
882.252	4778
882.378	4831
882.505	4908
882.631	4706
882.757	4672
882.883	4714
883.01	4748
883.136	4653
883.262	4565
883.388	4664
883.514	4736
883.64	4835
883.766	4740
883.892	4637
884.018	4710
884.143	4854
884.269	4991
884.395	4683
884.52	4599
884.646	4596
884.772	4554
884.897	4538
885.023	4637
885.148	4774
885.274	4793
885.399	4828
885.524	4733
885.65	4645
885.775	4733
885.9	4721
886.025	4839
886.15	4744
886.275	4694
886.4	4626
886.525	4755
886.65	4714
886.775	4660
886.9	4839
887.025	5052
887.149	4763
887.274	4618
887.399	4565
887.523	4611
887.648	4603
887.773	4569
887.897	4790
888.021	4748
888.146	4626
888.27	4793
888.395	4881
888.519	4774
888.643	4790
888.767	4771
888.891	4668
889.015	4588
889.139	4653
889.263	4592
889.387	4767
889.511	4850
889.635	4744
889.759	4615
889.883	4660
890.006	4687
890.13	4801
890.254	4679
890.377	4672
890.501	4519
890.624	4497
890.748	4599
890.871	4478
890.995	4432
891.118	4409
891.241	4485
891.364	4519
891.488	4634
891.611	4481
891.734	4538
891.857	4584
891.98	4535
892.103	4656
892.226	4577
892.349	4508
892.471	4447
892.594	4500
892.717	4584
892.839	4584
892.962	4573
893.085	4653
893.207	4618
893.33	4474
893.452	4470
893.575	4641
893.697	4565
893.819	4774
893.941	4847
894.064	4710
894.186	4569
894.308	4596
894.43	4702
894.552	4793
894.674	4748
894.796	4554
894.918	4611
895.04	4561
895.161	4698
895.283	4634
895.405	4615
895.526	4653
895.648	4694
895.769	4653
895.891	4675
896.012	4725
896.134	4683
896.255	4668
896.376	4554
896.498	4588
896.619	4675
896.74	4569
896.861	4626
896.982	4934
897.103	5052
897.224	4790
897.345	4721
897.466	4656
897.587	4744
897.708	4854
897.828	4748
897.949	4626
898.07	4588
898.19	4634
898.311	4835
898.431	4649
898.552	4694
898.672	4812
898.792	4797
898.913	4790
899.033	4580
899.153	4508
899.273	4409
899.393	4519
899.513	4489
899.633	4478
899.753	4542
899.873	4508
899.993	4599
900.113	4527
900.232	4531
900.352	4542
900.472	4489
900.591	4421
900.711	4485
900.83	4421
900.95	4592
901.069	4679
901.189	4500
901.308	4352
901.427	4333
901.546	4318
901.665	4451
901.784	4535
901.904	4383
902.023	4249
902.141	4200
902.26	4150
902.379	4337
902.498	4280
902.617	4188
902.735	4356
902.854	4417
902.973	4329
903.091	4200
903.21	4196
903.328	4325
903.446	4257
903.565	4227
903.683	4333
903.801	4246
903.919	4379
904.038	4432
904.156	4242
904.274	4394
904.392	4375
904.51	4402
904.627	4436
904.745	4565
904.863	4630
904.981	4383
905.098	4295
905.216	4379
905.334	4390
905.451	4417
905.569	4428
905.686	4531
905.803	4531
905.921	4432
906.038	4527
906.155	4466
906.272	4440
906.389	4462
906.506	4344
906.623	4333
906.74	4379
906.857	4230
906.974	4333
907.091	4580
907.208	4630
907.324	4592
907.441	4500
907.557	4337
907.674	4299
907.79	4363
907.907	4337
908.023	4459
908.139	4443
908.256	4402
908.372	4424
908.488	4474
908.604	4314
908.72	4322
908.836	4352
908.952	4371
909.068	4459
909.184	4538
909.3	4508
909.415	4546
909.531	4531
909.647	4322
909.762	4371
909.878	4348
909.993	4413
910.108	4398
910.224	4390
910.339	4474
910.454	4352
910.57	4371
910.685	4333
910.8	4615
910.915	4569
911.03	4504
911.145	4318
911.259	4306
911.374	4352
911.489	4280
911.604	4242
911.718	4143
911.833	4169
911.947	4082
912.062	4059
912.176	4192
912.291	4204
912.405	4238
912.519	4432
912.633	4497
912.748	4363
912.862	4299
912.976	4204
913.09	4101
913.204	4124
913.318	4223
913.431	4344
913.545	4318
913.659	4432
913.772	4325
913.886	4253
914	4249
914.113	4383
914.226	4398
914.34	4424
914.453	4169
914.566	4424
914.68	4341
914.793	4291
914.906	4097
915.019	4093
915.132	4128
915.245	4207
915.358	4204
915.47	4249
915.583	4253
915.696	4276
915.809	4405
915.921	4333
916.034	4230
916.146	4242
916.259	4196
916.371	4398
916.483	4318
916.595	4272
916.708	4329
916.82	4280
916.932	4276
917.044	4341
917.156	4322
917.268	4207
917.38	4299
917.491	4249
917.603	4306
917.715	4443
917.826	4409
917.938	4322
918.049	4215
918.161	4375
918.272	4519
918.384	4538
918.495	4402
918.606	4310
918.717	4185
918.828	4341
918.939	4394
919.05	4242
919.161	4322
919.272	4112
919.383	4192
919.494	4352
919.604	4653
919.715	4379
919.826	4303
919.936	4390
920.047	4489
920.157	4519
920.267	4694
920.378	4504
920.488	4470
920.598	4729
920.708	4919
920.818	4752
920.928	4733
921.038	4942
921.148	4911
921.258	4603
921.368	4538
921.477	4466
921.587	4424
921.697	4344
921.806	4550
921.916	4363
922.025	4230
922.134	4295
922.244	4227
922.353	4344
922.462	4116
922.571	4124
922.68	3972
922.789	3972
922.898	4017
923.007	3960
923.116	4097
923.224	4059
923.333	4078
923.442	3975
923.55	3972
923.659	4006
923.767	4078
923.876	3968
923.984	4112
924.092	3956
924.201	4082
924.309	4071
924.417	4109
924.525	4036
924.633	4109
924.741	5014
924.849	3930
924.956	4131
925.064	3926
925.172	3873
925.279	3987
925.387	4006
925.494	4044
925.602	4295
925.709	4154
925.816	4063
925.924	4131
926.031	4192
926.138	4196
926.245	4234
926.352	4109
926.459	4253
926.566	4284
926.673	4162
926.779	4059
926.886	4128
926.993	4002
927.099	3934
927.206	3953
927.312	3956
927.419	4112
927.525	4048
927.631	4147
927.737	3975
927.843	3964
927.95	3884
928.056	3987
928.162	4032
928.267	4002
928.373	4733
928.479	4097
928.585	3861
928.69	4048
928.796	4090
928.901	3979
929.007	3915
929.112	4040
929.218	3998
929.323	3960
929.428	3964
929.533	4143
929.638	3949
929.743	4010
929.848	4082
929.953	4036
930.058	3922
930.163	3804
930.267	3884
930.372	4048
930.477	3850
930.581	4105
930.685	3953
930.79	3842
930.894	3937
930.998	3937
931.103	4071
931.207	3766
931.311	3740
931.415	3732
931.519	3545
931.623	3599
