Data from test_V78500241_1743.txt Node
Date: Fri Mar 25 17:01:07 CST 2022
User: usil
Spectrometer: V785-0024
Trigger mode: 0
Integration Time (sec): 4.000000E-1
Scans to average: 1
Nonlinearity correction enabled: false
Boxcar width: 0
Storing dark spectrum: false
XAxis mode: Wavelengths
Number of Pixels in Spectrum: 1024
>>>>>Begin Spectral Data<<<<<
801.071	7978
801.214	7978
801.356	7883
801.499	7818
801.641	7795
801.783	7875
801.926	7898
802.068	7913
802.211	7974
802.353	7932
802.496	7875
802.638	7818
802.78	7883
802.923	7909
803.065	7761
803.208	7864
803.35	7963
803.492	8073
803.635	8229
803.777	7970
803.919	8153
804.061	8385
804.204	8153
804.346	8016
804.488	7917
804.63	8046
804.773	8035
804.915	8126
805.057	8267
805.199	8145
805.341	8149
805.483	8267
805.626	8145
805.768	8119
805.91	8237
806.052	8267
806.194	8043
806.336	8256
806.478	8027
806.62	7978
806.762	8088
806.904	8317
807.046	8446
807.188	8419
807.33	8332
807.472	8355
807.614	8191
807.756	8142
807.898	8027
808.04	7879
808.182	7875
808.324	7826
808.465	7894
808.607	8119
808.749	8001
808.891	8233
809.033	8271
809.174	8176
809.316	8096
809.458	8084
809.6	8039
809.741	8043
809.883	8027
810.025	8084
810.166	8088
810.308	7959
810.45	7917
810.591	7833
810.733	7693
810.875	7643
811.016	7510
811.158	7502
811.299	7597
811.441	7674
811.582	7666
811.724	7616
811.865	7514
812.007	7616
812.148	7571
812.29	7605
812.431	7742
812.573	7928
812.714	7871
812.855	8130
812.997	8126
813.138	8328
813.279	8164
813.421	8123
813.562	7986
813.703	7852
813.845	7757
813.986	7441
814.127	7221
814.268	7160
814.41	7190
814.551	7168
814.692	7209
814.833	7038
814.974	7107
815.115	7069
815.256	7012
815.397	6954
815.539	6962
815.68	6798
815.821	6741
815.962	6840
816.103	6730
816.244	6745
816.385	6582
816.526	6631
816.666	6486
816.807	6323
816.948	6456
817.089	6464
817.23	6407
817.371	6338
817.512	6395
817.653	6369
817.793	6395
817.934	6391
818.075	6441
818.216	6437
818.356	6384
818.497	6277
818.638	6152
818.778	6182
818.919	6140
819.06	6163
819.2	6327
819.341	6304
819.481	6315
819.622	6521
819.762	6719
819.903	6696
820.043	6517
820.184	6547
820.324	6578
820.465	6703
820.605	6639
820.746	6616
820.886	6532
821.026	6684
821.167	6719
821.307	6798
821.447	6795
821.588	6642
821.728	6559
821.868	6467
822.008	6273
822.149	6376
822.289	6346
822.429	6125
822.569	6049
822.709	6091
822.849	5901
822.99	5851
823.13	5901
823.27	5893
823.41	5798
823.55	5779
823.69	5745
823.83	5745
823.97	5676
824.11	5512
824.25	5528
824.389	5554
824.529	5524
824.669	5478
824.809	5600
824.949	5703
825.089	5596
825.228	5547
825.368	5429
825.508	5322
825.648	5395
825.787	5387
825.927	5391
826.067	5303
826.206	5250
826.346	5395
826.485	5417
826.625	5414
826.765	5532
826.904	5417
827.044	5220
827.183	5181
827.323	5147
827.462	5227
827.601	5204
827.741	5227
827.88	5296
828.02	5159
828.159	5223
828.298	5254
828.437	5387
828.577	5239
828.716	5512
828.855	5376
828.994	5143
829.134	5170
829.273	5220
829.412	5174
829.551	5159
829.69	5181
829.829	5273
829.968	5417
830.107	5341
830.246	5318
830.385	5216
830.524	5140
830.663	5052
830.802	4976
830.941	4923
831.08	4919
831.219	5003
831.357	5041
831.496	5193
831.635	4999
831.774	4892
831.913	4839
832.051	4725
832.19	4805
832.329	4892
832.467	4733
832.606	4691
832.744	4774
832.883	4790
833.022	4736
833.16	4850
833.299	4881
833.437	4831
833.576	4820
833.714	4927
833.852	4858
833.991	4919
834.129	4984
834.267	4976
834.406	4976
834.544	5014
834.682	5048
834.821	4949
834.959	5235
835.097	4995
835.235	5212
835.373	5136
835.511	5143
835.65	5105
835.788	5090
835.926	4927
836.064	4942
836.202	4938
836.34	5189
836.478	5307
836.615	5185
836.753	5239
836.891	5337
837.029	5277
837.167	5223
837.305	5239
837.443	5201
837.58	5109
837.718	5288
837.856	5208
837.993	5174
838.131	5284
838.269	5235
838.406	5208
838.544	5220
838.681	5079
838.819	5113
838.956	4980
839.094	4946
839.231	5048
839.369	5086
839.506	5478
839.643	5288
839.781	5128
839.918	5052
840.055	5166
840.193	5124
840.33	5151
840.467	5170
840.604	5208
840.742	5429
840.879	5086
841.016	5090
841.153	5170
841.29	5376
841.427	5391
841.564	5307
841.701	5402
841.838	5296
841.975	5242
842.112	5334
842.249	5147
842.385	5143
842.522	5337
842.659	5216
842.796	5159
842.933	5280
843.069	5132
843.206	5246
843.343	5330
843.479	5265
843.616	5284
843.752	5075
843.889	5018
844.025	5208
844.162	5052
844.298	5193
844.435	5140
844.571	5143
844.708	5239
844.844	5315
844.98	5330
845.117	5334
845.253	5201
845.389	5136
845.525	5170
845.661	5212
845.798	5064
845.934	5143
846.07	5067
846.206	5185
846.342	5398
846.478	5208
846.614	5109
846.75	4968
846.886	5003
847.022	5174
847.158	5060
847.294	5064
847.429	5159
847.565	5094
847.701	5349
847.837	4877
847.972	4790
848.108	4976
848.244	4976
848.379	4812
848.515	4748
848.65	4744
848.786	4744
848.921	4790
849.057	4873
849.192	4946
849.328	4812
849.463	4919
849.598	4820
849.734	4782
849.869	4733
850.004	4660
850.14	4725
850.275	4675
850.41	4554
850.545	4603
850.68	4634
850.815	4656
850.95	4691
851.085	4847
851.22	4774
851.355	4698
851.49	4630
851.625	4630
851.76	4630
851.895	4561
852.03	4558
852.165	4702
852.299	4748
852.434	4812
852.569	4755
852.703	4793
852.838	4854
852.973	4923
853.107	4934
853.242	4801
853.376	4721
853.511	4611
853.645	4664
853.78	4820
853.914	4691
854.048	4675
854.183	4660
854.317	4714
854.451	4820
854.585	4656
854.72	4691
854.854	4812
854.988	4607
855.122	4645
855.256	4535
855.39	4714
855.524	4805
855.658	4736
855.792	4744
855.926	4759
856.06	4782
856.194	4824
856.327	4725
856.461	4645
856.595	4653
856.729	4679
856.862	4767
856.996	4717
857.13	4729
857.263	4809
857.397	4843
857.53	4653
857.664	4782
857.797	4767
857.931	4801
858.064	4714
858.197	4763
858.331	4660
858.464	4618
858.597	4550
858.731	4691
858.864	4679
858.997	4588
859.13	4664
859.263	4721
859.396	4736
859.529	4607
859.662	4592
859.795	4618
859.928	4675
860.061	4778
860.194	4824
860.327	4626
860.46	4588
860.592	4725
860.725	4725
860.858	4782
860.99	4603
861.123	4565
861.256	4554
861.388	4596
861.521	5322
861.653	4500
861.786	4485
861.918	4459
862.05	4538
862.183	4573
862.315	4634
862.447	4637
862.58	4558
862.712	4436
862.844	4386
862.976	4493
863.108	4459
863.24	4915
863.372	4325
863.504	4436
863.636	4485
863.768	4462
863.9	4459
864.032	4421
864.164	4447
864.296	4485
864.428	4577
864.559	4626
864.691	4584
864.823	4573
864.954	4527
865.086	4535
865.217	4470
865.349	4485
865.48	4500
865.612	4516
865.743	4641
865.875	4516
866.006	4462
866.137	4538
866.269	4516
866.4	4504
866.531	4424
866.662	4428
866.793	4455
866.924	4489
867.055	4497
867.186	4474
867.317	4443
867.448	4379
867.579	4436
867.71	4402
867.841	4375
867.972	4516
868.103	4542
868.233	4485
868.364	4447
868.495	4478
868.625	4687
868.756	4793
868.886	4626
869.017	4649
869.147	4774
869.278	4790
869.408	4691
869.539	4668
869.669	4694
869.799	4729
869.929	4793
870.06	4752
870.19	4972
870.32	4938
870.45	4976
870.58	4984
870.71	5151
870.84	5098
870.97	4980
871.1	4911
871.23	5189
871.36	5128
871.489	5010
871.619	5071
871.749	5102
871.879	5102
872.008	5201
872.138	5090
872.267	4968
872.397	4870
872.526	4793
872.656	4771
872.785	4816
872.915	5006
873.044	5064
873.173	5003
873.303	5003
873.432	4961
873.561	4980
873.69	4889
873.819	4923
873.948	4927
874.077	4862
874.206	4793
874.335	4831
874.464	4949
874.593	5048
874.722	5014
874.851	5151
874.979	5064
875.108	5022
875.237	4942
875.365	4915
875.494	4881
875.623	5010
875.751	4854
875.88	4908
876.008	4984
876.136	5064
876.265	5204
876.393	5353
876.521	5277
876.65	5235
876.778	5147
876.906	5132
877.034	5045
877.162	5075
877.29	5025
877.418	5045
877.546	5048
877.674	5056
877.802	5033
877.93	5018
878.058	4999
878.185	4923
878.313	4987
878.441	4972
878.568	4843
878.696	4915
878.824	4923
878.951	4984
879.079	5174
879.206	5318
879.333	5124
879.461	4976
879.588	5033
879.715	5109
879.842	5254
879.97	5048
880.097	4831
880.224	4733
880.351	4786
880.478	4828
880.605	4854
880.732	4828
880.859	5094
880.986	4889
881.112	4911
881.239	4831
881.366	4679
881.493	4599
881.619	4599
881.746	4645
881.872	4668
881.999	4672
882.125	4694
882.252	4816
882.378	4843
882.505	4968
882.631	4812
882.757	4698
882.883	4710
883.01	4729
883.136	4710
883.262	4622
883.388	4634
883.514	4831
883.64	4889
883.766	4816
883.892	4683
884.018	4717
884.143	4858
884.269	5022
884.395	4683
884.52	4622
884.646	4668
884.772	4599
884.897	4584
885.023	4702
885.148	4763
885.274	4862
885.399	4786
885.524	4782
885.65	4733
885.775	4774
885.9	4736
886.025	4877
886.15	4820
886.275	4736
886.4	4679
886.525	4717
886.65	4721
886.775	4725
886.9	4919
887.025	5045
887.149	4850
887.274	4660
887.399	4618
887.523	4622
887.648	4577
887.773	4637
887.897	4710
888.021	4774
888.146	4710
888.27	4831
888.395	4904
888.519	4755
888.643	4870
888.767	4816
888.891	4736
889.015	4630
889.139	4702
889.263	4634
889.387	4790
889.511	4892
889.635	4812
889.759	4653
889.883	4691
890.006	4801
890.13	4858
890.254	4645
890.377	4672
890.501	4588
890.624	4531
890.748	4607
890.871	4508
890.995	4470
891.118	4402
891.241	4573
891.364	4569
891.488	4637
891.611	4493
891.734	4577
891.857	4630
891.98	4561
892.103	4649
892.226	4626
892.349	4519
892.471	4455
892.594	4538
892.717	4622
892.839	4546
892.962	4641
893.085	4645
893.207	4607
893.33	4478
893.452	4573
893.575	4675
893.697	4561
893.819	4793
893.941	4839
894.064	4752
894.186	4550
894.308	4588
894.43	4740
894.552	4816
894.674	4752
894.796	4565
894.918	4634
895.04	4641
895.161	4702
895.283	4630
895.405	4615
895.526	4603
895.648	4706
895.769	4702
895.891	4748
896.012	4793
896.134	4771
896.255	4714
896.376	4656
896.498	4653
896.619	4706
896.74	4672
896.861	4649
896.982	4915
897.103	5098
897.224	4812
897.345	4740
897.466	4637
897.587	4759
897.708	4866
897.828	4759
897.949	4660
898.07	4615
898.19	4683
898.311	4862
898.431	4664
898.552	4740
898.672	4797
898.792	4809
898.913	4714
899.033	4607
899.153	4497
899.273	4424
899.393	4504
899.513	4497
899.633	4538
899.753	4573
899.873	4508
899.993	4584
900.113	4531
900.232	4580
900.352	4588
900.472	4474
900.591	4421
900.711	4554
900.83	4474
900.95	4618
901.069	4694
901.189	4558
901.308	4356
901.427	4348
901.546	4375
901.665	4470
901.784	4542
901.904	4451
902.023	4367
902.141	4192
902.26	4188
902.379	4299
902.498	4246
902.617	4223
902.735	4386
902.854	4424
902.973	4440
903.091	4234
903.21	4192
903.328	4318
903.446	4291
903.565	4299
903.683	4344
903.801	4265
903.919	4447
904.038	4424
904.156	4383
904.274	4440
904.392	4440
904.51	4462
904.627	4470
904.745	4577
904.863	4618
904.981	4356
905.098	4394
905.216	4375
905.334	4443
905.451	4451
905.569	4428
905.686	4558
905.803	4592
905.921	4402
906.038	4519
906.155	4493
906.272	4383
906.389	4462
906.506	4348
906.623	4398
906.74	4398
906.857	4333
906.974	4363
907.091	4531
907.208	4649
907.324	4603
907.441	4466
907.557	4371
907.674	4394
907.79	4265
907.907	4402
908.023	4470
908.139	4470
908.256	4440
908.372	4470
908.488	4436
908.604	4383
908.72	4287
908.836	4394
908.952	4386
909.068	4424
909.184	4611
909.3	4497
909.415	4558
909.531	4550
909.647	4363
909.762	4352
909.878	4341
909.993	4451
910.108	4424
910.224	4413
910.339	4516
910.454	4424
910.57	4367
910.685	4363
910.8	4656
910.915	4641
911.03	4485
911.145	4333
911.259	4333
911.374	4318
911.489	4344
911.604	4268
911.718	4196
911.833	4227
911.947	4124
912.062	4036
912.176	4215
912.291	4249
912.405	4246
912.519	4459
912.633	4516
912.748	4405
912.862	4314
912.976	4196
913.09	4124
913.204	4158
913.318	4261
913.431	4398
913.545	4367
913.659	4413
913.772	4379
913.886	4234
914	4238
914.113	4394
914.226	4478
914.34	4421
914.453	4276
914.566	4432
914.68	4348
914.793	4295
914.906	4154
915.019	4082
915.132	4093
915.245	4188
915.358	4196
915.47	4242
915.583	4295
915.696	4325
915.809	4398
915.921	4421
916.034	4276
916.146	4238
916.259	4234
916.371	4394
916.483	4352
916.595	4268
916.708	4325
916.82	4325
916.932	4341
917.044	4402
917.156	4363
917.268	4268
917.38	4291
917.491	4310
917.603	4325
917.715	4417
917.826	4409
917.938	4306
918.049	4265
918.161	4432
918.272	4584
918.384	4569
918.495	4504
918.606	4299
918.717	4249
918.828	4348
918.939	4341
919.05	4234
919.161	4341
919.272	4120
919.383	4249
919.494	4386
919.604	4611
919.715	4428
919.826	4356
919.936	4394
920.047	4554
920.157	4497
920.267	4698
920.378	4542
920.488	4535
920.598	4721
920.708	4900
920.818	4805
920.928	4771
921.038	4957
921.148	4919
921.258	4653
921.368	4523
921.477	4489
921.587	4459
921.697	4360
921.806	4535
921.916	4413
922.025	4284
922.134	4238
922.244	4230
922.353	4306
922.462	4173
922.571	4185
922.68	4013
922.789	3968
922.898	4078
923.007	3979
923.116	4090
923.224	4124
923.333	4086
923.442	3991
923.55	3983
923.659	4040
923.767	4101
923.876	3953
923.984	4147
924.092	4040
924.201	4055
924.309	4078
924.417	4101
924.525	4055
924.633	4044
924.741	4892
924.849	3930
924.956	4131
925.064	4006
925.172	3880
925.279	3930
925.387	4086
925.494	4029
925.602	4238
925.709	4207
925.816	3994
925.924	4143
926.031	4215
926.138	4185
926.245	4215
926.352	4071
926.459	4227
926.566	4242
926.673	4158
926.779	4112
926.886	4097
926.993	3953
927.099	3964
927.206	3918
927.312	3956
927.419	4010
927.525	3972
927.631	4082
927.737	3975
927.843	3941
927.95	3835
928.056	3979
928.162	3975
928.267	4071
928.373	4694
928.479	4139
928.585	3873
928.69	4074
928.796	4112
928.901	3934
929.007	3823
929.112	4013
929.218	3979
929.323	3930
929.428	3972
929.533	4109
929.638	3857
929.743	3972
929.848	4090
929.953	4006
930.058	3896
930.163	3755
930.267	3819
930.372	3941
930.477	3804
930.581	4078
930.685	3994
930.79	3835
930.894	3842
930.998	3869
931.103	4044
931.207	3682
931.311	3698
931.415	3660
931.519	3534
931.623	3549
