Data from test_V78500241_732.txt Node
Date: Fri Mar 25 16:54:05 CST 2022
User: usil
Spectrometer: V785-0024
Trigger mode: 0
Integration Time (sec): 4.000000E-1
Scans to average: 1
Nonlinearity correction enabled: false
Boxcar width: 0
Storing dark spectrum: false
XAxis mode: Wavelengths
Number of Pixels in Spectrum: 1024
>>>>>Begin Spectral Data<<<<<
801.071	7986
801.214	7986
801.356	7921
801.499	7963
801.641	7830
801.783	7837
801.926	7967
802.068	7993
802.211	7902
802.353	7947
802.496	7879
802.638	7864
802.78	7967
802.923	7906
803.065	7883
803.208	7811
803.35	7986
803.492	8088
803.635	8172
803.777	8012
803.919	8138
804.061	8377
804.204	8103
804.346	8035
804.488	7963
804.63	8130
804.773	8012
804.915	8096
805.057	8275
805.199	8134
805.341	8142
805.483	8218
805.626	8157
805.768	8050
805.91	8183
806.052	8138
806.194	8084
806.336	8183
806.478	8111
806.62	8001
806.762	8145
806.904	8282
807.046	8381
807.188	8332
807.33	8355
807.472	8339
807.614	8058
807.756	8081
807.898	7947
808.04	7818
808.182	7917
808.324	7860
808.465	7879
808.607	8008
808.749	8077
808.891	8252
809.033	8267
809.174	8191
809.316	8027
809.458	8005
809.6	7978
809.741	8016
809.883	7967
810.025	8043
810.166	8043
810.308	8005
810.45	7993
810.591	7860
810.733	7788
810.875	7658
811.016	7578
811.158	7514
811.299	7605
811.441	7738
811.582	7643
811.724	7548
811.865	7552
812.007	7605
812.148	7521
812.29	7525
812.431	7734
812.573	7814
812.714	8016
812.855	8115
812.997	8168
813.138	8275
813.279	8214
813.421	8100
813.562	7974
813.703	7792
813.845	7723
813.986	7426
814.127	7285
814.268	7263
814.41	7213
814.551	7084
814.692	7160
814.833	7099
814.974	7088
815.115	7095
815.256	6920
815.397	6924
815.539	6924
815.68	6821
815.821	6749
815.962	6848
816.103	6776
816.244	6749
816.385	6582
816.526	6650
816.666	6456
816.807	6254
816.948	6410
817.089	6399
817.23	6460
817.371	6342
817.512	6338
817.653	6369
817.793	6334
817.934	6429
818.075	6410
818.216	6353
818.356	6308
818.497	6194
818.638	6083
818.778	6148
818.919	6087
819.06	6133
819.2	6365
819.341	6334
819.481	6369
819.622	6540
819.762	6722
819.903	6658
820.043	6585
820.184	6547
820.324	6536
820.465	6707
820.605	6646
820.746	6559
820.886	6475
821.026	6654
821.167	6684
821.307	6772
821.447	6760
821.588	6608
821.728	6525
821.868	6467
822.008	6296
822.149	6338
822.289	6346
822.429	6091
822.569	6079
822.709	6121
822.849	5893
822.99	5878
823.13	5942
823.27	5950
823.41	5798
823.55	5775
823.69	5718
823.83	5783
823.97	5680
824.11	5528
824.25	5535
824.389	5528
824.529	5543
824.669	5516
824.809	5646
824.949	5634
825.089	5592
825.228	5581
825.368	5368
825.508	5334
825.648	5318
825.787	5402
825.927	5353
826.067	5284
826.206	5284
826.346	5360
826.485	5398
826.625	5345
826.765	5482
826.904	5490
827.044	5231
827.183	5185
827.323	5117
827.462	5204
827.601	5159
827.741	5212
827.88	5227
828.02	5105
828.159	5254
828.298	5258
828.437	5337
828.577	5261
828.716	5429
828.855	5258
828.994	5193
829.134	5151
829.273	5227
829.412	5170
829.551	5105
829.69	5143
829.829	5220
829.968	5357
830.107	5254
830.246	5201
830.385	5117
830.524	5121
830.663	5056
830.802	4961
830.941	4896
831.08	4919
831.219	4976
831.357	4927
831.496	5113
831.635	4900
831.774	4858
831.913	4828
832.051	4736
832.19	4706
832.329	4820
832.467	4683
832.606	4649
832.744	4717
832.883	4710
833.022	4714
833.16	4790
833.299	4755
833.437	4782
833.576	4881
833.714	4870
833.852	4881
833.991	4896
834.129	4949
834.267	4942
834.406	4904
834.544	4999
834.682	4938
834.821	4961
834.959	5124
835.097	4999
835.235	5170
835.373	5060
835.511	5090
835.65	5025
835.788	5056
835.926	4881
836.064	4885
836.202	4934
836.34	5124
836.478	5201
836.615	5064
836.753	5208
836.891	5242
837.029	5258
837.167	5189
837.305	5140
837.443	5174
837.58	5071
837.718	5231
837.856	5197
837.993	5140
838.131	5250
838.269	5231
838.406	5212
838.544	5204
838.681	5105
838.819	5006
838.956	4919
839.094	4919
839.231	4972
839.369	5121
839.506	5425
839.643	5223
839.781	5037
839.918	4995
840.055	5098
840.193	5117
840.33	5170
840.467	5170
840.604	5212
840.742	5395
840.879	5056
841.016	5056
841.153	5155
841.29	5334
841.427	5318
841.564	5299
841.701	5315
841.838	5337
841.975	5254
842.112	5311
842.249	5159
842.385	5124
842.522	5334
842.659	5162
842.796	5113
842.933	5185
843.069	5159
843.206	5143
843.343	5273
843.479	5227
843.616	5231
843.752	5037
843.889	5006
844.025	5204
844.162	5029
844.298	5185
844.435	5071
844.571	5067
844.708	5235
844.844	5265
844.98	5345
845.117	5284
845.253	5090
845.389	5083
845.525	5132
845.661	5132
845.798	5029
845.934	5128
846.07	5045
846.206	5151
846.342	5235
846.478	5136
846.614	5029
846.75	4957
846.886	4911
847.022	5140
847.158	4972
847.294	5037
847.429	5109
847.565	5029
847.701	5284
847.837	4881
847.972	4843
848.108	4930
848.244	4919
848.379	4771
848.515	4725
848.65	4755
848.786	4679
848.921	4763
849.057	4885
849.192	4930
849.328	4824
849.463	4835
849.598	4839
849.734	4774
849.869	4706
850.004	4611
850.14	4653
850.275	4577
850.41	4455
850.545	4504
850.68	4592
850.815	4599
850.95	4618
851.085	4801
851.22	4740
851.355	4653
851.49	4599
851.625	4618
851.76	4668
851.895	4577
852.03	4516
852.165	4626
852.299	4736
852.434	4744
852.569	4672
852.703	4721
852.838	4831
852.973	4900
853.107	4870
853.242	4744
853.376	4641
853.511	4577
853.645	4584
853.78	4801
853.914	4706
854.048	4660
854.183	4645
854.317	4710
854.451	4816
854.585	4664
854.72	4599
854.854	4736
854.988	4546
855.122	4626
855.256	4481
855.39	4679
855.524	4752
855.658	4687
855.792	4653
855.926	4714
856.06	4721
856.194	4771
856.327	4679
856.461	4599
856.595	4588
856.729	4622
856.862	4748
856.996	4733
857.13	4683
857.263	4767
857.397	4763
857.53	4611
857.664	4691
857.797	4748
857.931	4744
858.064	4653
858.197	4729
858.331	4618
858.464	4641
858.597	4497
858.731	4626
858.864	4630
858.997	4626
859.13	4660
859.263	4656
859.396	4710
859.529	4569
859.662	4550
859.795	4489
859.928	4599
860.061	4820
860.194	4740
860.327	4558
860.46	4622
860.592	4706
860.725	4733
860.858	4702
860.99	4611
861.123	4519
861.256	4500
861.388	4630
861.521	5406
861.653	4455
861.786	4447
861.918	4466
862.05	4542
862.183	4554
862.315	4558
862.447	4634
862.58	4550
862.712	4451
862.844	4318
862.976	4481
863.108	4443
863.24	4889
863.372	4306
863.504	4398
863.636	4383
863.768	4493
863.9	4470
864.032	4322
864.164	4398
864.296	4421
864.428	4466
864.559	4531
864.691	4497
864.823	4512
864.954	4474
865.086	4546
865.217	4405
865.349	4390
865.48	4447
865.612	4432
865.743	4622
865.875	4421
866.006	4459
866.137	4478
866.269	4421
866.4	4424
866.531	4428
866.662	4398
866.793	4421
866.924	4379
867.055	4474
867.186	4478
867.317	4409
867.448	4348
867.579	4360
867.71	4402
867.841	4333
867.972	4462
868.103	4459
868.233	4432
868.364	4413
868.495	4470
868.625	4622
868.756	4790
868.886	4523
869.017	4611
869.147	4736
869.278	4786
869.408	4641
869.539	4615
869.669	4683
869.799	4645
869.929	4755
870.06	4721
870.19	4942
870.32	4896
870.45	4934
870.58	5003
870.71	5094
870.84	5117
870.97	4949
871.1	4892
871.23	5151
871.36	5151
871.489	5029
871.619	5029
871.749	5079
871.879	5124
872.008	5185
872.138	5010
872.267	4987
872.397	4850
872.526	4771
872.656	4733
872.785	4850
872.915	4961
873.044	4953
873.173	4957
873.303	4980
873.432	4968
873.561	4885
873.69	4892
873.819	4831
873.948	4915
874.077	4812
874.206	4706
874.335	4752
874.464	4934
874.593	5041
874.722	4915
874.851	5098
874.979	5060
875.108	5041
875.237	4915
875.365	4850
875.494	4900
875.623	4957
875.751	4835
875.88	4885
876.008	4946
876.136	5003
876.265	5174
876.393	5288
876.521	5288
876.65	5250
876.778	5147
876.906	5075
877.034	5029
877.162	5067
877.29	4980
877.418	5079
877.546	5045
877.674	5018
877.802	5025
877.93	4972
878.058	4938
878.185	4885
878.313	4980
878.441	4892
878.568	4793
878.696	4881
878.824	4999
878.951	5003
879.079	5109
879.206	5273
879.333	5075
879.461	4991
879.588	5025
879.715	5079
879.842	5242
879.97	4987
880.097	4797
880.224	4767
880.351	4839
880.478	4752
880.605	4790
880.732	4843
880.859	5029
880.986	4889
881.112	4946
881.239	4793
881.366	4698
881.493	4577
881.619	4596
881.746	4675
881.872	4660
881.999	4660
882.125	4637
882.252	4782
882.378	4763
882.505	4900
882.631	4790
882.757	4641
882.883	4702
883.01	4694
883.136	4691
883.262	4584
883.388	4615
883.514	4812
883.64	4862
883.766	4725
883.892	4687
884.018	4706
884.143	4900
884.269	5014
884.395	4630
884.52	4626
884.646	4664
884.772	4535
884.897	4500
885.023	4668
885.148	4717
885.274	4915
885.399	4805
885.524	4702
885.65	4675
885.775	4698
885.9	4698
886.025	4850
886.15	4755
886.275	4683
886.4	4660
886.525	4702
886.65	4721
886.775	4687
886.9	4877
887.025	5018
887.149	4793
887.274	4615
887.399	4603
887.523	4607
887.648	4538
887.773	4584
887.897	4710
888.021	4790
888.146	4702
888.27	4786
888.395	4862
888.519	4843
888.643	4831
888.767	4828
888.891	4660
889.015	4599
889.139	4645
889.263	4607
889.387	4740
889.511	4854
889.635	4786
889.759	4630
889.883	4672
890.006	4698
890.13	4801
890.254	4618
890.377	4668
890.501	4542
890.624	4500
890.748	4622
890.871	4504
890.995	4383
891.118	4360
891.241	4497
891.364	4596
891.488	4596
891.611	4497
891.734	4519
891.857	4641
891.98	4561
892.103	4641
892.226	4634
892.349	4516
892.471	4421
892.594	4569
892.717	4580
892.839	4584
892.962	4607
893.085	4626
893.207	4516
893.33	4386
893.452	4523
893.575	4660
893.697	4542
893.819	4786
893.941	4809
894.064	4763
894.186	4615
894.308	4596
894.43	4706
894.552	4820
894.674	4736
894.796	4531
894.918	4656
895.04	4565
895.161	4668
895.283	4630
895.405	4584
895.526	4641
895.648	4672
895.769	4725
895.891	4687
896.012	4759
896.134	4706
896.255	4630
896.376	4641
896.498	4656
896.619	4672
896.74	4618
896.861	4641
896.982	4934
897.103	5121
897.224	4820
897.345	4763
897.466	4660
897.587	4691
897.708	4862
897.828	4748
897.949	4630
898.07	4542
898.19	4599
898.311	4809
898.431	4698
898.552	4778
898.672	4858
898.792	4793
898.913	4752
899.033	4596
899.153	4538
899.273	4398
899.393	4459
899.513	4508
899.633	4508
899.753	4527
899.873	4542
899.993	4596
900.113	4523
900.232	4615
900.352	4542
900.472	4508
900.591	4371
900.711	4527
900.83	4455
900.95	4573
901.069	4653
901.189	4516
901.308	4402
901.427	4341
901.546	4440
901.665	4443
901.784	4542
901.904	4398
902.023	4306
902.141	4173
902.26	4139
902.379	4303
902.498	4276
902.617	4227
902.735	4405
902.854	4394
902.973	4352
903.091	4169
903.21	4192
903.328	4257
903.446	4249
903.565	4261
903.683	4356
903.801	4238
903.919	4352
904.038	4447
904.156	4276
904.274	4428
904.392	4367
904.51	4417
904.627	4428
904.745	4554
904.863	4611
904.981	4474
905.098	4322
905.216	4360
905.334	4409
905.451	4398
905.569	4443
905.686	4500
905.803	4584
905.921	4398
906.038	4550
906.155	4443
906.272	4428
906.389	4508
906.506	4367
906.623	4409
906.74	4394
906.857	4344
906.974	4375
907.091	4550
907.208	4653
907.324	4535
907.441	4462
907.557	4386
907.674	4367
907.79	4333
907.907	4322
908.023	4485
908.139	4478
908.256	4405
908.372	4451
908.488	4451
908.604	4371
908.72	4329
908.836	4367
908.952	4379
909.068	4432
909.184	4573
909.3	4485
909.415	4550
909.531	4599
909.647	4383
909.762	4398
909.878	4360
909.993	4443
910.108	4432
910.224	4424
910.339	4485
910.454	4402
910.57	4325
910.685	4276
910.8	4656
910.915	4577
911.03	4443
911.145	4348
911.259	4329
911.374	4386
911.489	4310
911.604	4306
911.718	4124
911.833	4185
911.947	4086
912.062	4010
912.176	4166
912.291	4268
912.405	4249
912.519	4451
912.633	4504
912.748	4314
912.862	4280
912.976	4246
913.09	4086
913.204	4158
913.318	4223
913.431	4394
913.545	4352
913.659	4383
913.772	4322
913.886	4272
914	4238
914.113	4375
914.226	4455
914.34	4394
914.453	4242
914.566	4371
914.68	4322
914.793	4268
914.906	4169
915.019	4128
915.132	4086
915.245	4158
915.358	4215
915.47	4200
915.583	4253
915.696	4284
915.809	4386
915.921	4459
916.034	4272
916.146	4246
916.259	4215
916.371	4428
916.483	4337
916.595	4291
916.708	4284
916.82	4310
916.932	4310
917.044	4310
917.156	4322
917.268	4246
917.38	4268
917.491	4268
917.603	4314
917.715	4432
917.826	4432
917.938	4367
918.049	4238
918.161	4413
918.272	4538
918.384	4523
918.495	4436
918.606	4287
918.717	4253
918.828	4280
918.939	4344
919.05	4249
919.161	4306
919.272	4101
919.383	4207
919.494	4379
919.604	4607
919.715	4417
919.826	4352
919.936	4383
920.047	4542
920.157	4504
920.267	4698
920.378	4538
920.488	4481
920.598	4683
920.708	4862
920.818	4714
920.928	4736
921.038	4934
921.148	4904
921.258	4637
921.368	4546
921.477	4497
921.587	4466
921.697	4405
921.806	4485
921.916	4424
922.025	4295
922.134	4227
922.244	4227
922.353	4318
922.462	4173
922.571	4158
922.68	4025
922.789	3918
922.898	3998
923.007	4006
923.116	4086
923.224	4067
923.333	4090
923.442	3964
923.55	4002
923.659	4010
923.767	4109
923.876	4025
923.984	4105
924.092	4021
924.201	4063
924.309	4135
924.417	4120
924.525	4074
924.633	4044
924.741	4938
924.849	3899
924.956	4131
925.064	3979
925.172	3918
925.279	3975
925.387	4059
925.494	4055
925.602	4162
925.709	4150
925.816	4017
925.924	4147
926.031	4211
926.138	4162
926.245	4200
926.352	4105
926.459	4207
926.566	4272
926.673	4154
926.779	4040
926.886	4090
926.993	3994
927.099	3975
927.206	3945
927.312	3945
927.419	4074
927.525	4032
927.631	4036
927.737	3960
927.843	3907
927.95	3850
928.056	3934
928.162	3991
928.267	4090
928.373	4664
928.479	4131
928.585	3896
928.69	3987
928.796	4067
928.901	3972
929.007	3838
929.112	3994
929.218	3987
929.323	3960
929.428	3926
929.533	4086
929.638	3907
929.743	3964
929.848	4032
929.953	3968
930.058	3918
930.163	3797
930.267	3804
930.372	3991
930.477	3842
930.581	4093
930.685	3911
930.79	3838
930.894	3869
930.998	3819
931.103	4051
931.207	3709
931.311	3686
931.415	3660
931.519	3515
931.623	3538
