Data from test_V78500241_24.txt Node
Date: Fri Mar 25 16:49:10 CST 2022
User: usil
Spectrometer: V785-0024
Trigger mode: 0
Integration Time (sec): 4.000000E-1
Scans to average: 1
Nonlinearity correction enabled: false
Boxcar width: 0
Storing dark spectrum: false
XAxis mode: Wavelengths
Number of Pixels in Spectrum: 1024
>>>>>Begin Spectral Data<<<<<
801.071	8107
801.214	8065
801.356	8008
801.499	7963
801.641	7906
801.783	7879
801.926	8069
802.068	7997
802.211	8065
802.353	8073
802.496	7951
802.638	8027
802.78	7993
802.923	7986
803.065	7864
803.208	7909
803.35	8027
803.492	8145
803.635	8195
803.777	7997
803.919	8073
804.061	8518
804.204	8123
804.346	8077
804.488	7993
804.63	8123
804.773	7974
804.915	8157
805.057	8301
805.199	8214
805.341	8240
805.483	8309
805.626	8248
805.768	8206
805.91	8336
806.052	8290
806.194	8157
806.336	8271
806.478	8123
806.62	8103
806.762	8161
806.904	8240
807.046	8495
807.188	8362
807.33	8282
807.472	8389
807.614	8157
807.756	8069
807.898	7997
808.04	7898
808.182	7917
808.324	7894
808.465	7871
808.607	8062
808.749	8126
808.891	8218
809.033	8332
809.174	8214
809.316	8024
809.458	8138
809.6	8035
809.741	8001
809.883	8031
810.025	8107
810.166	8065
810.308	8123
810.45	8084
810.591	7936
810.733	7811
810.875	7719
811.016	7639
811.158	7548
811.299	7666
811.441	7788
811.582	7731
811.724	7609
811.865	7613
812.007	7666
812.148	7712
812.29	7651
812.431	7814
812.573	7890
812.714	7963
812.855	8153
812.997	8149
813.138	8328
813.279	8214
813.421	8134
813.562	7986
813.703	7944
813.845	7788
813.986	7495
814.127	7324
814.268	7202
814.41	7228
814.551	7183
814.692	7190
814.833	7179
814.974	7129
815.115	7103
815.256	6989
815.397	6920
815.539	6985
815.68	6806
815.821	6798
815.962	6920
816.103	6829
816.244	6738
816.385	6646
816.526	6620
816.666	6532
816.807	6308
816.948	6433
817.089	6517
817.23	6563
817.371	6429
817.512	6376
817.653	6414
817.793	6403
817.934	6395
818.075	6517
818.216	6494
818.356	6418
818.497	6308
818.638	6228
818.778	6182
818.919	6117
819.06	6220
819.2	6353
819.341	6376
819.481	6452
819.622	6574
819.762	6802
819.903	6719
820.043	6642
820.184	6616
820.324	6639
820.465	6722
820.605	6722
820.746	6700
820.886	6506
821.026	6722
821.167	6787
821.307	6886
821.447	6821
821.588	6692
821.728	6612
821.868	6566
822.008	6433
822.149	6418
822.289	6452
822.429	6243
822.569	6201
822.709	6167
822.849	5984
822.99	5999
823.13	5958
823.27	5927
823.41	5866
823.55	5904
823.69	5824
823.83	5821
823.97	5798
824.11	5634
824.25	5619
824.389	5665
824.529	5634
824.669	5581
824.809	5710
824.949	5741
825.089	5741
825.228	5619
825.368	5482
825.508	5452
825.648	5421
825.787	5467
825.927	5459
826.067	5436
826.206	5410
826.346	5455
826.485	5474
826.625	5493
826.765	5665
826.904	5592
827.044	5273
827.183	5280
827.323	5189
827.462	5330
827.601	5223
827.741	5277
827.88	5280
828.02	5204
828.159	5311
828.298	5387
828.437	5478
828.577	5402
828.716	5554
828.855	5368
828.994	5239
829.134	5239
829.273	5303
829.412	5223
829.551	5220
829.69	5261
829.829	5296
829.968	5501
830.107	5341
830.246	5334
830.385	5299
830.524	5231
830.663	5136
830.802	5056
830.941	4984
831.08	4919
831.219	5052
831.357	5109
831.496	5322
831.635	5022
831.774	4904
831.913	4949
832.051	4812
832.19	4847
832.329	4976
832.467	4828
832.606	4691
832.744	4801
832.883	4782
833.022	4809
833.16	4847
833.299	4900
833.437	4892
833.576	4957
833.714	4923
833.852	4923
833.991	4968
834.129	5052
834.267	4980
834.406	4980
834.544	5045
834.682	5071
834.821	5037
834.959	5261
835.097	5083
835.235	5208
835.373	5204
835.511	5155
835.65	5056
835.788	5083
835.926	4999
836.064	4980
836.202	4984
836.34	5273
836.478	5299
836.615	5201
836.753	5326
836.891	5410
837.029	5280
837.167	5311
837.305	5239
837.443	5280
837.58	5166
837.718	5311
837.856	5261
837.993	5212
838.131	5258
838.269	5273
838.406	5235
838.544	5292
838.681	5094
838.819	5102
838.956	4976
839.094	4984
839.231	5064
839.369	5162
839.506	5497
839.643	5341
839.781	5155
839.918	5170
840.055	5231
840.193	5197
840.33	5197
840.467	5254
840.604	5231
840.742	5543
840.879	5197
841.016	5136
841.153	5166
841.29	5433
841.427	5402
841.564	5387
841.701	5474
841.838	5391
841.975	5315
842.112	5360
842.249	5231
842.385	5166
842.522	5414
842.659	5246
842.796	5258
842.933	5235
843.069	5212
843.206	5235
843.343	5360
843.479	5318
843.616	5353
843.752	5143
843.889	5079
844.025	5261
844.162	5136
844.298	5261
844.435	5185
844.571	5094
844.708	5277
844.844	5414
844.98	5421
845.117	5368
845.253	5204
845.389	5124
845.525	5189
845.661	5201
845.798	5090
845.934	5197
846.07	5132
846.206	5242
846.342	5387
846.478	5284
846.614	5090
846.75	5037
846.886	5064
847.022	5178
847.158	5102
847.294	5162
847.429	5189
847.565	5128
847.701	5402
847.837	5014
847.972	4881
848.108	5037
848.244	5033
848.379	4858
848.515	4790
848.65	4828
848.786	4839
848.921	4824
849.057	4877
849.192	4984
849.328	4873
849.463	4934
849.598	4881
849.734	4885
849.869	4710
850.004	4733
850.14	4729
850.275	4694
850.41	4615
850.545	4656
850.68	4687
850.815	4725
850.95	4721
851.085	4923
851.22	4862
851.355	4729
851.49	4664
851.625	4664
851.76	4748
851.895	4634
852.03	4599
852.165	4759
852.299	4771
852.434	4831
852.569	4850
852.703	4850
852.838	4904
852.973	5003
853.107	4991
853.242	4721
853.376	4721
853.511	4660
853.645	4645
853.78	4873
853.914	4759
854.048	4767
854.183	4691
854.317	4763
854.451	4919
854.585	4752
854.72	4714
854.854	4816
854.988	4634
855.122	4736
855.256	4565
855.39	4698
855.524	4873
855.658	4828
855.792	4786
855.926	4824
856.06	4824
856.194	4885
856.327	4790
856.461	4675
856.595	4714
856.729	4706
856.862	4801
856.996	4786
857.13	4812
857.263	4873
857.397	4885
857.53	4721
857.664	4816
857.797	4850
857.931	4877
858.064	4755
858.197	4839
858.331	4683
858.464	4694
858.597	4573
858.731	4710
858.864	4755
858.997	4668
859.13	4706
859.263	4717
859.396	4759
859.529	4683
859.662	4607
859.795	4596
859.928	4702
860.061	4843
860.194	4820
860.327	4675
860.46	4649
860.592	4790
860.725	4873
860.858	4843
860.99	4649
861.123	4580
861.256	4584
861.388	4694
861.521	5520
861.653	4531
861.786	4497
861.918	4531
862.05	4584
862.183	4660
862.315	4637
862.447	4706
862.58	4626
862.712	4470
862.844	4428
862.976	4618
863.108	4474
863.24	4953
863.372	4417
863.504	4455
863.636	4466
863.768	4519
863.9	4523
864.032	4398
864.164	4432
864.296	4519
864.428	4580
864.559	4664
864.691	4558
864.823	4596
864.954	4577
865.086	4599
865.217	4550
865.349	4500
865.48	4523
865.612	4554
865.743	4694
865.875	4550
866.006	4497
866.137	4531
866.269	4485
866.4	4455
866.531	4508
866.662	4474
866.793	4485
866.924	4497
867.055	4573
867.186	4508
867.317	4516
867.448	4432
867.579	4443
867.71	4451
867.841	4447
867.972	4538
868.103	4538
868.233	4538
868.364	4523
868.495	4565
868.625	4748
868.756	4850
868.886	4679
869.017	4698
869.147	4812
869.278	4839
869.408	4782
869.539	4710
869.669	4797
869.799	4736
869.929	4774
870.06	4786
870.19	5006
870.32	5029
870.45	5018
870.58	5124
870.71	5201
870.84	5166
870.97	4995
871.1	4949
871.23	5261
871.36	5151
871.489	5060
871.619	5140
871.749	5151
871.879	5185
872.008	5242
872.138	5117
872.267	5056
872.397	4934
872.526	4866
872.656	4820
872.785	4908
872.915	4965
873.044	5102
873.173	4995
873.303	5052
873.432	5041
873.561	5025
873.69	4968
873.819	4953
873.948	4968
874.077	4885
874.206	4805
874.335	4911
874.464	4949
874.593	5067
874.722	5052
874.851	5162
874.979	5162
875.108	5098
875.237	4965
875.365	4900
875.494	4953
875.623	5010
875.751	4862
875.88	4984
876.008	5075
876.136	5136
876.265	5307
876.393	5433
876.521	5330
876.65	5288
876.778	5227
876.906	5140
877.034	5079
877.162	5094
877.29	5102
877.418	5128
877.546	5079
877.674	5136
877.802	5075
877.93	5003
878.058	4980
878.185	4938
878.313	5041
878.441	5014
878.568	4900
878.696	4930
878.824	4999
878.951	5075
879.079	5189
879.206	5429
879.333	5174
879.461	5071
879.588	5060
879.715	5170
879.842	5299
879.97	5060
880.097	4866
880.224	4828
880.351	4866
880.478	4854
880.605	4919
880.732	4847
880.859	5136
880.986	4984
881.112	4968
881.239	4881
881.366	4694
881.493	4714
881.619	4622
881.746	4725
881.872	4721
881.999	4706
882.125	4729
882.252	4850
882.378	4900
882.505	5041
882.631	4831
882.757	4771
882.883	4778
883.01	4771
883.136	4717
883.262	4664
883.388	4683
883.514	4877
883.64	4942
883.766	4900
883.892	4736
884.018	4767
884.143	4972
884.269	5045
884.395	4759
884.52	4679
884.646	4694
884.772	4649
884.897	4611
885.023	4698
885.148	4847
885.274	4980
885.399	4839
885.524	4755
885.65	4782
885.775	4847
885.9	4736
886.025	4946
886.15	4801
886.275	4790
886.4	4691
886.525	4831
886.65	4744
886.775	4778
886.9	4961
887.025	5102
887.149	4866
887.274	4740
887.399	4573
887.523	4668
887.648	4649
887.773	4645
887.897	4797
888.021	4835
888.146	4721
888.27	4904
888.395	4984
888.519	4877
888.643	4862
888.767	4900
888.891	4721
889.015	4675
889.139	4752
889.263	4691
889.387	4809
889.511	4938
889.635	4892
889.759	4710
889.883	4725
890.006	4786
890.13	4919
890.254	4698
890.377	4725
890.501	4603
890.624	4569
890.748	4721
890.871	4538
890.995	4512
891.118	4447
891.241	4641
891.364	4573
891.488	4698
891.611	4535
891.734	4630
891.857	4672
891.98	4630
892.103	4714
892.226	4607
892.349	4577
892.471	4508
892.594	4599
892.717	4622
892.839	4660
892.962	4660
893.085	4721
893.207	4679
893.33	4493
893.452	4603
893.575	4774
893.697	4653
893.819	4831
893.941	4911
894.064	4831
894.186	4626
894.308	4622
894.43	4812
894.552	4930
894.674	4778
894.796	4630
894.918	4664
895.04	4611
895.161	4744
895.283	4702
895.405	4645
895.526	4668
895.648	4755
895.769	4755
895.891	4767
896.012	4812
896.134	4835
896.255	4714
896.376	4675
896.498	4698
896.619	4748
896.74	4733
896.861	4675
896.982	4965
897.103	5174
897.224	4908
897.345	4774
897.466	4706
897.587	4801
897.708	4873
897.828	4816
897.949	4763
898.07	4607
898.19	4675
898.311	4870
898.431	4717
898.552	4759
898.672	4892
898.792	4873
898.913	4782
899.033	4656
899.153	4542
899.273	4497
899.393	4554
899.513	4535
899.633	4580
899.753	4634
899.873	4546
899.993	4675
900.113	4596
900.232	4660
900.352	4622
900.472	4531
900.591	4440
900.711	4504
900.83	4447
900.95	4656
901.069	4721
901.189	4626
901.308	4386
901.427	4375
901.546	4421
901.665	4504
901.784	4569
901.904	4451
902.023	4344
902.141	4230
902.26	4230
902.379	4390
902.498	4246
902.617	4268
902.735	4398
902.854	4421
902.973	4417
903.091	4230
903.21	4238
903.328	4306
903.446	4268
903.565	4295
903.683	4413
903.801	4314
903.919	4405
904.038	4459
904.156	4390
904.274	4478
904.392	4417
904.51	4504
904.627	4508
904.745	4637
904.863	4683
904.981	4428
905.098	4363
905.216	4436
905.334	4481
905.451	4474
905.569	4516
905.686	4645
905.803	4584
905.921	4459
906.038	4573
906.155	4512
906.272	4485
906.389	4542
906.506	4417
906.623	4417
906.74	4459
906.857	4409
906.974	4383
907.091	4618
907.208	4740
907.324	4683
907.441	4542
907.557	4451
907.674	4383
907.79	4398
907.907	4394
908.023	4531
908.139	4523
908.256	4485
908.372	4504
908.488	4561
908.604	4394
908.72	4337
908.836	4432
908.952	4424
909.068	4497
909.184	4622
909.3	4527
909.415	4626
909.531	4577
909.647	4356
909.762	4424
909.878	4459
909.993	4512
910.108	4390
910.224	4462
910.339	4542
910.454	4428
910.57	4447
910.685	4386
910.8	4733
910.915	4679
911.03	4523
911.145	4360
911.259	4413
911.374	4417
911.489	4325
911.604	4318
911.718	4185
911.833	4223
911.947	4120
912.062	4128
912.176	4280
912.291	4234
912.405	4314
912.519	4546
912.633	4519
912.748	4436
912.862	4363
912.976	4253
913.09	4128
913.204	4234
913.318	4322
913.431	4417
913.545	4402
913.659	4443
913.772	4394
913.886	4272
914	4280
914.113	4443
914.226	4497
914.34	4466
914.453	4284
914.566	4508
914.68	4341
914.793	4356
914.906	4196
915.019	4147
915.132	4135
915.245	4238
915.358	4238
915.47	4299
915.583	4348
915.696	4367
915.809	4432
915.921	4481
916.034	4325
916.146	4314
916.259	4261
916.371	4409
916.483	4402
916.595	4261
916.708	4352
916.82	4367
916.932	4394
917.044	4402
917.156	4363
917.268	4268
917.38	4348
917.491	4299
917.603	4402
917.715	4474
917.826	4478
917.938	4394
918.049	4265
918.161	4443
918.272	4622
918.384	4569
918.495	4481
918.606	4360
918.717	4249
918.828	4394
918.939	4436
919.05	4287
919.161	4363
919.272	4242
919.383	4265
919.494	4474
919.604	4656
919.715	4474
919.826	4386
919.936	4421
920.047	4538
920.157	4558
920.267	4725
920.378	4615
920.488	4550
920.598	4740
920.708	4930
920.818	4816
920.928	4824
921.038	4927
921.148	4934
921.258	4668
921.368	4675
921.477	4550
921.587	4535
921.697	4451
921.806	4569
921.916	4485
922.025	4306
922.134	4261
922.244	4287
922.353	4333
922.462	4207
922.571	4181
922.68	4051
922.789	4093
922.898	4090
923.007	4013
923.116	4150
923.224	4150
923.333	4093
923.442	4040
923.55	4017
923.659	4067
923.767	4143
923.876	3998
923.984	4147
924.092	4051
924.201	4093
924.309	4109
924.417	4188
924.525	4162
924.633	4139
924.741	5113
924.849	4002
924.956	4192
925.064	4002
925.172	3896
925.279	4067
925.387	4120
925.494	4093
925.602	4272
925.709	4253
925.816	4078
925.924	4158
926.031	4265
926.138	4230
926.245	4268
926.352	4143
926.459	4265
926.566	4375
926.673	4166
926.779	4105
926.886	4169
926.993	4048
927.099	4067
927.206	3987
927.312	4010
927.419	4074
927.525	4032
927.631	4120
927.737	4036
927.843	3956
927.95	3911
928.056	3991
928.162	4032
928.267	4105
928.373	4717
928.479	4166
928.585	3941
928.69	4040
928.796	4143
928.901	4025
929.007	3918
929.112	4082
929.218	4029
929.323	3968
929.428	3987
929.533	4166
929.638	3945
929.743	4002
929.848	4071
929.953	4071
930.058	3979
930.163	3816
930.267	3873
930.372	4048
930.477	3854
930.581	4120
930.685	3991
930.79	3865
930.894	3926
930.998	3850
931.103	4078
931.207	3774
931.311	3720
931.415	3717
931.519	3530
931.623	3568
