Data from test_V78500241_2635.txt Node
Date: Fri Mar 25 17:07:19 CST 2022
User: usil
Spectrometer: V785-0024
Trigger mode: 0
Integration Time (sec): 4.000000E-1
Scans to average: 1
Nonlinearity correction enabled: false
Boxcar width: 0
Storing dark spectrum: false
XAxis mode: Wavelengths
Number of Pixels in Spectrum: 1024
>>>>>Begin Spectral Data<<<<<
801.071	7974
801.214	8027
801.356	7917
801.499	7849
801.641	7746
801.783	7811
801.926	7974
802.068	7993
802.211	8046
802.353	8062
802.496	7826
802.638	7788
802.78	7898
802.923	7940
803.065	7879
803.208	7856
803.35	7963
803.492	8081
803.635	8172
803.777	8039
803.919	8092
804.061	8427
804.204	8138
804.346	8088
804.488	7963
804.63	8153
804.773	8054
804.915	8123
805.057	8339
805.199	8100
805.341	8191
805.483	8240
805.626	8301
805.768	8134
805.91	8157
806.052	8142
806.194	8107
806.336	8248
806.478	8096
806.62	8088
806.762	8039
806.904	8195
807.046	8434
807.188	8290
807.33	8237
807.472	8267
807.614	8153
807.756	8180
807.898	8031
808.04	7906
808.182	7837
808.324	7856
808.465	7894
808.607	8027
808.749	8058
808.891	8229
809.033	8332
809.174	8237
809.316	8058
809.458	8016
809.6	8001
809.741	8084
809.883	8058
810.025	8100
810.166	8050
810.308	7967
810.45	8016
810.591	7833
810.733	7696
810.875	7708
811.016	7460
811.158	7476
811.299	7575
811.441	7761
811.582	7628
811.724	7582
811.865	7537
812.007	7624
812.148	7658
812.29	7575
812.431	7712
812.573	7845
812.714	7986
812.855	8149
812.997	8180
813.138	8317
813.279	8142
813.421	8111
813.562	8031
813.703	7856
813.845	7738
813.986	7438
814.127	7297
814.268	7221
814.41	7244
814.551	7190
814.692	7225
814.833	7053
814.974	7099
815.115	7110
815.256	6981
815.397	6977
815.539	6928
815.68	6859
815.821	6760
815.962	6871
816.103	6806
816.244	6757
816.385	6589
816.526	6620
816.666	6513
816.807	6327
816.948	6429
817.089	6483
817.23	6399
817.371	6403
817.512	6342
817.653	6372
817.793	6399
817.934	6410
818.075	6490
818.216	6429
818.356	6437
818.497	6254
818.638	6102
818.778	6133
818.919	6117
819.06	6213
819.2	6315
819.341	6395
819.481	6365
819.622	6544
819.762	6734
819.903	6764
820.043	6616
820.184	6585
820.324	6536
820.465	6662
820.605	6639
820.746	6623
820.886	6532
821.026	6688
821.167	6730
821.307	6875
821.447	6829
821.588	6719
821.728	6502
821.868	6525
822.008	6350
822.149	6365
822.289	6372
822.429	6235
822.569	6091
822.709	6125
822.849	5973
822.99	5904
823.13	5939
823.27	5935
823.41	5836
823.55	5760
823.69	5760
823.83	5752
823.97	5699
824.11	5528
824.25	5528
824.389	5535
824.529	5589
824.669	5543
824.809	5627
824.949	5688
825.089	5649
825.228	5539
825.368	5383
825.508	5345
825.648	5341
825.787	5357
825.927	5364
826.067	5330
826.206	5322
826.346	5440
826.485	5364
826.625	5440
826.765	5512
826.904	5486
827.044	5273
827.183	5235
827.323	5151
827.462	5227
827.601	5201
827.741	5216
827.88	5181
828.02	5124
828.159	5269
828.298	5307
828.437	5349
828.577	5227
828.716	5471
828.855	5315
828.994	5212
829.134	5147
829.273	5231
829.412	5170
829.551	5159
829.69	5170
829.829	5250
829.968	5368
830.107	5269
830.246	5284
830.385	5166
830.524	5208
830.663	5052
830.802	4972
830.941	4911
831.08	4835
831.219	5006
831.357	5010
831.496	5170
831.635	4934
831.774	4843
831.913	4862
832.051	4733
832.19	4740
832.329	4816
832.467	4721
832.606	4656
832.744	4748
832.883	4656
833.022	4725
833.16	4790
833.299	4835
833.437	4843
833.576	4847
833.714	4824
833.852	4858
833.991	4881
834.129	4999
834.267	4949
834.406	4930
834.544	4949
834.682	4946
834.821	4976
834.959	5170
835.097	5018
835.235	5128
835.373	5067
835.511	5098
835.65	5014
835.788	5033
835.926	4927
836.064	4911
836.202	4946
836.34	5159
836.478	5212
836.615	5151
836.753	5258
836.891	5292
837.029	5246
837.167	5185
837.305	5197
837.443	5155
837.58	5079
837.718	5216
837.856	5212
837.993	5178
838.131	5204
838.269	5204
838.406	5254
838.544	5178
838.681	5064
838.819	4965
838.956	4911
839.094	4900
839.231	5022
839.369	5170
839.506	5433
839.643	5284
839.781	5041
839.918	5022
840.055	5102
840.193	5113
840.33	5143
840.467	5109
840.604	5170
840.742	5391
840.879	5064
841.016	5124
841.153	5159
841.29	5379
841.427	5345
841.564	5273
841.701	5334
841.838	5239
841.975	5231
842.112	5254
842.249	5193
842.385	5067
842.522	5318
842.659	5166
842.796	5071
842.933	5197
843.069	5086
843.206	5189
843.343	5307
843.479	5288
843.616	5239
843.752	5029
843.889	5045
844.025	5261
844.162	5029
844.298	5201
844.435	5090
844.571	5060
844.708	5189
844.844	5250
844.98	5326
845.117	5299
845.253	5162
845.389	5037
845.525	5170
845.661	5102
845.798	4976
845.934	5140
846.07	5075
846.206	5151
846.342	5296
846.478	5159
846.614	5025
846.75	4942
846.886	4980
847.022	5166
847.158	4957
847.294	5064
847.429	5086
847.565	5045
847.701	5296
847.837	4862
847.972	4771
848.108	4984
848.244	4896
848.379	4733
848.515	4736
848.65	4714
848.786	4710
848.921	4710
849.057	4824
849.192	4915
849.328	4816
849.463	4843
849.598	4797
849.734	4748
849.869	4698
850.004	4622
850.14	4649
850.275	4615
850.41	4542
850.545	4573
850.68	4607
850.815	4653
850.95	4634
851.085	4850
851.22	4733
851.355	4691
851.49	4679
851.625	4603
851.76	4714
851.895	4558
852.03	4527
852.165	4656
852.299	4725
852.434	4812
852.569	4694
852.703	4759
852.838	4854
852.973	4927
853.107	4911
853.242	4687
853.376	4668
853.511	4558
853.645	4577
853.78	4767
853.914	4694
854.048	4706
854.183	4656
854.317	4698
854.451	4816
854.585	4687
854.72	4607
854.854	4778
854.988	4611
855.122	4603
855.256	4527
855.39	4645
855.524	4790
855.658	4729
855.792	4653
855.926	4691
856.06	4740
856.194	4740
856.327	4634
856.461	4565
856.595	4618
856.729	4668
856.862	4767
856.996	4702
857.13	4717
857.263	4778
857.397	4771
857.53	4626
857.664	4675
857.797	4736
857.931	4763
858.064	4683
858.197	4748
858.331	4641
858.464	4611
858.597	4554
858.731	4641
858.864	4615
858.997	4637
859.13	4634
859.263	4683
859.396	4683
859.529	4596
859.662	4531
859.795	4512
859.928	4656
860.061	4744
860.194	4725
860.327	4607
860.46	4599
860.592	4645
860.725	4771
860.858	4729
860.99	4611
861.123	4493
861.256	4504
861.388	4558
861.521	5455
861.653	4519
861.786	4462
861.918	4489
862.05	4577
862.183	4573
862.315	4607
862.447	4634
862.58	4580
862.712	4394
862.844	4325
862.976	4440
863.108	4462
863.24	4763
863.372	4314
863.504	4413
863.636	4428
863.768	4489
863.9	4440
864.032	4379
864.164	4432
864.296	4497
864.428	4542
864.559	4500
864.691	4527
864.823	4474
864.954	4489
865.086	4504
865.217	4424
865.349	4398
865.48	4440
865.612	4523
865.743	4622
865.875	4470
866.006	4432
866.137	4443
866.269	4428
866.4	4470
866.531	4417
866.662	4440
866.793	4424
866.924	4428
867.055	4497
867.186	4447
867.317	4383
867.448	4371
867.579	4375
867.71	4386
867.841	4352
867.972	4447
868.103	4424
868.233	4417
868.364	4459
868.495	4478
868.625	4649
868.756	4706
868.886	4565
869.017	4618
869.147	4801
869.278	4736
869.408	4596
869.539	4668
869.669	4694
869.799	4622
869.929	4725
870.06	4763
870.19	4984
870.32	4965
870.45	4942
870.58	5022
870.71	5083
870.84	5041
870.97	4976
871.1	4881
871.23	5102
871.36	5132
871.489	4991
871.619	5094
871.749	5109
871.879	5132
872.008	5193
872.138	5029
872.267	4991
872.397	4850
872.526	4839
872.656	4710
872.785	4797
872.915	4915
873.044	5064
873.173	4908
873.303	4968
873.432	4972
873.561	4930
873.69	4877
873.819	4858
873.948	4934
874.077	4828
874.206	4694
874.335	4801
874.464	4957
874.593	5083
874.722	4957
874.851	5147
874.979	5086
875.108	5003
875.237	4915
875.365	4873
875.494	4927
875.623	4987
875.751	4843
875.88	4892
876.008	4957
876.136	5029
876.265	5174
876.393	5315
876.521	5273
876.65	5235
876.778	5075
876.906	5090
877.034	5022
877.162	5033
877.29	4961
877.418	5037
877.546	5067
877.674	5090
877.802	5037
877.93	5067
878.058	4904
878.185	4904
878.313	4987
878.441	4930
878.568	4805
878.696	4862
878.824	4957
878.951	4999
879.079	5124
879.206	5258
879.333	5121
879.461	4968
879.588	5025
879.715	5128
879.842	5208
879.97	5003
880.097	4763
880.224	4755
880.351	4816
880.478	4809
880.605	4790
880.732	4752
880.859	5033
880.986	4877
881.112	4923
881.239	4774
881.366	4698
881.493	4596
881.619	4584
881.746	4615
881.872	4618
881.999	4592
882.125	4653
882.252	4786
882.378	4847
882.505	4892
882.631	4812
882.757	4672
882.883	4710
883.01	4778
883.136	4660
883.262	4565
883.388	4615
883.514	4801
883.64	4862
883.766	4763
883.892	4653
884.018	4710
884.143	4949
884.269	4991
884.395	4694
884.52	4660
884.646	4653
884.772	4558
884.897	4580
885.023	4660
885.148	4812
885.274	4870
885.399	4778
885.524	4714
885.65	4706
885.775	4714
885.9	4683
886.025	4847
886.15	4809
886.275	4771
886.4	4675
886.525	4721
886.65	4706
886.775	4634
886.9	4877
887.025	5003
887.149	4809
887.274	4611
887.399	4611
887.523	4584
887.648	4519
887.773	4504
887.897	4786
888.021	4748
888.146	4649
888.27	4786
888.395	4866
888.519	4767
888.643	4786
888.767	4801
888.891	4717
889.015	4573
889.139	4653
889.263	4573
889.387	4748
889.511	4862
889.635	4748
889.759	4653
889.883	4656
890.006	4710
890.13	4824
890.254	4634
890.377	4675
890.501	4565
890.624	4584
890.748	4637
890.871	4504
890.995	4440
891.118	4383
891.241	4531
891.364	4500
891.488	4622
891.611	4489
891.734	4516
891.857	4596
891.98	4535
892.103	4668
892.226	4573
892.349	4493
892.471	4432
892.594	4504
892.717	4599
892.839	4519
892.962	4592
893.085	4641
893.207	4584
893.33	4436
893.452	4519
893.575	4641
893.697	4577
893.819	4778
893.941	4782
894.064	4793
894.186	4565
894.308	4531
894.43	4694
894.552	4786
894.674	4752
894.796	4546
894.918	4558
895.04	4554
895.161	4656
895.283	4645
895.405	4546
895.526	4615
895.648	4660
895.769	4656
895.891	4672
896.012	4668
896.134	4706
896.255	4626
896.376	4668
896.498	4599
896.619	4672
896.74	4588
896.861	4596
896.982	4927
897.103	5045
897.224	4850
897.345	4679
897.466	4668
897.587	4721
897.708	4870
897.828	4805
897.949	4664
898.07	4558
898.19	4634
898.311	4797
898.431	4679
898.552	4687
898.672	4797
898.792	4805
898.913	4736
899.033	4615
899.153	4478
899.273	4443
899.393	4531
899.513	4527
899.633	4542
899.753	4531
899.873	4497
899.993	4565
900.113	4558
900.232	4607
900.352	4558
900.472	4516
900.591	4394
900.711	4504
900.83	4478
900.95	4630
901.069	4694
901.189	4558
901.308	4329
901.427	4322
901.546	4409
901.665	4497
901.784	4561
901.904	4455
902.023	4375
902.141	4242
902.26	4192
902.379	4341
902.498	4299
902.617	4276
902.735	4379
902.854	4371
902.973	4421
903.091	4249
903.21	4246
903.328	4341
903.446	4280
903.565	4287
903.683	4367
903.801	4325
903.919	4424
904.038	4455
904.156	4356
904.274	4428
904.392	4428
904.51	4478
904.627	4504
904.745	4618
904.863	4714
904.981	4462
905.098	4371
905.216	4440
905.334	4443
905.451	4481
905.569	4485
905.686	4622
905.803	4596
905.921	4402
906.038	4577
906.155	4512
906.272	4455
906.389	4523
906.506	4447
906.623	4421
906.74	4421
906.857	4344
906.974	4417
907.091	4615
907.208	4714
907.324	4603
907.441	4558
907.557	4405
907.674	4383
907.79	4363
907.907	4462
908.023	4542
908.139	4512
908.256	4485
908.372	4523
908.488	4523
908.604	4413
908.72	4379
908.836	4390
908.952	4443
909.068	4436
909.184	4622
909.3	4538
909.415	4626
909.531	4561
909.647	4405
909.762	4405
909.878	4398
909.993	4455
910.108	4481
910.224	4432
910.339	4538
910.454	4432
910.57	4402
910.685	4329
910.8	4626
910.915	4580
911.03	4455
911.145	4398
911.259	4402
911.374	4443
911.489	4329
911.604	4303
911.718	4204
911.833	4291
911.947	4147
912.062	4025
912.176	4219
912.291	4265
912.405	4291
912.519	4474
912.633	4519
912.748	4447
912.862	4325
912.976	4242
913.09	4101
913.204	4196
913.318	4310
913.431	4386
913.545	4367
913.659	4455
913.772	4402
913.886	4287
914	4337
914.113	4428
914.226	4421
914.34	4455
914.453	4295
914.566	4470
914.68	4352
914.793	4383
914.906	4177
915.019	4143
915.132	4158
915.245	4230
915.358	4249
915.47	4268
915.583	4303
915.696	4303
915.809	4432
915.921	4459
916.034	4280
916.146	4265
916.259	4276
916.371	4413
916.483	4417
916.595	4261
916.708	4341
916.82	4329
916.932	4344
917.044	4348
917.156	4348
917.268	4234
917.38	4325
917.491	4272
917.603	4398
917.715	4455
917.826	4436
917.938	4432
918.049	4299
918.161	4436
918.272	4546
918.384	4558
918.495	4527
918.606	4333
918.717	4284
918.828	4375
918.939	4386
919.05	4306
919.161	4386
919.272	4131
919.383	4234
919.494	4470
919.604	4675
919.715	4440
919.826	4428
919.936	4466
920.047	4577
920.157	4474
920.267	4706
920.378	4630
920.488	4493
920.598	4778
920.708	4908
920.818	4782
920.928	4786
921.038	4991
921.148	4972
921.258	4641
921.368	4607
921.477	4527
921.587	4485
921.697	4470
921.806	4592
921.916	4462
922.025	4291
922.134	4341
922.244	4238
922.353	4371
922.462	4230
922.571	4181
922.68	4036
922.789	3972
922.898	4071
923.007	3991
923.116	4116
923.224	4078
923.333	4116
923.442	4040
923.55	4017
923.659	4071
923.767	4143
923.876	4036
923.984	4154
924.092	4013
924.201	4131
924.309	4101
924.417	4196
924.525	4090
924.633	4116
924.741	5079
924.849	3975
924.956	4124
925.064	4017
925.172	3975
925.279	3991
925.387	4044
925.494	4082
925.602	4215
925.709	4207
925.816	4067
925.924	4173
926.031	4276
926.138	4211
926.245	4249
926.352	4090
926.459	4249
926.566	4360
926.673	4181
926.779	4147
926.886	4105
926.993	3991
927.099	3991
927.206	3956
927.312	3972
927.419	4082
927.525	4067
927.631	4090
927.737	3979
927.843	3994
927.95	3896
928.056	3968
928.162	3998
928.267	4090
928.373	4580
928.479	4135
928.585	3903
928.69	4067
928.796	4120
928.901	3968
929.007	3880
929.112	4048
929.218	4029
929.323	3972
929.428	3987
929.533	4207
929.638	3960
929.743	3998
929.848	4082
929.953	4036
930.058	3922
930.163	3827
930.267	3850
930.372	3979
930.477	3846
930.581	4116
930.685	3964
930.79	3861
930.894	3899
930.998	3888
931.103	4032
931.207	3724
931.311	3713
931.415	3747
931.519	3572
931.623	3587
