Data from test_V78500241_428.txt Node
Date: Fri Mar 25 16:51:58 CST 2022
User: usil
Spectrometer: V785-0024
Trigger mode: 0
Integration Time (sec): 4.000000E-1
Scans to average: 1
Nonlinearity correction enabled: false
Boxcar width: 0
Storing dark spectrum: false
XAxis mode: Wavelengths
Number of Pixels in Spectrum: 1024
>>>>>Begin Spectral Data<<<<<
801.071	8039
801.214	7997
801.356	7883
801.499	7833
801.641	7822
801.783	7849
801.926	8035
802.068	7974
802.211	8046
802.353	8008
802.496	7875
802.638	7921
802.78	7906
802.923	7951
803.065	7902
803.208	7868
803.35	7974
803.492	8046
803.635	8130
803.777	7989
803.919	8005
804.061	8434
804.204	8134
804.346	8065
804.488	7951
804.63	8092
804.773	8027
804.915	8069
805.057	8309
805.199	8244
805.341	8233
805.483	8248
805.626	8187
805.768	8073
805.91	8126
806.052	8195
806.194	8134
806.336	8263
806.478	8176
806.62	8092
806.762	8138
806.904	8256
807.046	8442
807.188	8374
807.33	8259
807.472	8328
807.614	8183
807.756	8176
807.898	8039
808.04	7917
808.182	7986
808.324	7936
808.465	8012
808.607	8065
808.749	8065
808.891	8214
809.033	8301
809.174	8256
809.316	8027
809.458	8054
809.6	7989
809.741	8054
809.883	8043
810.025	8073
810.166	8065
810.308	8039
810.45	8046
810.591	7887
810.733	7746
810.875	7689
811.016	7480
811.158	7556
811.299	7643
811.441	7871
811.582	7738
811.724	7552
811.865	7655
812.007	7655
812.148	7620
812.29	7670
812.431	7765
812.573	7951
812.714	8035
812.855	8126
812.997	8206
813.138	8370
813.279	8218
813.421	8081
813.562	8054
813.703	7890
813.845	7879
813.986	7476
814.127	7422
814.268	7213
814.41	7225
814.551	7145
814.692	7278
814.833	7057
814.974	7110
815.115	7129
815.256	6977
815.397	6897
815.539	6932
815.68	6821
815.821	6783
815.962	6859
816.103	6848
816.244	6791
816.385	6665
816.526	6616
816.666	6467
816.807	6327
816.948	6498
817.089	6448
817.23	6429
817.371	6365
817.512	6353
817.653	6380
817.793	6338
817.934	6429
818.075	6429
818.216	6437
818.356	6376
818.497	6220
818.638	6121
818.778	6159
818.919	6133
819.06	6175
819.2	6342
819.341	6311
819.481	6353
819.622	6536
819.762	6802
819.903	6734
820.043	6536
820.184	6604
820.324	6612
820.465	6665
820.605	6692
820.746	6612
820.886	6540
821.026	6711
821.167	6741
821.307	6764
821.447	6802
821.588	6684
821.728	6585
821.868	6540
822.008	6315
822.149	6388
822.289	6338
822.429	6167
822.569	6091
822.709	6106
822.849	5946
822.99	5980
823.13	5942
823.27	5901
823.41	5786
823.55	5832
823.69	5779
823.83	5771
823.97	5680
824.11	5524
824.25	5490
824.389	5543
824.529	5524
824.669	5547
824.809	5653
824.949	5619
825.089	5592
825.228	5600
825.368	5440
825.508	5353
825.648	5364
825.787	5376
825.927	5379
826.067	5353
826.206	5292
826.346	5417
826.485	5444
826.625	5421
826.765	5581
826.904	5474
827.044	5242
827.183	5181
827.323	5201
827.462	5258
827.601	5140
827.741	5220
827.88	5178
828.02	5121
828.159	5284
828.298	5303
828.437	5334
828.577	5280
828.716	5493
828.855	5334
828.994	5223
829.134	5140
829.273	5220
829.412	5132
829.551	5132
829.69	5162
829.829	5261
829.968	5318
830.107	5280
830.246	5254
830.385	5197
830.524	5086
830.663	5064
830.802	4938
830.941	4885
831.08	4839
831.219	4991
831.357	4957
831.496	5197
831.635	4934
831.774	4828
831.913	4862
832.051	4763
832.19	4744
832.329	4911
832.467	4714
832.606	4615
832.744	4717
832.883	4691
833.022	4752
833.16	4752
833.299	4790
833.437	4828
833.576	4854
833.714	4870
833.852	4835
833.991	4911
834.129	4984
834.267	4919
834.406	4896
834.544	4904
834.682	4976
834.821	5018
834.959	5159
835.097	5014
835.235	5159
835.373	5064
835.511	5067
835.65	5037
835.788	5037
835.926	4930
836.064	4923
836.202	4911
836.34	5181
836.478	5227
836.615	5102
836.753	5189
836.891	5288
837.029	5261
837.167	5227
837.305	5143
837.443	5132
837.58	5041
837.718	5231
837.856	5212
837.993	5136
838.131	5231
838.269	5258
838.406	5223
838.544	5216
838.681	5033
838.819	5033
838.956	4885
839.094	4934
839.231	4961
839.369	5105
839.506	5429
839.643	5261
839.781	5075
839.918	5048
840.055	5079
840.193	5083
840.33	5162
840.467	5094
840.604	5208
840.742	5452
840.879	5140
841.016	5109
841.153	5201
841.29	5353
841.427	5364
841.564	5307
841.701	5322
841.838	5258
841.975	5246
842.112	5242
842.249	5147
842.385	5181
842.522	5398
842.659	5208
842.796	5109
842.933	5147
843.069	5143
843.206	5174
843.343	5326
843.479	5223
843.616	5269
843.752	5037
843.889	5060
844.025	5280
844.162	5037
844.298	5261
844.435	5098
844.571	5079
844.708	5185
844.844	5288
844.98	5303
845.117	5288
845.253	5193
845.389	5045
845.525	5166
845.661	5216
845.798	5045
845.934	5193
846.07	5037
846.206	5201
846.342	5258
846.478	5185
846.614	5022
846.75	5003
846.886	4965
847.022	5170
847.158	4968
847.294	5029
847.429	5102
847.565	5052
847.701	5326
847.837	4847
847.972	4774
848.108	4942
848.244	4896
848.379	4744
848.515	4698
848.65	4771
848.786	4714
848.921	4755
849.057	4885
849.192	4896
849.328	4828
849.463	4831
849.598	4797
849.734	4733
849.869	4698
850.004	4577
850.14	4634
850.275	4573
850.41	4508
850.545	4546
850.68	4611
850.815	4672
850.95	4618
851.085	4835
851.22	4793
851.355	4675
851.49	4668
851.625	4664
851.76	4649
851.895	4527
852.03	4565
852.165	4660
852.299	4675
852.434	4790
852.569	4755
852.703	4839
852.838	4820
852.973	4957
853.107	4953
853.242	4752
853.376	4660
853.511	4535
853.645	4634
853.78	4805
853.914	4702
854.048	4641
854.183	4691
854.317	4714
854.451	4835
854.585	4675
854.72	4649
854.854	4752
854.988	4622
855.122	4607
855.256	4523
855.39	4683
855.524	4740
855.658	4729
855.792	4637
855.926	4748
856.06	4752
856.194	4809
856.327	4672
856.461	4599
856.595	4588
856.729	4645
856.862	4778
856.996	4729
857.13	4782
857.263	4767
857.397	4820
857.53	4637
857.664	4733
857.797	4801
857.931	4801
858.064	4725
858.197	4755
858.331	4729
858.464	4637
858.597	4538
858.731	4641
858.864	4649
858.997	4611
859.13	4618
859.263	4656
859.396	4698
859.529	4596
859.662	4558
859.795	4546
859.928	4611
860.061	4763
860.194	4694
860.327	4607
860.46	4554
860.592	4660
860.725	4698
860.858	4752
860.99	4569
861.123	4546
861.256	4519
861.388	4618
861.521	5429
861.653	4459
861.786	4413
861.918	4462
862.05	4504
862.183	4577
862.315	4630
862.447	4607
862.58	4493
862.712	4409
862.844	4337
862.976	4504
863.108	4417
863.24	4786
863.372	4310
863.504	4440
863.636	4409
863.768	4535
863.9	4428
864.032	4356
864.164	4440
864.296	4504
864.428	4527
864.559	4630
864.691	4542
864.823	4527
864.954	4531
865.086	4493
865.217	4447
865.349	4424
865.48	4466
865.612	4478
865.743	4653
865.875	4451
866.006	4443
866.137	4504
866.269	4440
866.4	4447
866.531	4417
866.662	4436
866.793	4436
866.924	4413
867.055	4546
867.186	4470
867.317	4447
867.448	4398
867.579	4390
867.71	4405
867.841	4379
867.972	4462
868.103	4462
868.233	4447
868.364	4462
868.495	4481
868.625	4668
868.756	4721
868.886	4565
869.017	4641
869.147	4755
869.278	4820
869.408	4611
869.539	4615
869.669	4694
869.799	4641
869.929	4782
870.06	4759
870.19	4934
870.32	4957
870.45	4919
870.58	5006
870.71	5037
870.84	5025
870.97	4980
871.1	4908
871.23	5178
871.36	5094
871.489	5052
871.619	5064
871.749	5102
871.879	5174
872.008	5147
872.138	5067
872.267	4976
872.397	4858
872.526	4812
872.656	4744
872.785	4839
872.915	4965
873.044	5056
873.173	4961
873.303	4984
873.432	5025
873.561	4957
873.69	4908
873.819	4843
873.948	4930
874.077	4805
874.206	4786
874.335	4820
874.464	4889
874.593	5083
874.722	4911
874.851	5071
874.979	5064
875.108	5037
875.237	4919
875.365	4881
875.494	4930
875.623	5029
875.751	4850
875.88	4885
876.008	4942
876.136	5029
876.265	5178
876.393	5357
876.521	5231
876.65	5261
876.778	5193
876.906	5003
877.034	4980
877.162	5025
877.29	4999
877.418	5079
877.546	5094
877.674	5052
877.802	5052
877.93	4984
878.058	4976
878.185	4881
878.313	5010
878.441	4942
878.568	4809
878.696	4854
878.824	4961
878.951	5014
879.079	5064
879.206	5280
879.333	5128
879.461	4984
879.588	4991
879.715	5090
879.842	5277
879.97	4984
880.097	4763
880.224	4767
880.351	4820
880.478	4831
880.605	4793
880.732	4755
880.859	5048
880.986	4934
881.112	4885
881.239	4759
881.366	4706
881.493	4618
881.619	4626
881.746	4637
881.872	4679
881.999	4710
882.125	4660
882.252	4843
882.378	4820
882.505	4961
882.631	4858
882.757	4645
882.883	4755
883.01	4752
883.136	4706
883.262	4599
883.388	4626
883.514	4824
883.64	4831
883.766	4805
883.892	4702
884.018	4740
884.143	4908
884.269	5041
884.395	4683
884.52	4626
884.646	4683
884.772	4577
884.897	4607
885.023	4626
885.148	4801
885.274	4866
885.399	4774
885.524	4721
885.65	4706
885.775	4782
885.9	4717
886.025	4858
886.15	4812
886.275	4729
886.4	4714
886.525	4736
886.65	4721
886.775	4748
886.9	4862
887.025	5132
887.149	4801
887.274	4641
887.399	4634
887.523	4618
887.648	4573
887.773	4588
887.897	4778
888.021	4774
888.146	4725
888.27	4793
888.395	4873
888.519	4820
888.643	4831
888.767	4877
888.891	4687
889.015	4577
889.139	4656
889.263	4607
889.387	4793
889.511	4831
889.635	4793
889.759	4721
889.883	4630
890.006	4698
890.13	4831
890.254	4630
890.377	4653
890.501	4554
890.624	4516
890.748	4599
890.871	4504
890.995	4470
891.118	4344
891.241	4554
891.364	4512
891.488	4630
891.611	4500
891.734	4535
891.857	4653
891.98	4542
892.103	4660
892.226	4561
892.349	4512
892.471	4459
892.594	4546
892.717	4611
892.839	4569
892.962	4630
893.085	4683
893.207	4630
893.33	4470
893.452	4493
893.575	4664
893.697	4592
893.819	4835
893.941	4828
894.064	4786
894.186	4588
894.308	4565
894.43	4729
894.552	4824
894.674	4721
894.796	4546
894.918	4637
895.04	4554
895.161	4714
895.283	4717
895.405	4577
895.526	4630
895.648	4717
895.769	4660
895.891	4714
896.012	4729
896.134	4771
896.255	4626
896.376	4630
896.498	4653
896.619	4683
896.74	4622
896.861	4637
896.982	4942
897.103	5067
897.224	4835
897.345	4812
897.466	4637
897.587	4733
897.708	4850
897.828	4771
897.949	4679
898.07	4588
898.19	4618
898.311	4801
898.431	4683
898.552	4736
898.672	4854
898.792	4790
898.913	4774
899.033	4664
899.153	4478
899.273	4413
899.393	4500
899.513	4584
899.633	4497
899.753	4603
899.873	4508
899.993	4592
900.113	4550
900.232	4603
900.352	4512
900.472	4470
900.591	4348
900.711	4462
900.83	4421
900.95	4599
901.069	4729
901.189	4558
901.308	4367
901.427	4314
901.546	4367
901.665	4508
901.784	4489
901.904	4379
902.023	4379
902.141	4215
902.26	4093
902.379	4249
902.498	4249
902.617	4227
902.735	4375
902.854	4371
902.973	4371
903.091	4238
903.21	4211
903.328	4306
903.446	4257
903.565	4280
903.683	4371
903.801	4276
903.919	4386
904.038	4424
904.156	4291
904.274	4451
904.392	4428
904.51	4383
904.627	4455
904.745	4516
904.863	4694
904.981	4405
905.098	4291
905.216	4371
905.334	4481
905.451	4398
905.569	4421
905.686	4569
905.803	4558
905.921	4421
906.038	4527
906.155	4405
906.272	4363
906.389	4428
906.506	4344
906.623	4367
906.74	4447
906.857	4325
906.974	4371
907.091	4512
907.208	4691
907.324	4637
907.441	4500
907.557	4348
907.674	4348
907.79	4325
907.907	4440
908.023	4508
908.139	4489
908.256	4455
908.372	4478
908.488	4466
908.604	4341
908.72	4314
908.836	4367
908.952	4360
909.068	4432
909.184	4592
909.3	4493
909.415	4577
909.531	4580
909.647	4333
909.762	4352
909.878	4299
909.993	4451
910.108	4405
910.224	4447
910.339	4447
910.454	4383
910.57	4363
910.685	4318
910.8	4641
910.915	4546
911.03	4535
911.145	4341
911.259	4356
911.374	4344
911.489	4314
911.604	4303
911.718	4181
911.833	4200
911.947	4082
912.062	4036
912.176	4211
912.291	4249
912.405	4246
912.519	4459
912.633	4485
912.748	4398
912.862	4344
912.976	4200
913.09	4109
913.204	4185
913.318	4280
913.431	4363
913.545	4360
913.659	4459
913.772	4360
913.886	4287
914	4246
914.113	4383
914.226	4447
914.34	4371
914.453	4299
914.566	4443
914.68	4325
914.793	4352
914.906	4177
915.019	4128
915.132	4078
915.245	4188
915.358	4238
915.47	4223
915.583	4280
915.696	4306
915.809	4440
915.921	4402
916.034	4242
916.146	4242
916.259	4219
916.371	4383
916.483	4333
916.595	4272
916.708	4337
916.82	4276
916.932	4318
917.044	4322
917.156	4284
917.268	4230
917.38	4291
917.491	4284
917.603	4344
917.715	4405
917.826	4428
917.938	4398
918.049	4265
918.161	4386
918.272	4550
918.384	4497
918.495	4466
918.606	4265
918.717	4249
918.828	4344
918.939	4383
919.05	4261
919.161	4310
919.272	4135
919.383	4249
919.494	4466
919.604	4611
919.715	4455
919.826	4310
919.936	4421
920.047	4550
920.157	4485
920.267	4702
920.378	4542
920.488	4516
920.598	4725
920.708	4873
920.818	4748
920.928	4755
921.038	4953
921.148	4923
921.258	4577
921.368	4573
921.477	4481
921.587	4478
921.697	4394
921.806	4535
921.916	4455
922.025	4303
922.134	4246
922.244	4207
922.353	4405
922.462	4181
922.571	4090
922.68	4029
922.789	3964
922.898	3991
923.007	4032
923.116	4067
923.224	4055
923.333	4116
923.442	3983
923.55	3956
923.659	4044
923.767	4097
923.876	4036
923.984	4139
924.092	3956
924.201	4044
924.309	4059
924.417	4101
924.525	4051
924.633	4059
924.741	5045
924.849	3884
924.956	4112
925.064	3964
925.172	3937
925.279	3991
925.387	4051
925.494	4074
925.602	4211
925.709	4204
925.816	4025
925.924	4147
926.031	4223
926.138	4219
926.245	4192
926.352	4059
926.459	4257
926.566	4310
926.673	4181
926.779	4090
926.886	4071
926.993	3972
927.099	3918
927.206	3941
927.312	3949
927.419	4074
927.525	4036
927.631	4093
927.737	3968
927.843	3964
927.95	3846
928.056	3949
928.162	3983
928.267	4097
928.373	4717
928.479	4082
928.585	3865
928.69	4021
928.796	4105
928.901	3983
929.007	3865
929.112	3987
929.218	3968
929.323	3934
929.428	3991
929.533	4120
929.638	3945
929.743	3922
929.848	4048
929.953	3968
930.058	3934
930.163	3789
930.267	3838
930.372	3964
930.477	3781
930.581	4051
930.685	3945
930.79	3793
930.894	3888
930.998	3842
931.103	4044
931.207	3701
931.311	3675
931.415	3682
931.519	3523
931.623	3530
