Data from test_V78500241_13.txt Node
Date: Fri Mar 25 16:49:05 CST 2022
User: usil
Spectrometer: V785-0024
Trigger mode: 0
Integration Time (sec): 4.000000E-1
Scans to average: 1
Nonlinearity correction enabled: false
Boxcar width: 0
Storing dark spectrum: false
XAxis mode: Wavelengths
Number of Pixels in Spectrum: 1024
>>>>>Begin Spectral Data<<<<<
801.071	8039
801.214	8073
801.356	7967
801.499	7967
801.641	7826
801.783	7856
801.926	8020
802.068	8035
802.211	7978
802.353	8069
802.496	7917
802.638	7970
802.78	7997
802.923	7955
803.065	7871
803.208	7928
803.35	8016
803.492	8168
803.635	8191
803.777	8039
803.919	8081
804.061	8465
804.204	8157
804.346	8081
804.488	7993
804.63	8100
804.773	7993
804.915	8145
805.057	8267
805.199	8149
805.341	8343
805.483	8282
805.626	8282
805.768	8176
805.91	8263
806.052	8180
806.194	8084
806.336	8317
806.478	8092
806.62	8126
806.762	8142
806.904	8301
807.046	8389
807.188	8389
807.33	8370
807.472	8320
807.614	8176
807.756	8145
807.898	8065
808.04	7887
808.182	7947
808.324	7909
808.465	7993
808.607	8046
808.749	8081
808.891	8164
809.033	8237
809.174	8180
809.316	8020
809.458	8031
809.6	7974
809.741	7936
809.883	8081
810.025	8058
810.166	8100
810.308	8088
810.45	8024
810.591	7986
810.733	7780
810.875	7689
811.016	7704
811.158	7620
811.299	7734
811.441	7769
811.582	7772
811.724	7628
811.865	7571
812.007	7700
812.148	7643
812.29	7666
812.431	7757
812.573	7887
812.714	8016
812.855	8191
812.997	8244
813.138	8381
813.279	8206
813.421	8168
813.562	8050
813.703	7955
813.845	7818
813.986	7476
814.127	7350
814.268	7255
814.41	7274
814.551	7236
814.692	7278
814.833	7129
814.974	7084
815.115	7164
815.256	6985
815.397	6886
815.539	6943
815.68	6821
815.821	6810
815.962	6932
816.103	6875
816.244	6840
816.385	6620
816.526	6707
816.666	6521
816.807	6403
816.948	6471
817.089	6544
817.23	6429
817.371	6452
817.512	6433
817.653	6391
817.793	6365
817.934	6445
818.075	6521
818.216	6506
818.356	6475
818.497	6247
818.638	6190
818.778	6247
818.919	6171
819.06	6243
819.2	6391
819.341	6407
819.481	6369
819.622	6570
819.762	6840
819.903	6787
820.043	6684
820.184	6612
820.324	6677
820.465	6779
820.605	6745
820.746	6677
820.886	6578
821.026	6802
821.167	6726
821.307	6833
821.447	6791
821.588	6711
821.728	6578
821.868	6532
822.008	6350
822.149	6448
822.289	6388
822.429	6201
822.569	6133
822.709	6205
822.849	5984
822.99	5931
823.13	5916
823.27	5916
823.41	5859
823.55	5824
823.69	5794
823.83	5844
823.97	5718
824.11	5634
824.25	5562
824.389	5570
824.529	5653
824.669	5581
824.809	5680
824.949	5718
825.089	5680
825.228	5558
825.368	5440
825.508	5421
825.648	5406
825.787	5425
825.927	5425
826.067	5364
826.206	5345
826.346	5444
826.485	5452
826.625	5383
826.765	5627
826.904	5471
827.044	5315
827.183	5242
827.323	5136
827.462	5315
827.601	5227
827.741	5204
827.88	5269
828.02	5204
828.159	5223
828.298	5364
828.437	5421
828.577	5280
828.716	5478
828.855	5372
828.994	5193
829.134	5197
829.273	5212
829.412	5159
829.551	5223
829.69	5193
829.829	5345
829.968	5425
830.107	5311
830.246	5318
830.385	5212
830.524	5216
830.663	5147
830.802	5006
830.941	4896
831.08	4892
831.219	4961
831.357	5045
831.496	5201
831.635	4930
831.774	4847
831.913	4889
832.051	4797
832.19	4801
832.329	4866
832.467	4744
832.606	4626
832.744	4774
832.883	4805
833.022	4778
833.16	4839
833.299	4828
833.437	4900
833.576	4828
833.714	4911
833.852	4889
833.991	4927
834.129	5003
834.267	4987
834.406	4942
834.544	5006
834.682	5056
834.821	5033
834.959	5242
835.097	5075
835.235	5208
835.373	5143
835.511	5151
835.65	5124
835.788	5140
835.926	4972
836.064	4908
836.202	4930
836.34	5201
836.478	5261
836.615	5170
836.753	5288
836.891	5315
837.029	5341
837.167	5261
837.305	5189
837.443	5216
837.58	5136
837.718	5311
837.856	5231
837.993	5220
838.131	5258
838.269	5242
838.406	5265
838.544	5242
838.681	5048
838.819	5067
838.956	4984
839.094	4892
839.231	5052
839.369	5090
839.506	5482
839.643	5299
839.781	5102
839.918	5064
840.055	5147
840.193	5117
840.33	5140
840.467	5201
840.604	5208
840.742	5501
840.879	5109
841.016	5174
841.153	5185
841.29	5391
841.427	5341
841.564	5429
841.701	5395
841.838	5391
841.975	5296
842.112	5299
842.249	5201
842.385	5162
842.522	5364
842.659	5147
842.796	5223
842.933	5220
843.069	5242
843.206	5220
843.343	5334
843.479	5284
843.616	5360
843.752	5060
843.889	5098
844.025	5242
844.162	5113
844.298	5303
844.435	5185
844.571	5147
844.708	5250
844.844	5330
844.98	5376
845.117	5307
845.253	5201
845.389	5052
845.525	5159
845.661	5185
845.798	5056
845.934	5208
846.07	5067
846.206	5261
846.342	5303
846.478	5250
846.614	5094
846.75	5045
846.886	4968
847.022	5181
847.158	5109
847.294	5117
847.429	5166
847.565	5075
847.701	5360
847.837	4927
847.972	4862
848.108	5045
848.244	4991
848.379	4797
848.515	4782
848.65	4748
848.786	4774
848.921	4774
849.057	4961
849.192	4949
849.328	4816
849.463	4900
849.598	4835
849.734	4850
849.869	4710
850.004	4721
850.14	4721
850.275	4679
850.41	4565
850.545	4584
850.68	4660
850.815	4656
850.95	4694
851.085	4885
851.22	4793
851.355	4733
851.49	4664
851.625	4664
851.76	4687
851.895	4584
852.03	4535
852.165	4698
852.299	4694
852.434	4824
852.569	4801
852.703	4778
852.838	4923
852.973	4984
853.107	4953
853.242	4767
853.376	4721
853.511	4641
853.645	4634
853.78	4854
853.914	4725
854.048	4675
854.183	4717
854.317	4763
854.451	4858
854.585	4752
854.72	4653
854.854	4763
854.988	4664
855.122	4668
855.256	4558
855.39	4675
855.524	4812
855.658	4812
855.792	4733
855.926	4820
856.06	4812
856.194	4824
856.327	4782
856.461	4664
856.595	4653
856.729	4683
856.862	4805
856.996	4748
857.13	4797
857.263	4816
857.397	4866
857.53	4691
857.664	4805
857.797	4824
857.931	4759
858.064	4759
858.197	4797
858.331	4649
858.464	4645
858.597	4565
858.731	4694
858.864	4675
858.997	4618
859.13	4714
859.263	4717
859.396	4801
859.529	4634
859.662	4622
859.795	4630
859.928	4706
860.061	4812
860.194	4828
860.327	4687
860.46	4634
860.592	4736
860.725	4755
860.858	4797
860.99	4607
861.123	4558
861.256	4554
861.388	4618
861.521	5391
861.653	4508
861.786	4500
861.918	4489
862.05	4584
862.183	4596
862.315	4618
862.447	4664
862.58	4554
862.712	4497
862.844	4367
862.976	4497
863.108	4504
863.24	4927
863.372	4371
863.504	4436
863.636	4440
863.768	4546
863.9	4447
864.032	4432
864.164	4455
864.296	4466
864.428	4596
864.559	4615
864.691	4565
864.823	4550
864.954	4504
865.086	4573
865.217	4516
865.349	4443
865.48	4459
865.612	4538
865.743	4675
865.875	4508
866.006	4462
866.137	4504
866.269	4455
866.4	4489
866.531	4535
866.662	4485
866.793	4451
866.924	4428
867.055	4573
867.186	4459
867.317	4432
867.448	4417
867.579	4409
867.71	4455
867.841	4424
867.972	4481
868.103	4550
868.233	4512
868.364	4489
868.495	4542
868.625	4687
868.756	4820
868.886	4607
869.017	4679
869.147	4801
869.278	4820
869.408	4725
869.539	4660
869.669	4820
869.799	4706
869.929	4828
870.06	4782
870.19	4999
870.32	5003
870.45	5003
870.58	5014
870.71	5113
870.84	5117
870.97	5067
871.1	4957
871.23	5178
871.36	5227
871.489	5056
871.619	5151
871.749	5132
871.879	5178
872.008	5197
872.138	5109
872.267	5037
872.397	4896
872.526	4828
872.656	4782
872.785	4877
872.915	5033
873.044	5083
873.173	4949
873.303	5022
873.432	5048
873.561	4999
873.69	4965
873.819	4934
873.948	4976
874.077	4930
874.206	4816
874.335	4850
874.464	4942
874.593	5109
874.722	5052
874.851	5170
874.979	5109
875.108	5128
875.237	4976
875.365	4946
875.494	4927
875.623	4991
875.751	4831
875.88	4949
876.008	5006
876.136	5064
876.265	5197
876.393	5406
876.521	5235
876.65	5280
876.778	5189
876.906	5128
877.034	5086
877.162	5056
877.29	5052
877.418	5060
877.546	5094
877.674	5090
877.802	5018
877.93	5067
878.058	5018
878.185	4885
878.313	5014
878.441	5014
878.568	4828
878.696	4911
878.824	4991
878.951	5052
879.079	5208
879.206	5387
879.333	5174
879.461	4991
879.588	5045
879.715	5121
879.842	5296
879.97	5018
880.097	4877
880.224	4816
880.351	4850
880.478	4900
880.605	4816
880.732	4847
880.859	5174
880.986	4961
881.112	4949
881.239	4809
881.366	4774
881.493	4668
881.619	4645
881.746	4679
881.872	4664
881.999	4660
882.125	4759
882.252	4843
882.378	4908
882.505	5003
882.631	4889
882.757	4752
882.883	4778
883.01	4828
883.136	4744
883.262	4649
883.388	4664
883.514	4839
883.64	4930
883.766	4835
883.892	4717
884.018	4790
884.143	4892
884.269	5090
884.395	4675
884.52	4694
884.646	4721
884.772	4611
884.897	4649
885.023	4717
885.148	4870
885.274	4930
885.399	4858
885.524	4763
885.65	4721
885.775	4782
885.9	4759
886.025	4877
886.15	4862
886.275	4774
886.4	4702
886.525	4809
886.65	4725
886.775	4748
886.9	4995
887.025	5079
887.149	4801
887.274	4694
887.399	4634
887.523	4641
887.648	4615
887.773	4649
887.897	4831
888.021	4847
888.146	4744
888.27	4862
888.395	4915
888.519	4892
888.643	4877
888.767	4877
888.891	4736
889.015	4706
889.139	4725
889.263	4634
889.387	4801
889.511	4930
889.635	4866
889.759	4706
889.883	4706
890.006	4805
890.13	4885
890.254	4637
890.377	4721
890.501	4542
890.624	4580
890.748	4637
890.871	4504
890.995	4474
891.118	4443
891.241	4584
891.364	4584
891.488	4698
891.611	4542
891.734	4565
891.857	4672
891.98	4615
892.103	4683
892.226	4656
892.349	4550
892.471	4493
892.594	4569
892.717	4698
892.839	4634
892.962	4618
893.085	4702
893.207	4618
893.33	4443
893.452	4599
893.575	4664
893.697	4653
893.819	4847
893.941	4896
894.064	4824
894.186	4580
894.308	4630
894.43	4793
894.552	4892
894.674	4805
894.796	4584
894.918	4630
895.04	4630
895.161	4755
895.283	4656
895.405	4596
895.526	4672
895.648	4778
895.769	4721
895.891	4763
896.012	4771
896.134	4748
896.255	4675
896.376	4774
896.498	4596
896.619	4710
896.74	4649
896.861	4672
896.982	4908
897.103	5113
897.224	4858
897.345	4767
897.466	4778
897.587	4816
897.708	4892
897.828	4828
897.949	4687
898.07	4611
898.19	4694
898.311	4885
898.431	4721
898.552	4763
898.672	4892
898.792	4847
898.913	4771
899.033	4683
899.153	4516
899.273	4508
899.393	4500
899.513	4592
899.633	4599
899.753	4577
899.873	4531
899.993	4660
900.113	4599
900.232	4641
900.352	4546
900.472	4550
900.591	4451
900.711	4516
900.83	4493
900.95	4637
901.069	4771
901.189	4588
901.308	4386
901.427	4375
901.546	4428
901.665	4535
901.784	4558
901.904	4474
902.023	4348
902.141	4207
902.26	4280
902.379	4348
902.498	4287
902.617	4272
902.735	4451
902.854	4447
902.973	4375
903.091	4261
903.21	4257
903.328	4375
903.446	4310
903.565	4299
903.683	4421
903.801	4356
903.919	4428
904.038	4466
904.156	4375
904.274	4504
904.392	4413
904.51	4493
904.627	4481
904.745	4622
904.863	4683
904.981	4402
905.098	4333
905.216	4440
905.334	4455
905.451	4489
905.569	4500
905.686	4592
905.803	4641
905.921	4440
906.038	4558
906.155	4542
906.272	4398
906.389	4531
906.506	4383
906.623	4481
906.74	4447
906.857	4375
906.974	4455
907.091	4664
907.208	4721
907.324	4626
907.441	4535
907.557	4409
907.674	4394
907.79	4329
907.907	4402
908.023	4577
908.139	4565
908.256	4459
908.372	4466
908.488	4481
908.604	4394
908.72	4379
908.836	4459
908.952	4402
909.068	4489
909.184	4664
909.3	4512
909.415	4607
909.531	4569
909.647	4421
909.762	4436
909.878	4337
909.993	4424
910.108	4455
910.224	4451
910.339	4516
910.454	4481
910.57	4424
910.685	4402
910.8	4729
910.915	4634
911.03	4546
911.145	4440
911.259	4325
911.374	4413
911.489	4356
911.604	4352
911.718	4219
911.833	4219
911.947	4131
912.062	4071
912.176	4246
912.291	4249
912.405	4303
912.519	4516
912.633	4554
912.748	4363
912.862	4375
912.976	4192
913.09	4143
913.204	4200
913.318	4306
913.431	4367
913.545	4451
913.659	4478
913.772	4402
913.886	4303
914	4253
914.113	4424
914.226	4440
914.34	4428
914.453	4291
914.566	4451
914.68	4375
914.793	4371
914.906	4177
915.019	4162
915.132	4150
915.245	4227
915.358	4295
915.47	4314
915.583	4303
915.696	4367
915.809	4447
915.921	4516
916.034	4310
916.146	4306
916.259	4291
916.371	4478
916.483	4398
916.595	4306
916.708	4363
916.82	4367
916.932	4318
917.044	4337
917.156	4356
917.268	4310
917.38	4318
917.491	4325
917.603	4428
917.715	4478
917.826	4440
917.938	4409
918.049	4265
918.161	4447
918.272	4637
918.384	4615
918.495	4523
918.606	4341
918.717	4234
918.828	4367
918.939	4398
919.05	4322
919.161	4398
919.272	4192
919.383	4325
919.494	4485
919.604	4675
919.715	4481
919.826	4447
919.936	4466
920.047	4584
920.157	4573
920.267	4736
920.378	4599
920.488	4592
920.598	4748
920.708	4953
920.818	4778
920.928	4843
921.038	5037
921.148	4953
921.258	4668
921.368	4626
921.477	4584
921.587	4519
921.697	4447
921.806	4592
921.916	4440
922.025	4337
922.134	4329
922.244	4284
922.353	4383
922.462	4242
922.571	4181
922.68	4074
922.789	4032
922.898	4105
923.007	4032
923.116	4139
923.224	4097
923.333	4139
923.442	4032
923.55	4017
923.659	4063
923.767	4116
923.876	4040
923.984	4169
924.092	4051
924.201	4150
924.309	4128
924.417	4139
924.525	4086
924.633	4162
924.741	5094
924.849	3994
924.956	4154
925.064	4002
925.172	3930
925.279	4021
925.387	4097
925.494	4078
925.602	4276
925.709	4219
925.816	4101
925.924	4219
926.031	4242
926.138	4284
926.245	4234
926.352	4128
926.459	4337
926.566	4333
926.673	4154
926.779	4128
926.886	4124
926.993	4067
927.099	4025
927.206	3994
927.312	3964
927.419	4116
927.525	4112
927.631	4211
927.737	4017
927.843	3975
927.95	3903
928.056	4006
928.162	4036
928.267	4116
928.373	4759
928.479	4158
928.585	3911
928.69	4086
928.796	4109
928.901	4006
929.007	3869
929.112	4040
929.218	4036
929.323	3994
929.428	4032
929.533	4150
929.638	3991
929.743	4002
929.848	4097
929.953	4055
930.058	3956
930.163	3831
930.267	3876
930.372	4029
930.477	3838
930.581	4048
930.685	3941
930.79	3831
930.894	3937
930.998	3918
931.103	4071
931.207	3766
931.311	3724
931.415	3732
931.519	3595
931.623	3629
