Data from test_V78500241_2817.txt Node
Date: Fri Mar 25 17:08:35 CST 2022
User: usil
Spectrometer: V785-0024
Trigger mode: 0
Integration Time (sec): 4.000000E-1
Scans to average: 1
Nonlinearity correction enabled: false
Boxcar width: 0
Storing dark spectrum: false
XAxis mode: Wavelengths
Number of Pixels in Spectrum: 1024
>>>>>Begin Spectral Data<<<<<
801.071	8046
801.214	8039
801.356	7921
801.499	7894
801.641	7818
801.783	7875
801.926	7959
802.068	7951
802.211	8016
802.353	7974
802.496	7898
802.638	7890
802.78	7917
802.923	7875
803.065	7894
803.208	7864
803.35	7951
803.492	8130
803.635	8210
803.777	8081
803.919	8111
804.061	8374
804.204	8161
804.346	8058
804.488	7967
804.63	8077
804.773	8058
804.915	8096
805.057	8183
805.199	8084
805.341	8244
805.483	8244
805.626	8263
805.768	8126
805.91	8221
806.052	8252
806.194	8111
806.336	8328
806.478	8100
806.62	8020
806.762	8134
806.904	8282
807.046	8514
807.188	8358
807.33	8423
807.472	8393
807.614	8214
807.756	8126
807.898	7986
808.04	7921
808.182	7909
808.324	7887
808.465	7887
808.607	8096
808.749	8153
808.891	8271
809.033	8267
809.174	8202
809.316	8046
809.458	8027
809.6	8012
809.741	8008
809.883	8024
810.025	8138
810.166	8050
810.308	8008
810.45	7963
810.591	7845
810.733	7765
810.875	7643
811.016	7563
811.158	7533
811.299	7594
811.441	7799
811.582	7723
811.724	7586
811.865	7571
812.007	7575
812.148	7647
812.29	7590
812.431	7826
812.573	7898
812.714	7989
812.855	8138
812.997	8180
813.138	8252
813.279	8244
813.421	8092
813.562	8024
813.703	7868
813.845	7727
813.986	7449
814.127	7301
814.268	7213
814.41	7240
814.551	7145
814.692	7251
814.833	7107
814.974	7114
815.115	7061
815.256	6962
815.397	6939
815.539	6913
815.68	6810
815.821	6783
815.962	6856
816.103	6802
816.244	6730
816.385	6589
816.526	6559
816.666	6456
816.807	6300
816.948	6445
817.089	6475
817.23	6498
817.371	6399
817.512	6391
817.653	6388
817.793	6372
817.934	6395
818.075	6490
818.216	6467
818.356	6391
818.497	6167
818.638	6106
818.778	6175
818.919	6129
819.06	6152
819.2	6357
819.341	6296
819.481	6395
819.622	6509
819.762	6692
819.903	6734
820.043	6566
820.184	6555
820.324	6616
820.465	6730
820.605	6673
820.746	6662
820.886	6540
821.026	6700
821.167	6677
821.307	6779
821.447	6749
821.588	6673
821.728	6589
821.868	6471
822.008	6357
822.149	6437
822.289	6388
822.429	6171
822.569	6079
822.709	6148
822.849	5931
822.99	5901
823.13	5961
823.27	5904
823.41	5790
823.55	5802
823.69	5779
823.83	5805
823.97	5710
824.11	5554
824.25	5497
824.389	5532
824.529	5577
824.669	5558
824.809	5627
824.949	5653
825.089	5630
825.228	5608
825.368	5421
825.508	5360
825.648	5330
825.787	5337
825.927	5322
826.067	5334
826.206	5311
826.346	5376
826.485	5364
826.625	5414
826.765	5539
826.904	5467
827.044	5254
827.183	5212
827.323	5105
827.462	5235
827.601	5143
827.741	5189
827.88	5197
828.02	5140
828.159	5220
828.298	5265
828.437	5345
828.577	5277
828.716	5474
828.855	5318
828.994	5140
829.134	5185
829.273	5155
829.412	5155
829.551	5094
829.69	5079
829.829	5242
829.968	5402
830.107	5315
830.246	5315
830.385	5185
830.524	5109
830.663	5048
830.802	4961
830.941	4866
831.08	4854
831.219	4953
831.357	5010
831.496	5105
831.635	4965
831.774	4850
831.913	4866
832.051	4733
832.19	4771
832.329	4801
832.467	4698
832.606	4641
832.744	4729
832.883	4675
833.022	4706
833.16	4790
833.299	4816
833.437	4835
833.576	4790
833.714	4870
833.852	4847
833.991	4850
834.129	4972
834.267	4927
834.406	4930
834.544	4930
834.682	4999
834.821	4965
834.959	5147
835.097	5003
835.235	5201
835.373	5048
835.511	5105
835.65	5075
835.788	5048
835.926	4881
836.064	4862
836.202	4915
836.34	5159
836.478	5239
836.615	5083
836.753	5201
836.891	5296
837.029	5261
837.167	5216
837.305	5147
837.443	5216
837.58	5064
837.718	5246
837.856	5193
837.993	5197
838.131	5269
838.269	5231
838.406	5208
838.544	5189
838.681	5041
838.819	5045
838.956	4881
839.094	4885
839.231	4991
839.369	5014
839.506	5421
839.643	5288
839.781	5083
839.918	5045
840.055	5105
840.193	5094
840.33	5155
840.467	5136
840.604	5201
840.742	5391
840.879	5045
841.016	5113
841.153	5185
841.29	5376
841.427	5341
841.564	5299
841.701	5353
841.838	5235
841.975	5216
842.112	5258
842.249	5143
842.385	5083
842.522	5277
842.659	5124
842.796	5147
842.933	5170
843.069	5147
843.206	5155
843.343	5292
843.479	5235
843.616	5284
843.752	5045
843.889	5029
844.025	5231
844.162	5014
844.298	5185
844.435	5105
844.571	5045
844.708	5181
844.844	5239
844.98	5357
845.117	5261
845.253	5121
845.389	5064
845.525	5181
845.661	5121
845.798	5018
845.934	5060
846.07	5006
846.206	5216
846.342	5334
846.478	5155
846.614	5022
846.75	4965
846.886	4889
847.022	5140
847.158	5075
847.294	5060
847.429	5102
847.565	5098
847.701	5322
847.837	4812
847.972	4812
848.108	4949
848.244	4953
848.379	4755
848.515	4721
848.65	4744
848.786	4744
848.921	4752
849.057	4885
849.192	4942
849.328	4778
849.463	4873
849.598	4816
849.734	4771
849.869	4675
850.004	4645
850.14	4672
850.275	4577
850.41	4504
850.545	4577
850.68	4630
850.815	4599
850.95	4607
851.085	4828
851.22	4748
851.355	4694
851.49	4626
851.625	4637
851.76	4656
851.895	4504
852.03	4546
852.165	4626
852.299	4687
852.434	4793
852.569	4729
852.703	4774
852.838	4816
852.973	4900
853.107	4892
853.242	4736
853.376	4592
853.511	4584
853.645	4634
853.78	4778
853.914	4683
854.048	4679
854.183	4687
854.317	4687
854.451	4862
854.585	4660
854.72	4596
854.854	4725
854.988	4603
855.122	4656
855.256	4485
855.39	4660
855.524	4805
855.658	4694
855.792	4637
855.926	4740
856.06	4759
856.194	4786
856.327	4656
856.461	4607
856.595	4577
856.729	4611
856.862	4767
856.996	4717
857.13	4748
857.263	4771
857.397	4812
857.53	4611
857.664	4687
857.797	4717
857.931	4774
858.064	4733
858.197	4759
858.331	4649
858.464	4592
858.597	4519
858.731	4618
858.864	4649
858.997	4569
859.13	4683
859.263	4706
859.396	4660
859.529	4618
859.662	4558
859.795	4519
859.928	4611
860.061	4717
860.194	4767
860.327	4611
860.46	4561
860.592	4721
860.725	4733
860.858	4710
860.99	4565
861.123	4512
861.256	4478
861.388	4607
861.521	5330
861.653	4443
861.786	4481
861.918	4504
862.05	4523
862.183	4558
862.315	4573
862.447	4710
862.58	4550
862.712	4436
862.844	4322
862.976	4504
863.108	4470
863.24	4740
863.372	4337
863.504	4424
863.636	4386
863.768	4451
863.9	4405
864.032	4367
864.164	4405
864.296	4481
864.428	4531
864.559	4554
864.691	4550
864.823	4573
864.954	4481
865.086	4519
865.217	4478
865.349	4379
865.48	4459
865.612	4493
865.743	4622
865.875	4493
866.006	4455
866.137	4493
866.269	4470
866.4	4470
866.531	4428
866.662	4402
866.793	4424
866.924	4413
867.055	4478
867.186	4447
867.317	4455
867.448	4363
867.579	4394
867.71	4363
867.841	4402
867.972	4485
868.103	4500
868.233	4459
868.364	4424
868.495	4462
868.625	4683
868.756	4790
868.886	4577
869.017	4630
869.147	4740
869.278	4809
869.408	4641
869.539	4618
869.669	4694
869.799	4641
869.929	4744
870.06	4736
870.19	4953
870.32	4896
870.45	4972
870.58	5014
870.71	5113
870.84	5075
870.97	4991
871.1	4934
871.23	5124
871.36	5102
871.489	5033
871.619	5140
871.749	5083
871.879	5079
872.008	5151
872.138	5037
872.267	4961
872.397	4843
872.526	4797
872.656	4759
872.785	4831
872.915	4984
873.044	5025
873.173	4965
873.303	4949
873.432	4984
873.561	4946
873.69	4892
873.819	4877
873.948	4908
874.077	4809
874.206	4790
874.335	4866
874.464	4991
874.593	5060
874.722	4953
874.851	5098
874.979	5071
875.108	4995
875.237	4847
875.365	4915
875.494	4843
875.623	4946
875.751	4797
875.88	4870
876.008	4972
876.136	5014
876.265	5189
876.393	5345
876.521	5277
876.65	5250
876.778	5140
876.906	5075
877.034	5014
877.162	5022
877.29	4999
877.418	5045
877.546	5041
877.674	5006
877.802	5025
877.93	5045
878.058	4991
878.185	4900
878.313	4957
878.441	4934
878.568	4831
878.696	4824
878.824	4968
878.951	4991
879.079	5151
879.206	5277
879.333	5094
879.461	5006
879.588	5083
879.715	5105
879.842	5292
879.97	4999
880.097	4812
880.224	4675
880.351	4839
880.478	4866
880.605	4782
880.732	4805
880.859	5086
880.986	4858
881.112	4877
881.239	4767
881.366	4687
881.493	4626
881.619	4573
881.746	4615
881.872	4645
881.999	4641
882.125	4683
882.252	4816
882.378	4839
882.505	4953
882.631	4805
882.757	4649
882.883	4740
883.01	4714
883.136	4725
883.262	4622
883.388	4596
883.514	4812
883.64	4839
883.766	4835
883.892	4672
884.018	4672
884.143	4900
884.269	4999
884.395	4694
884.52	4634
884.646	4630
884.772	4607
884.897	4527
885.023	4675
885.148	4831
885.274	4892
885.399	4812
885.524	4736
885.65	4664
885.775	4755
885.9	4706
886.025	4816
886.15	4820
886.275	4733
886.4	4717
886.525	4687
886.65	4725
886.775	4721
886.9	4889
887.025	5037
887.149	4809
887.274	4675
887.399	4569
887.523	4550
887.648	4615
887.773	4637
887.897	4774
888.021	4809
888.146	4672
888.27	4790
888.395	4908
888.519	4816
888.643	4828
888.767	4835
888.891	4672
889.015	4577
889.139	4622
889.263	4596
889.387	4740
889.511	4797
889.635	4793
889.759	4664
889.883	4679
890.006	4752
890.13	4820
890.254	4615
890.377	4675
890.501	4516
890.624	4531
890.748	4637
890.871	4519
890.995	4424
891.118	4405
891.241	4550
891.364	4542
891.488	4596
891.611	4500
891.734	4500
891.857	4554
891.98	4542
892.103	4672
892.226	4618
892.349	4519
892.471	4417
892.594	4531
892.717	4542
892.839	4577
892.962	4592
893.085	4656
893.207	4573
893.33	4474
893.452	4512
893.575	4656
893.697	4550
893.819	4820
893.941	4805
894.064	4797
894.186	4561
894.308	4554
894.43	4721
894.552	4828
894.674	4763
894.796	4558
894.918	4615
895.04	4573
895.161	4706
895.283	4679
895.405	4565
895.526	4580
895.648	4668
895.769	4675
895.891	4683
896.012	4694
896.134	4706
896.255	4626
896.376	4603
896.498	4607
896.619	4702
896.74	4584
896.861	4637
896.982	4904
897.103	5056
897.224	4805
897.345	4721
897.466	4698
897.587	4729
897.708	4839
897.828	4774
897.949	4679
898.07	4561
898.19	4641
898.311	4866
898.431	4626
898.552	4786
898.672	4854
898.792	4805
898.913	4740
899.033	4615
899.153	4462
899.273	4409
899.393	4451
899.513	4561
899.633	4500
899.753	4558
899.873	4497
899.993	4565
900.113	4504
900.232	4569
900.352	4565
900.472	4474
900.591	4386
900.711	4500
900.83	4417
900.95	4577
901.069	4641
901.189	4527
901.308	4356
901.427	4325
901.546	4367
901.665	4516
901.784	4546
901.904	4371
902.023	4386
902.141	4158
902.26	4154
902.379	4276
902.498	4215
902.617	4177
902.735	4379
902.854	4428
902.973	4348
903.091	4207
903.21	4200
903.328	4272
903.446	4249
903.565	4246
903.683	4367
903.801	4261
903.919	4325
904.038	4440
904.156	4215
904.274	4459
904.392	4360
904.51	4379
904.627	4443
904.745	4550
904.863	4622
904.981	4405
905.098	4318
905.216	4363
905.334	4436
905.451	4447
905.569	4413
905.686	4577
905.803	4565
905.921	4424
906.038	4584
906.155	4459
906.272	4398
906.389	4466
906.506	4337
906.623	4375
906.74	4405
906.857	4303
906.974	4360
907.091	4519
907.208	4668
907.324	4584
907.441	4523
907.557	4371
907.674	4348
907.79	4291
907.907	4352
908.023	4504
908.139	4485
908.256	4459
908.372	4478
908.488	4451
908.604	4356
908.72	4333
908.836	4379
908.952	4379
909.068	4440
909.184	4538
909.3	4459
909.415	4558
909.531	4554
909.647	4322
909.762	4398
909.878	4344
909.993	4424
910.108	4398
910.224	4383
910.339	4478
910.454	4390
910.57	4352
910.685	4318
910.8	4645
910.915	4577
911.03	4459
911.145	4329
911.259	4348
911.374	4333
911.489	4265
911.604	4314
911.718	4162
911.833	4230
911.947	4116
912.062	4010
912.176	4207
912.291	4242
912.405	4249
912.519	4443
912.633	4500
912.748	4341
912.862	4314
912.976	4230
913.09	4051
913.204	4185
913.318	4276
913.431	4363
913.545	4356
913.659	4489
913.772	4405
913.886	4272
914	4219
914.113	4409
914.226	4390
914.34	4413
914.453	4211
914.566	4432
914.68	4337
914.793	4310
914.906	4181
915.019	4109
915.132	4082
915.245	4181
915.358	4242
915.47	4204
915.583	4287
915.696	4272
915.809	4413
915.921	4428
916.034	4318
916.146	4238
916.259	4238
916.371	4394
916.483	4344
916.595	4207
916.708	4299
916.82	4284
916.932	4265
917.044	4318
917.156	4356
917.268	4234
917.38	4318
917.491	4265
917.603	4383
917.715	4424
917.826	4462
917.938	4284
918.049	4246
918.161	4363
918.272	4478
918.384	4542
918.495	4455
918.606	4337
918.717	4223
918.828	4310
918.939	4333
919.05	4291
919.161	4303
919.272	4147
919.383	4234
919.494	4421
919.604	4649
919.715	4459
919.826	4390
919.936	4348
920.047	4535
920.157	4493
920.267	4714
920.378	4538
920.488	4489
920.598	4683
920.708	4900
920.818	4748
920.928	4805
921.038	4965
921.148	4911
921.258	4641
921.368	4561
921.477	4508
921.587	4462
921.697	4398
921.806	4565
921.916	4474
922.025	4268
922.134	4272
922.244	4227
922.353	4352
922.462	4135
922.571	4131
922.68	4032
922.789	3949
922.898	4029
923.007	3972
923.116	4082
923.224	4078
923.333	4055
923.442	3987
923.55	3945
923.659	4029
923.767	4067
923.876	3964
923.984	4177
924.092	4006
924.201	4082
924.309	4086
924.417	4131
924.525	4040
924.633	4124
924.741	4911
924.849	3934
924.956	4166
925.064	3915
925.172	3934
925.279	3941
925.387	4067
925.494	4017
925.602	4196
925.709	4185
925.816	4017
925.924	4166
926.031	4196
926.138	4158
926.245	4196
926.352	4082
926.459	4261
926.566	4299
926.673	4101
926.779	4112
926.886	4101
926.993	3991
927.099	3945
927.206	3922
927.312	3888
927.419	4055
927.525	4017
927.631	4067
927.737	3983
927.843	3964
927.95	3850
928.056	3918
928.162	3983
928.267	4055
928.373	4592
928.479	4128
928.585	3892
928.69	3987
928.796	4055
928.901	3972
929.007	3808
929.112	3991
929.218	4017
929.323	3892
929.428	3979
929.533	4097
929.638	3915
929.743	3941
929.848	4051
929.953	3979
930.058	3911
930.163	3736
930.267	3812
930.372	3941
930.477	3831
930.581	4105
930.685	3915
930.79	3816
930.894	3907
930.998	3880
931.103	4048
931.207	3743
931.311	3701
931.415	3644
931.519	3507
931.623	3561
