Data from test_V78500241_2366.txt Node
Date: Fri Mar 25 17:05:27 CST 2022
User: usil
Spectrometer: V785-0024
Trigger mode: 0
Integration Time (sec): 4.000000E-1
Scans to average: 1
Nonlinearity correction enabled: false
Boxcar width: 0
Storing dark spectrum: false
XAxis mode: Wavelengths
Number of Pixels in Spectrum: 1024
>>>>>Begin Spectral Data<<<<<
801.071	8081
801.214	8050
801.356	7852
801.499	7864
801.641	7784
801.783	7856
801.926	7997
802.068	8008
802.211	8123
802.353	8065
802.496	7925
802.638	7909
802.78	7917
802.923	7921
803.065	7849
803.208	7940
803.35	8012
803.492	8145
803.635	8191
803.777	8111
803.919	8115
804.061	8434
804.204	8229
804.346	8062
804.488	8005
804.63	8225
804.773	8096
804.915	8126
805.057	8309
805.199	8168
805.341	8221
805.483	8248
805.626	8252
805.768	8149
805.91	8214
806.052	8267
806.194	8183
806.336	8267
806.478	8096
806.62	8031
806.762	8111
806.904	8313
807.046	8473
807.188	8461
807.33	8328
807.472	8332
807.614	8138
807.756	8149
807.898	8024
808.04	8001
808.182	7955
808.324	7887
808.465	7959
808.607	8073
808.749	8073
808.891	8240
809.033	8328
809.174	8259
809.316	8039
809.458	8153
809.6	8065
809.741	7947
809.883	8039
810.025	8119
810.166	8107
810.308	8020
810.45	8073
810.591	7860
810.733	7818
810.875	7674
811.016	7529
811.158	7491
811.299	7609
811.441	7776
811.582	7757
811.724	7723
811.865	7578
812.007	7658
812.148	7639
812.29	7647
812.431	7715
812.573	7868
812.714	8005
812.855	8111
812.997	8214
813.138	8339
813.279	8153
813.421	8088
813.562	7982
813.703	7887
813.845	7723
813.986	7396
814.127	7343
814.268	7236
814.41	7274
814.551	7198
814.692	7331
814.833	7126
814.974	7114
815.115	7141
815.256	7004
815.397	6920
815.539	7004
815.68	6856
815.821	6897
815.962	6886
816.103	6852
816.244	6730
816.385	6662
816.526	6688
816.666	6483
816.807	6338
816.948	6467
817.089	6486
817.23	6540
817.371	6380
817.512	6410
817.653	6418
817.793	6346
817.934	6490
818.075	6452
818.216	6441
818.356	6418
818.497	6327
818.638	6152
818.778	6178
818.919	6136
819.06	6216
819.2	6372
819.341	6311
819.481	6323
819.622	6517
819.762	6776
819.903	6741
820.043	6665
820.184	6559
820.324	6563
820.465	6787
820.605	6681
820.746	6700
820.886	6502
821.026	6627
821.167	6749
821.307	6848
821.447	6776
821.588	6715
821.728	6646
821.868	6494
822.008	6346
822.149	6376
822.289	6334
822.429	6224
822.569	6102
822.709	6209
822.849	5920
822.99	5935
823.13	5973
823.27	5942
823.41	5832
823.55	5844
823.69	5786
823.83	5802
823.97	5729
824.11	5570
824.25	5543
824.389	5642
824.529	5608
824.669	5589
824.809	5649
824.949	5684
825.089	5642
825.228	5539
825.368	5414
825.508	5414
825.648	5334
825.787	5379
825.927	5337
826.067	5334
826.206	5334
826.346	5398
826.485	5402
826.625	5455
826.765	5570
826.904	5509
827.044	5239
827.183	5185
827.323	5174
827.462	5242
827.601	5189
827.741	5239
827.88	5284
828.02	5162
828.159	5254
828.298	5288
828.437	5334
828.577	5299
828.716	5497
828.855	5273
828.994	5178
829.134	5197
829.273	5220
829.412	5140
829.551	5155
829.69	5117
829.829	5258
829.968	5372
830.107	5254
830.246	5261
830.385	5265
830.524	5159
830.663	5124
830.802	4991
830.941	4919
831.08	4873
831.219	4987
831.357	5029
831.496	5193
831.635	4911
831.774	4896
831.913	4896
832.051	4729
832.19	4790
832.329	4866
832.467	4736
832.606	4668
832.744	4752
832.883	4748
833.022	4748
833.16	4774
833.299	4820
833.437	4809
833.576	4858
833.714	4870
833.852	4896
833.991	4881
834.129	4961
834.267	4991
834.406	4896
834.544	4987
834.682	4934
834.821	4980
834.959	5128
835.097	5014
835.235	5121
835.373	5147
835.511	5094
835.65	5045
835.788	5010
835.926	4930
836.064	4870
836.202	4957
836.34	5185
836.478	5239
836.615	5155
836.753	5246
836.891	5250
837.029	5242
837.167	5204
837.305	5159
837.443	5178
837.58	5041
837.718	5223
837.856	5189
837.993	5193
838.131	5242
838.269	5208
838.406	5242
838.544	5185
838.681	5033
838.819	4991
838.956	4870
839.094	4938
839.231	4984
839.369	5067
839.506	5444
839.643	5239
839.781	5045
839.918	5033
840.055	5102
840.193	5075
840.33	5136
840.467	5155
840.604	5227
840.742	5459
840.879	5067
841.016	5086
841.153	5117
841.29	5353
841.427	5353
841.564	5360
841.701	5322
841.838	5322
841.975	5242
842.112	5277
842.249	5132
842.385	5121
842.522	5326
842.659	5220
842.796	5124
842.933	5185
843.069	5124
843.206	5178
843.343	5315
843.479	5265
843.616	5299
843.752	5014
843.889	5025
844.025	5155
844.162	4984
844.298	5193
844.435	5105
844.571	5006
844.708	5239
844.844	5334
844.98	5296
845.117	5288
845.253	5185
845.389	5052
845.525	5140
845.661	5132
845.798	5025
845.934	5132
846.07	5033
846.206	5216
846.342	5277
846.478	5162
846.614	4991
846.75	4934
846.886	4957
847.022	5170
847.158	5025
847.294	5124
847.429	5136
847.565	5045
847.701	5341
847.837	4858
847.972	4797
848.108	4946
848.244	4934
848.379	4782
848.515	4733
848.65	4721
848.786	4759
848.921	4736
849.057	4923
849.192	4889
849.328	4831
849.463	4831
849.598	4790
849.734	4774
849.869	4675
850.004	4622
850.14	4721
850.275	4641
850.41	4519
850.545	4603
850.68	4584
850.815	4607
850.95	4664
851.085	4889
851.22	4752
851.355	4691
851.49	4641
851.625	4664
851.76	4626
851.895	4531
852.03	4561
852.165	4672
852.299	4778
852.434	4771
852.569	4744
852.703	4786
852.838	4847
852.973	4976
853.107	4961
853.242	4714
853.376	4656
853.511	4596
853.645	4664
853.78	4843
853.914	4748
854.048	4660
854.183	4694
854.317	4733
854.451	4873
854.585	4744
854.72	4675
854.854	4759
854.988	4637
855.122	4683
855.256	4565
855.39	4717
855.524	4858
855.658	4820
855.792	4763
855.926	4801
856.06	4828
856.194	4828
856.327	4683
856.461	4622
856.595	4698
856.729	4668
856.862	4793
856.996	4698
857.13	4809
857.263	4847
857.397	4854
857.53	4706
857.664	4748
857.797	4778
857.931	4850
858.064	4744
858.197	4793
858.331	4672
858.464	4660
858.597	4561
858.731	4675
858.864	4717
858.997	4683
859.13	4706
859.263	4706
859.396	4733
859.529	4653
859.662	4561
859.795	4561
859.928	4668
860.061	4858
860.194	4790
860.327	4641
860.46	4611
860.592	4767
860.725	4744
860.858	4771
860.99	4645
861.123	4588
861.256	4584
861.388	4687
861.521	5315
861.653	4523
861.786	4478
861.918	4546
862.05	4542
862.183	4569
862.315	4653
862.447	4664
862.58	4588
862.712	4447
862.844	4398
862.976	4516
863.108	4485
863.24	4919
863.372	4386
863.504	4440
863.636	4466
863.768	4565
863.9	4443
864.032	4383
864.164	4402
864.296	4588
864.428	4588
864.559	4584
864.691	4531
864.823	4546
864.954	4542
865.086	4531
865.217	4542
865.349	4497
865.48	4531
865.612	4558
865.743	4660
865.875	4489
866.006	4459
866.137	4542
866.269	4417
866.4	4466
866.531	4500
866.662	4440
866.793	4459
866.924	4535
867.055	4535
867.186	4489
867.317	4402
867.448	4367
867.579	4409
867.71	4413
867.841	4398
867.972	4470
868.103	4485
868.233	4443
868.364	4462
868.495	4443
868.625	4698
868.756	4782
868.886	4599
869.017	4626
869.147	4824
869.278	4771
869.408	4675
869.539	4683
869.669	4729
869.799	4717
869.929	4797
870.06	4763
870.19	4987
870.32	5010
870.45	4942
870.58	5067
870.71	5140
870.84	5109
870.97	4995
871.1	4930
871.23	5159
871.36	5143
871.489	5067
871.619	5056
871.749	5113
871.879	5159
872.008	5197
872.138	5075
872.267	4984
872.397	4930
872.526	4881
872.656	4801
872.785	4793
872.915	4957
873.044	5014
873.173	4953
873.303	4949
873.432	5014
873.561	5048
873.69	4904
873.819	4885
873.948	4957
874.077	4843
874.206	4809
874.335	4896
874.464	4915
874.593	5083
874.722	4976
874.851	5140
874.979	5094
875.108	5098
875.237	4953
875.365	4900
875.494	4930
875.623	5033
875.751	4885
875.88	4923
876.008	5018
876.136	5094
876.265	5223
876.393	5349
876.521	5307
876.65	5227
876.778	5185
876.906	5147
877.034	5071
877.162	5121
877.29	5048
877.418	5105
877.546	5067
877.674	5102
877.802	5083
877.93	4991
878.058	4999
878.185	4938
878.313	5041
878.441	4999
878.568	4850
878.696	4870
878.824	5010
878.951	5037
879.079	5185
879.206	5292
879.333	5048
879.461	4980
879.588	5052
879.715	5132
879.842	5288
879.97	5048
880.097	4790
880.224	4748
880.351	4828
880.478	4847
880.605	4847
880.732	4790
880.859	5071
880.986	4946
881.112	4957
881.239	4805
881.366	4733
881.493	4698
881.619	4573
881.746	4664
881.872	4664
881.999	4641
882.125	4714
882.252	4797
882.378	4889
882.505	5006
882.631	4854
882.757	4740
882.883	4763
883.01	4790
883.136	4725
883.262	4645
883.388	4653
883.514	4816
883.64	4904
883.766	4858
883.892	4687
884.018	4771
884.143	4968
884.269	5075
884.395	4687
884.52	4672
884.646	4656
884.772	4580
884.897	4550
885.023	4698
885.148	4797
885.274	4870
885.399	4797
885.524	4717
885.65	4729
885.775	4782
885.9	4736
886.025	4873
886.15	4805
886.275	4778
886.4	4691
886.525	4740
886.65	4736
886.775	4729
886.9	4930
887.025	5033
887.149	4862
887.274	4672
887.399	4626
887.523	4622
887.648	4641
887.773	4607
887.897	4763
888.021	4828
888.146	4702
888.27	4805
888.395	4923
888.519	4866
888.643	4862
888.767	4839
888.891	4679
889.015	4592
889.139	4656
889.263	4626
889.387	4755
889.511	4904
889.635	4828
889.759	4691
889.883	4656
890.006	4752
890.13	4824
890.254	4592
890.377	4660
890.501	4554
890.624	4573
890.748	4672
890.871	4561
890.995	4500
891.118	4417
891.241	4508
891.364	4550
891.488	4637
891.611	4523
891.734	4550
891.857	4641
891.98	4580
892.103	4660
892.226	4660
892.349	4531
892.471	4432
892.594	4538
892.717	4607
892.839	4641
892.962	4615
893.085	4653
893.207	4653
893.33	4466
893.452	4565
893.575	4675
893.697	4565
893.819	4812
893.941	4877
894.064	4828
894.186	4637
894.308	4626
894.43	4786
894.552	4892
894.674	4786
894.796	4599
894.918	4634
895.04	4592
895.161	4740
895.283	4668
895.405	4569
895.526	4694
895.648	4710
895.769	4725
895.891	4736
896.012	4755
896.134	4771
896.255	4691
896.376	4615
896.498	4664
896.619	4706
896.74	4634
896.861	4725
896.982	4953
897.103	5136
897.224	4835
897.345	4763
897.466	4702
897.587	4767
897.708	4870
897.828	4839
897.949	4706
898.07	4596
898.19	4687
898.311	4870
898.431	4721
898.552	4755
898.672	4854
898.792	4843
898.913	4748
899.033	4649
899.153	4508
899.273	4436
899.393	4504
899.513	4542
899.633	4569
899.753	4546
899.873	4500
899.993	4607
900.113	4592
900.232	4584
900.352	4573
900.472	4489
900.591	4371
900.711	4531
900.83	4493
900.95	4672
901.069	4649
901.189	4577
901.308	4402
901.427	4344
901.546	4363
901.665	4493
901.784	4550
901.904	4424
902.023	4356
902.141	4207
902.26	4169
902.379	4322
902.498	4268
902.617	4257
902.735	4417
902.854	4402
902.973	4383
903.091	4227
903.21	4257
903.328	4341
903.446	4314
903.565	4276
903.683	4390
903.801	4253
903.919	4440
904.038	4462
904.156	4310
904.274	4489
904.392	4436
904.51	4440
904.627	4455
904.745	4599
904.863	4687
904.981	4405
905.098	4314
905.216	4379
905.334	4451
905.451	4436
905.569	4405
905.686	4542
905.803	4546
905.921	4447
906.038	4538
906.155	4519
906.272	4405
906.389	4519
906.506	4322
906.623	4402
906.74	4394
906.857	4329
906.974	4390
907.091	4554
907.208	4683
907.324	4603
907.441	4523
907.557	4383
907.674	4337
907.79	4333
907.907	4447
908.023	4500
908.139	4485
908.256	4481
908.372	4466
908.488	4459
908.604	4341
908.72	4367
908.836	4440
908.952	4443
909.068	4424
909.184	4592
909.3	4497
909.415	4618
909.531	4580
909.647	4428
909.762	4409
909.878	4333
909.993	4459
910.108	4424
910.224	4424
910.339	4516
910.454	4447
910.57	4390
910.685	4291
910.8	4653
910.915	4622
911.03	4550
911.145	4310
911.259	4348
911.374	4352
911.489	4314
911.604	4261
911.718	4196
911.833	4215
911.947	4074
912.062	4059
912.176	4200
912.291	4242
912.405	4291
912.519	4485
912.633	4504
912.748	4409
912.862	4329
912.976	4242
913.09	4116
913.204	4200
913.318	4242
913.431	4424
913.545	4398
913.659	4459
913.772	4383
913.886	4268
914	4238
914.113	4363
914.226	4485
914.34	4379
914.453	4310
914.566	4424
914.68	4360
914.793	4325
914.906	4169
915.019	4116
915.132	4101
915.245	4196
915.358	4204
915.47	4223
915.583	4257
915.696	4276
915.809	4424
915.921	4443
916.034	4265
916.146	4257
916.259	4257
916.371	4371
916.483	4348
916.595	4272
916.708	4291
916.82	4257
916.932	4306
917.044	4371
917.156	4356
917.268	4265
917.38	4306
917.491	4291
917.603	4356
917.715	4466
917.826	4440
917.938	4379
918.049	4257
918.161	4390
918.272	4558
918.384	4577
918.495	4493
918.606	4337
918.717	4242
918.828	4325
918.939	4356
919.05	4268
919.161	4341
919.272	4173
919.383	4238
919.494	4443
919.604	4653
919.715	4398
919.826	4405
919.936	4379
920.047	4542
920.157	4470
920.267	4721
920.378	4523
920.488	4478
920.598	4721
920.708	4892
920.818	4805
920.928	4759
921.038	4972
921.148	4919
921.258	4626
921.368	4599
921.477	4508
921.587	4508
921.697	4363
921.806	4546
921.916	4497
922.025	4265
922.134	4249
922.244	4207
922.353	4348
922.462	4169
922.571	4181
922.68	4021
922.789	3975
922.898	4090
923.007	4021
923.116	4109
923.224	4124
923.333	4101
923.442	3953
923.55	3960
923.659	4059
923.767	4082
923.876	3987
923.984	4120
924.092	3998
924.201	4059
924.309	4086
924.417	4139
924.525	4071
924.633	4101
924.741	5064
924.849	3915
924.956	4162
925.064	3945
925.172	3956
925.279	3968
925.387	4032
925.494	4032
925.602	4227
925.709	4207
925.816	4029
925.924	4120
926.031	4219
926.138	4207
926.245	4185
926.352	4093
926.459	4207
926.566	4280
926.673	4169
926.779	4131
926.886	4059
926.993	3972
927.099	3953
927.206	3941
927.312	3911
927.419	4029
927.525	3987
927.631	4147
927.737	3956
927.843	3915
927.95	3892
928.056	3945
928.162	4017
928.267	4021
928.373	4596
928.479	4150
928.585	3861
928.69	4044
928.796	4055
928.901	3956
929.007	3857
929.112	3994
929.218	3968
929.323	3926
929.428	3945
929.533	4131
929.638	3896
929.743	3983
929.848	3994
929.953	3979
930.058	3964
930.163	3755
930.267	3808
930.372	3987
930.477	3842
930.581	4086
930.685	3987
930.79	3846
930.894	3903
930.998	3869
931.103	4074
931.207	3713
931.311	3709
931.415	3690
931.519	3526
931.623	3564
