Data from test_V78500241_2507.txt Node
Date: Fri Mar 25 17:06:26 CST 2022
User: usil
Spectrometer: V785-0024
Trigger mode: 0
Integration Time (sec): 4.000000E-1
Scans to average: 1
Nonlinearity correction enabled: false
Boxcar width: 0
Storing dark spectrum: false
XAxis mode: Wavelengths
Number of Pixels in Spectrum: 1024
>>>>>Begin Spectral Data<<<<<
801.071	8031
801.214	8031
801.356	7902
801.499	7906
801.641	7761
801.783	7868
801.926	8020
802.068	7868
802.211	7947
802.353	7936
802.496	7936
802.638	7841
802.78	7898
802.923	7928
803.065	7822
803.208	7909
803.35	7894
803.492	8058
803.635	8187
803.777	8016
803.919	8153
804.061	8366
804.204	8153
804.346	8081
804.488	7932
804.63	8111
804.773	7993
804.915	8172
805.057	8309
805.199	8168
805.341	8248
805.483	8221
805.626	8191
805.768	8126
805.91	8180
806.052	8168
806.194	8115
806.336	8339
806.478	8081
806.62	8043
806.762	8145
806.904	8294
807.046	8457
807.188	8457
807.33	8221
807.472	8339
807.614	8176
807.756	8088
807.898	8046
808.04	7845
808.182	7856
808.324	7887
808.465	7932
808.607	8100
808.749	8123
808.891	8206
809.033	8286
809.174	8233
809.316	8130
809.458	8100
809.6	8012
809.741	8069
809.883	8012
810.025	8092
810.166	8100
810.308	8081
810.45	7997
810.591	7826
810.733	7693
810.875	7658
811.016	7521
811.158	7430
811.299	7609
811.441	7719
811.582	7674
811.724	7674
811.865	7556
812.007	7559
812.148	7628
812.29	7582
812.431	7734
812.573	7921
812.714	7989
812.855	8134
812.997	8229
813.138	8336
813.279	8103
813.421	8058
813.562	7970
813.703	7856
813.845	7708
813.986	7506
814.127	7259
814.268	7240
814.41	7263
814.551	7217
814.692	7289
814.833	7133
814.974	7118
815.115	7133
815.256	6996
815.397	6966
815.539	6878
815.68	6791
815.821	6806
815.962	6859
816.103	6848
816.244	6681
816.385	6646
816.526	6612
816.666	6528
816.807	6292
816.948	6494
817.089	6490
817.23	6418
817.371	6361
817.512	6350
817.653	6372
817.793	6342
817.934	6467
818.075	6464
818.216	6414
818.356	6391
818.497	6266
818.638	6133
818.778	6178
818.919	6159
819.06	6114
819.2	6346
819.341	6346
819.481	6395
819.622	6566
819.762	6719
819.903	6753
820.043	6589
820.184	6589
820.324	6589
820.465	6749
820.605	6662
820.746	6654
820.886	6498
821.026	6688
821.167	6722
821.307	6871
821.447	6753
821.588	6635
821.728	6559
821.868	6559
822.008	6410
822.149	6365
822.289	6403
822.429	6175
822.569	6064
822.709	6159
822.849	5920
822.99	5927
823.13	5973
823.27	5954
823.41	5855
823.55	5817
823.69	5813
823.83	5760
823.97	5627
824.11	5554
824.25	5501
824.389	5554
824.529	5558
824.669	5535
824.809	5665
824.949	5688
825.089	5638
825.228	5535
825.368	5368
825.508	5391
825.648	5410
825.787	5402
825.927	5337
826.067	5322
826.206	5326
826.346	5376
826.485	5425
826.625	5395
826.765	5528
826.904	5486
827.044	5242
827.183	5189
827.323	5105
827.462	5284
827.601	5174
827.741	5155
827.88	5235
828.02	5102
828.159	5212
828.298	5239
828.437	5360
828.577	5280
828.716	5478
828.855	5364
828.994	5174
829.134	5121
829.273	5197
829.412	5208
829.551	5143
829.69	5197
829.829	5231
829.968	5341
830.107	5292
830.246	5277
830.385	5132
830.524	5124
830.663	5022
830.802	4965
830.941	4915
831.08	4885
831.219	4961
831.357	4946
831.496	5166
831.635	4930
831.774	4843
831.913	4835
832.051	4733
832.19	4771
832.329	4816
832.467	4714
832.606	4634
832.744	4740
832.883	4744
833.022	4736
833.16	4748
833.299	4831
833.437	4839
833.576	4866
833.714	4831
833.852	4892
833.991	4927
834.129	4976
834.267	4927
834.406	4877
834.544	4938
834.682	5033
834.821	4942
834.959	5170
835.097	5025
835.235	5193
835.373	5094
835.511	5140
835.65	4995
835.788	5033
835.926	4889
836.064	4908
836.202	4923
836.34	5170
836.478	5231
836.615	5155
836.753	5216
836.891	5292
837.029	5250
837.167	5201
837.305	5208
837.443	5155
837.58	5083
837.718	5258
837.856	5201
837.993	5151
838.131	5258
838.269	5181
838.406	5235
838.544	5201
838.681	5045
838.819	4984
838.956	4847
839.094	4900
839.231	4953
839.369	5067
839.506	5345
839.643	5261
839.781	5037
839.918	5010
840.055	5170
840.193	5098
840.33	5151
840.467	5128
840.604	5159
840.742	5410
840.879	5102
841.016	5098
841.153	5140
841.29	5379
841.427	5387
841.564	5296
841.701	5368
841.838	5341
841.975	5250
842.112	5292
842.249	5136
842.385	5136
842.522	5357
842.659	5155
842.796	5170
842.933	5159
843.069	5159
843.206	5124
843.343	5299
843.479	5174
843.616	5220
843.752	5048
843.889	5041
844.025	5185
844.162	5037
844.298	5197
844.435	5124
844.571	4999
844.708	5227
844.844	5296
844.98	5341
845.117	5315
845.253	5132
845.389	5090
845.525	5117
845.661	5143
845.798	5018
845.934	5151
846.07	5071
846.206	5185
846.342	5261
846.478	5124
846.614	5022
846.75	4995
846.886	4968
847.022	5174
847.158	5060
847.294	5048
847.429	5098
847.565	5086
847.701	5273
847.837	4831
847.972	4801
848.108	4980
848.244	4968
848.379	4797
848.515	4755
848.65	4725
848.786	4721
848.921	4801
849.057	4862
849.192	4896
849.328	4801
849.463	4870
849.598	4774
849.734	4774
849.869	4656
850.004	4653
850.14	4687
850.275	4596
850.41	4497
850.545	4516
850.68	4588
850.815	4607
850.95	4603
851.085	4843
851.22	4755
851.355	4683
851.49	4592
851.625	4637
851.76	4637
851.895	4550
852.03	4519
852.165	4630
852.299	4714
852.434	4812
852.569	4748
852.703	4752
852.838	4858
852.973	4889
853.107	4968
853.242	4725
853.376	4691
853.511	4550
853.645	4615
853.78	4812
853.914	4687
854.048	4653
854.183	4603
854.317	4626
854.451	4767
854.585	4683
854.72	4653
854.854	4744
854.988	4622
855.122	4656
855.256	4538
855.39	4675
855.524	4771
855.658	4805
855.792	4656
855.926	4740
856.06	4774
856.194	4843
856.327	4645
856.461	4588
856.595	4596
856.729	4611
856.862	4702
856.996	4729
857.13	4706
857.263	4816
857.397	4774
857.53	4672
857.664	4717
857.797	4759
857.931	4801
858.064	4672
858.197	4740
858.331	4679
858.464	4611
858.597	4485
858.731	4649
858.864	4668
858.997	4645
859.13	4679
859.263	4656
859.396	4706
859.529	4580
859.662	4634
859.795	4542
859.928	4592
860.061	4736
860.194	4740
860.327	4626
860.46	4580
860.592	4763
860.725	4687
860.858	4710
860.99	4596
861.123	4519
861.256	4527
861.388	4603
861.521	5231
861.653	4493
861.786	4436
861.918	4474
862.05	4489
862.183	4535
862.315	4584
862.447	4691
862.58	4546
862.712	4428
862.844	4356
862.976	4459
863.108	4459
863.24	4828
863.372	4329
863.504	4375
863.636	4383
863.768	4432
863.9	4409
864.032	4375
864.164	4413
864.296	4428
864.428	4531
864.559	4542
864.691	4508
864.823	4474
864.954	4519
865.086	4466
865.217	4451
865.349	4394
865.48	4459
865.612	4462
865.743	4634
865.875	4497
866.006	4402
866.137	4500
866.269	4413
866.4	4443
866.531	4386
866.662	4371
866.793	4421
866.924	4443
867.055	4436
867.186	4440
867.317	4413
867.448	4440
867.579	4398
867.71	4386
867.841	4386
867.972	4466
868.103	4462
868.233	4451
868.364	4424
868.495	4516
868.625	4641
868.756	4812
868.886	4569
869.017	4626
869.147	4706
869.278	4763
869.408	4675
869.539	4630
869.669	4714
869.799	4630
869.929	4748
870.06	4740
870.19	4885
870.32	4896
870.45	4927
870.58	5010
870.71	5060
870.84	5094
870.97	4968
871.1	4892
871.23	5170
871.36	5117
871.489	5102
871.619	5105
871.749	5075
871.879	5113
872.008	5159
872.138	5022
872.267	4957
872.397	4801
872.526	4790
872.656	4736
872.785	4797
872.915	4953
873.044	5045
873.173	4930
873.303	4976
873.432	4984
873.561	4987
873.69	4896
873.819	4858
873.948	4927
874.077	4847
874.206	4767
874.335	4824
874.464	4930
874.593	5045
874.722	4911
874.851	5086
874.979	5060
875.108	5029
875.237	4915
875.365	4877
875.494	4877
875.623	5037
875.751	4812
875.88	4915
876.008	4972
876.136	5033
876.265	5189
876.393	5410
876.521	5273
876.65	5227
876.778	5132
876.906	5064
877.034	5029
877.162	5071
877.29	5022
877.418	5067
877.546	5067
877.674	5045
877.802	5045
877.93	5014
878.058	4915
878.185	4885
878.313	4946
878.441	4961
878.568	4782
878.696	4911
878.824	4995
878.951	5014
879.079	5071
879.206	5292
879.333	5075
879.461	4972
879.588	5003
879.715	5143
879.842	5212
879.97	5006
880.097	4790
880.224	4782
880.351	4797
880.478	4786
880.605	4790
880.732	4793
880.859	5098
880.986	4915
881.112	4896
881.239	4820
881.366	4691
881.493	4580
881.619	4550
881.746	4672
881.872	4656
881.999	4687
882.125	4698
882.252	4805
882.378	4797
882.505	4972
882.631	4774
882.757	4672
882.883	4771
883.01	4759
883.136	4706
883.262	4611
883.388	4630
883.514	4790
883.64	4862
883.766	4767
883.892	4675
884.018	4736
884.143	4904
884.269	5018
884.395	4687
884.52	4618
884.646	4653
884.772	4618
884.897	4565
885.023	4653
885.148	4774
885.274	4828
885.399	4824
885.524	4736
885.65	4679
885.775	4687
885.9	4698
886.025	4854
886.15	4824
886.275	4725
886.4	4656
886.525	4710
886.65	4641
886.775	4706
886.9	4938
887.025	4968
887.149	4793
887.274	4683
887.399	4618
887.523	4580
887.648	4580
887.773	4634
887.897	4778
888.021	4820
888.146	4641
888.27	4816
888.395	4866
888.519	4812
888.643	4828
888.767	4835
888.891	4653
889.015	4592
889.139	4649
889.263	4599
889.387	4752
889.511	4847
889.635	4752
889.759	4656
889.883	4622
890.006	4793
890.13	4809
890.254	4645
890.377	4668
890.501	4527
890.624	4550
890.748	4599
890.871	4489
890.995	4436
891.118	4375
891.241	4504
891.364	4519
891.488	4615
891.611	4500
891.734	4538
891.857	4615
891.98	4554
892.103	4607
892.226	4558
892.349	4500
892.471	4421
892.594	4527
892.717	4577
892.839	4546
892.962	4561
893.085	4637
893.207	4611
893.33	4470
893.452	4478
893.575	4668
893.697	4607
893.819	4740
893.941	4850
894.064	4759
894.186	4550
894.308	4558
894.43	4672
894.552	4790
894.674	4755
894.796	4577
894.918	4569
895.04	4546
895.161	4694
895.283	4668
895.405	4573
895.526	4634
895.648	4641
895.769	4679
895.891	4660
896.012	4691
896.134	4774
896.255	4710
896.376	4584
896.498	4630
896.619	4687
896.74	4607
896.861	4691
896.982	4915
897.103	5117
897.224	4839
897.345	4767
897.466	4679
897.587	4710
897.708	4824
897.828	4805
897.949	4630
898.07	4546
898.19	4630
898.311	4820
898.431	4641
898.552	4786
898.672	4820
898.792	4767
898.913	4759
899.033	4634
899.153	4516
899.273	4462
899.393	4481
899.513	4512
899.633	4542
899.753	4561
899.873	4516
899.993	4592
900.113	4538
900.232	4618
900.352	4500
900.472	4466
900.591	4367
900.711	4504
900.83	4432
900.95	4637
901.069	4694
901.189	4508
901.308	4417
901.427	4329
901.546	4329
901.665	4447
901.784	4546
901.904	4402
902.023	4341
902.141	4143
902.26	4181
902.379	4291
902.498	4265
902.617	4230
902.735	4405
902.854	4394
902.973	4371
903.091	4188
903.21	4249
903.328	4356
903.446	4261
903.565	4280
903.683	4379
903.801	4261
903.919	4333
904.038	4470
904.156	4329
904.274	4409
904.392	4424
904.51	4459
904.627	4417
904.745	4588
904.863	4637
904.981	4402
905.098	4287
905.216	4394
905.334	4394
905.451	4424
905.569	4417
905.686	4538
905.803	4531
905.921	4371
906.038	4596
906.155	4493
906.272	4424
906.389	4462
906.506	4367
906.623	4413
906.74	4360
906.857	4314
906.974	4402
907.091	4538
907.208	4698
907.324	4558
907.441	4481
907.557	4329
907.674	4371
907.79	4344
907.907	4390
908.023	4493
908.139	4428
908.256	4443
908.372	4493
908.488	4413
908.604	4341
908.72	4333
908.836	4386
908.952	4360
909.068	4409
909.184	4569
909.3	4470
909.415	4565
909.531	4558
909.647	4379
909.762	4348
909.878	4333
909.993	4421
910.108	4402
910.224	4421
910.339	4459
910.454	4413
910.57	4333
910.685	4295
910.8	4637
910.915	4641
911.03	4459
911.145	4295
911.259	4318
911.374	4386
911.489	4291
911.604	4280
911.718	4177
911.833	4185
911.947	4082
912.062	4006
912.176	4196
912.291	4253
912.405	4219
912.519	4474
912.633	4466
912.748	4318
912.862	4287
912.976	4242
913.09	4139
913.204	4211
913.318	4230
913.431	4352
913.545	4329
913.659	4455
913.772	4348
913.886	4215
914	4227
914.113	4390
914.226	4451
914.34	4386
914.453	4265
914.566	4440
914.68	4284
914.793	4329
914.906	4139
915.019	4097
915.132	4055
915.245	4185
915.358	4147
915.47	4230
915.583	4291
915.696	4303
915.809	4363
915.921	4417
916.034	4276
916.146	4246
916.259	4246
916.371	4360
916.483	4344
916.595	4268
916.708	4344
916.82	4363
916.932	4291
917.044	4329
917.156	4299
917.268	4238
917.38	4322
917.491	4261
917.603	4306
917.715	4417
917.826	4451
917.938	4344
918.049	4211
918.161	4379
918.272	4546
918.384	4504
918.495	4500
918.606	4280
918.717	4249
918.828	4318
918.939	4348
919.05	4249
919.161	4322
919.272	4177
919.383	4268
919.494	4421
919.604	4622
919.715	4436
919.826	4287
919.936	4421
920.047	4527
920.157	4455
920.267	4656
920.378	4535
920.488	4531
920.598	4744
920.708	4870
920.818	4801
920.928	4774
921.038	4953
921.148	4911
921.258	4603
921.368	4542
921.477	4523
921.587	4443
921.697	4352
921.806	4508
921.916	4428
922.025	4265
922.134	4253
922.244	4215
922.353	4306
922.462	4154
922.571	4105
922.68	4021
922.789	3968
922.898	4044
923.007	3998
923.116	4093
923.224	4036
923.333	4090
923.442	3991
923.55	3945
923.659	4013
923.767	4109
923.876	4010
923.984	4105
924.092	3983
924.201	4124
924.309	4074
924.417	4078
924.525	4032
924.633	4101
924.741	4854
924.849	3930
924.956	4112
925.064	3956
925.172	3896
925.279	3979
925.387	4086
925.494	4055
925.602	4177
925.709	4188
925.816	4074
925.924	4116
926.031	4242
926.138	4185
926.245	4177
926.352	4036
926.459	4253
926.566	4314
926.673	4162
926.779	4048
926.886	4105
926.993	3975
927.099	3968
927.206	3960
927.312	3979
927.419	4032
927.525	4048
927.631	4090
927.737	3983
927.843	3949
927.95	3808
928.056	3918
928.162	3960
928.267	4074
928.373	4554
928.479	4150
928.585	3892
928.69	4010
928.796	4067
928.901	3960
929.007	3823
929.112	4010
929.218	3972
929.323	3937
929.428	3941
929.533	4120
929.638	3922
929.743	3979
929.848	4025
929.953	3953
930.058	3922
930.163	3743
930.267	3816
930.372	3979
930.477	3789
930.581	4086
930.685	3968
930.79	3804
930.894	3892
930.998	3835
931.103	4032
931.207	3705
931.311	3652
931.415	3633
931.519	3507
931.623	3561
