Data from test_V78500241_1560.txt Node
Date: Fri Mar 25 16:59:50 CST 2022
User: usil
Spectrometer: V785-0024
Trigger mode: 0
Integration Time (sec): 4.000000E-1
Scans to average: 1
Nonlinearity correction enabled: false
Boxcar width: 0
Storing dark spectrum: false
XAxis mode: Wavelengths
Number of Pixels in Spectrum: 1024
>>>>>Begin Spectral Data<<<<<
801.071	8012
801.214	7989
801.356	7898
801.499	7890
801.641	7818
801.783	7849
801.926	7955
802.068	7978
802.211	7978
802.353	7982
802.496	7864
802.638	7856
802.78	7909
802.923	7944
803.065	7890
803.208	7852
803.35	7940
803.492	8073
803.635	8172
803.777	8012
803.919	8103
804.061	8480
804.204	8142
804.346	7967
804.488	7982
804.63	8126
804.773	8016
804.915	8088
805.057	8313
805.199	8153
805.341	8218
805.483	8263
805.626	8164
805.768	8145
805.91	8164
806.052	8229
806.194	8046
806.336	8332
806.478	8069
806.62	8020
806.762	8115
806.904	8294
807.046	8438
807.188	8366
807.33	8248
807.472	8248
807.614	8199
807.756	8130
807.898	7986
808.04	7932
808.182	7928
808.324	7890
808.465	7894
808.607	8020
808.749	8164
808.891	8168
809.033	8355
809.174	8210
809.316	8043
809.458	8065
809.6	7974
809.741	7993
809.883	8050
810.025	8100
810.166	8035
810.308	8016
810.45	7970
810.591	7822
810.733	7727
810.875	7616
811.016	7464
811.158	7457
811.299	7578
811.441	7780
811.582	7738
811.724	7575
811.865	7548
812.007	7548
812.148	7613
812.29	7590
812.431	7651
812.573	7940
812.714	7974
812.855	8043
812.997	8138
813.138	8328
813.279	8164
813.421	8100
813.562	7944
813.703	7818
813.845	7723
813.986	7426
814.127	7251
814.268	7240
814.41	7149
814.551	7202
814.692	7164
814.833	7095
814.974	7114
815.115	7133
815.256	6947
815.397	6886
815.539	6981
815.68	6798
815.821	6719
815.962	6833
816.103	6738
816.244	6779
816.385	6574
816.526	6635
816.666	6437
816.807	6251
816.948	6410
817.089	6448
817.23	6410
817.371	6391
817.512	6407
817.653	6346
817.793	6353
817.934	6448
818.075	6426
818.216	6426
818.356	6414
818.497	6171
818.638	6038
818.778	6144
818.919	6083
819.06	6129
819.2	6270
819.341	6315
819.481	6388
819.622	6513
819.762	6722
819.903	6654
820.043	6627
820.184	6585
820.324	6601
820.465	6734
820.605	6650
820.746	6669
820.886	6422
821.026	6616
821.167	6616
821.307	6798
821.447	6722
821.588	6681
821.728	6616
821.868	6448
822.008	6391
822.149	6342
822.289	6376
822.429	6110
822.569	6072
822.709	6110
822.849	5950
822.99	5893
823.13	5882
823.27	5863
823.41	5767
823.55	5764
823.69	5783
823.83	5752
823.97	5695
824.11	5558
824.25	5501
824.389	5558
824.529	5596
824.669	5581
824.809	5630
824.949	5653
825.089	5608
825.228	5570
825.368	5406
825.508	5337
825.648	5360
825.787	5402
825.927	5398
826.067	5280
826.206	5311
826.346	5444
826.485	5414
826.625	5455
826.765	5600
826.904	5474
827.044	5269
827.183	5227
827.323	5162
827.462	5299
827.601	5174
827.741	5261
827.88	5269
828.02	5140
828.159	5292
828.298	5364
828.437	5414
828.577	5318
828.716	5474
828.855	5376
828.994	5174
829.134	5162
829.273	5242
829.412	5151
829.551	5166
829.69	5220
829.829	5292
829.968	5486
830.107	5258
830.246	5299
830.385	5208
830.524	5155
830.663	5113
830.802	4984
830.941	4911
831.08	4858
831.219	5048
831.357	5025
831.496	5197
831.635	4957
831.774	4904
831.913	4870
832.051	4763
832.19	4820
832.329	4877
832.467	4748
832.606	4683
832.744	4710
832.883	4717
833.022	4763
833.16	4816
833.299	4847
833.437	4854
833.576	4801
833.714	4938
833.852	4919
833.991	4896
834.129	4999
834.267	4949
834.406	4942
834.544	4965
834.682	4965
834.821	4984
834.959	5174
835.097	5006
835.235	5147
835.373	5143
835.511	5124
835.65	5041
835.788	5029
835.926	4927
836.064	4900
836.202	4953
836.34	5212
836.478	5239
836.615	5162
836.753	5220
836.891	5299
837.029	5296
837.167	5227
837.305	5212
837.443	5140
837.58	5132
837.718	5231
837.856	5193
837.993	5174
838.131	5231
838.269	5227
838.406	5201
838.544	5212
838.681	5064
838.819	5029
838.956	4862
839.094	4938
839.231	5056
839.369	5086
839.506	5402
839.643	5280
839.781	5083
839.918	5003
840.055	5121
840.193	5109
840.33	5136
840.467	5147
840.604	5223
840.742	5497
840.879	5121
841.016	5071
841.153	5231
841.29	5391
841.427	5318
841.564	5345
841.701	5387
841.838	5284
841.975	5280
842.112	5254
842.249	5162
842.385	5132
842.522	5376
842.659	5250
842.796	5155
842.933	5288
843.069	5189
843.206	5140
843.343	5311
843.479	5246
843.616	5296
843.752	5045
843.889	5041
844.025	5242
844.162	5041
844.298	5277
844.435	5121
844.571	5060
844.708	5208
844.844	5334
844.98	5364
845.117	5353
845.253	5170
845.389	5048
845.525	5155
845.661	5204
845.798	5033
845.934	5117
846.07	5052
846.206	5227
846.342	5284
846.478	5227
846.614	5060
846.75	4942
846.886	5025
847.022	5193
847.158	5022
847.294	5071
847.429	5128
847.565	5033
847.701	5364
847.837	4892
847.972	4889
848.108	4968
848.244	4949
848.379	4816
848.515	4656
848.65	4729
848.786	4805
848.921	4801
849.057	4843
849.192	4900
849.328	4816
849.463	4862
849.598	4862
849.734	4736
849.869	4736
850.004	4683
850.14	4649
850.275	4592
850.41	4527
850.545	4565
850.68	4656
850.815	4653
850.95	4618
851.085	4889
851.22	4763
851.355	4656
851.49	4611
851.625	4611
851.76	4683
851.895	4577
852.03	4580
852.165	4691
852.299	4736
852.434	4835
852.569	4740
852.703	4782
852.838	4812
852.973	4930
853.107	4957
853.242	4733
853.376	4714
853.511	4573
853.645	4649
853.78	4877
853.914	4748
854.048	4725
854.183	4683
854.317	4706
854.451	4858
854.585	4668
854.72	4660
854.854	4839
854.988	4664
855.122	4645
855.256	4558
855.39	4702
855.524	4828
855.658	4729
855.792	4710
855.926	4744
856.06	4793
856.194	4786
856.327	4668
856.461	4611
856.595	4607
856.729	4641
856.862	4805
856.996	4706
857.13	4793
857.263	4835
857.397	4820
857.53	4615
857.664	4725
857.797	4786
857.931	4767
858.064	4717
858.197	4790
858.331	4679
858.464	4607
858.597	4565
858.731	4653
858.864	4706
858.997	4580
859.13	4679
859.263	4729
859.396	4771
859.529	4618
859.662	4565
859.795	4550
859.928	4634
860.061	4733
860.194	4801
860.327	4645
860.46	4588
860.592	4725
860.725	4767
860.858	4740
860.99	4603
861.123	4554
861.256	4535
861.388	4577
861.521	5242
861.653	4569
861.786	4470
861.918	4500
862.05	4531
862.183	4588
862.315	4569
862.447	4660
862.58	4542
862.712	4402
862.844	4360
862.976	4474
863.108	4455
863.24	4793
863.372	4295
863.504	4424
863.636	4417
863.768	4523
863.9	4462
864.032	4383
864.164	4405
864.296	4493
864.428	4622
864.559	4523
864.691	4573
864.823	4596
864.954	4531
865.086	4485
865.217	4493
865.349	4451
865.48	4462
865.612	4493
865.743	4611
865.875	4481
866.006	4462
866.137	4497
866.269	4485
866.4	4417
866.531	4424
866.662	4432
866.793	4413
866.924	4447
867.055	4500
867.186	4455
867.317	4424
867.448	4379
867.579	4398
867.71	4409
867.841	4390
867.972	4474
868.103	4519
868.233	4447
868.364	4432
868.495	4470
868.625	4656
868.756	4736
868.886	4630
869.017	4656
869.147	4809
869.278	4824
869.408	4691
869.539	4679
869.669	4733
869.799	4660
869.929	4740
870.06	4759
870.19	4953
870.32	4938
870.45	4953
870.58	5037
870.71	5094
870.84	5090
870.97	4999
871.1	4889
871.23	5140
871.36	5147
871.489	5010
871.619	5056
871.749	5083
871.879	5143
872.008	5223
872.138	5048
872.267	4949
872.397	4854
872.526	4839
872.656	4740
872.785	4812
872.915	4987
873.044	5079
873.173	4953
873.303	4938
873.432	4972
873.561	4980
873.69	4870
873.819	4885
873.948	4968
874.077	4831
874.206	4767
874.335	4866
874.464	4908
874.593	5048
874.722	4984
874.851	5079
874.979	5083
875.108	5083
875.237	4946
875.365	4911
875.494	4889
875.623	4987
875.751	4847
875.88	4835
876.008	5079
876.136	5060
876.265	5246
876.393	5326
876.521	5296
876.65	5261
876.778	5143
876.906	5098
877.034	5033
877.162	4995
877.29	4980
877.418	5056
877.546	5037
877.674	5052
877.802	5018
877.93	5033
878.058	4953
878.185	4889
878.313	5010
878.441	4923
878.568	4831
878.696	4866
878.824	4968
878.951	4946
879.079	5121
879.206	5254
879.333	5075
879.461	4961
879.588	4991
879.715	5140
879.842	5242
879.97	5010
880.097	4774
880.224	4752
880.351	4778
880.478	4820
880.605	4778
880.732	4778
880.859	5071
880.986	4915
881.112	4896
881.239	4725
881.366	4710
881.493	4615
881.619	4603
881.746	4653
881.872	4641
881.999	4687
882.125	4702
882.252	4812
882.378	4843
882.505	4972
882.631	4793
882.757	4752
882.883	4687
883.01	4710
883.136	4649
883.262	4580
883.388	4649
883.514	4866
883.64	4862
883.766	4858
883.892	4698
884.018	4710
884.143	4877
884.269	5071
884.395	4672
884.52	4664
884.646	4691
884.772	4599
884.897	4599
885.023	4649
885.148	4797
885.274	4862
885.399	4812
885.524	4733
885.65	4710
885.775	4774
885.9	4717
886.025	4896
886.15	4816
886.275	4729
886.4	4694
886.525	4736
886.65	4702
886.775	4725
886.9	4942
887.025	5033
887.149	4786
887.274	4634
887.399	4630
887.523	4584
887.648	4577
887.773	4580
887.897	4824
888.021	4816
888.146	4694
888.27	4839
888.395	4881
888.519	4793
888.643	4824
888.767	4835
888.891	4637
889.015	4626
889.139	4668
889.263	4630
889.387	4771
889.511	4900
889.635	4763
889.759	4630
889.883	4675
890.006	4706
890.13	4847
890.254	4622
890.377	4691
890.501	4588
890.624	4493
890.748	4611
890.871	4527
890.995	4440
891.118	4413
891.241	4489
891.364	4592
891.488	4672
891.611	4481
891.734	4542
891.857	4660
891.98	4588
892.103	4637
892.226	4584
892.349	4519
892.471	4409
892.594	4542
892.717	4569
892.839	4561
892.962	4618
893.085	4683
893.207	4603
893.33	4413
893.452	4527
893.575	4622
893.697	4637
893.819	4793
893.941	4820
894.064	4812
894.186	4588
894.308	4558
894.43	4710
894.552	4831
894.674	4748
894.796	4577
894.918	4634
895.04	4580
895.161	4774
895.283	4649
895.405	4569
895.526	4660
895.648	4687
895.769	4683
895.891	4778
896.012	4752
896.134	4710
896.255	4687
896.376	4653
896.498	4603
896.619	4679
896.74	4626
896.861	4664
896.982	4927
897.103	5109
897.224	4850
897.345	4717
897.466	4660
897.587	4759
897.708	4866
897.828	4729
897.949	4634
898.07	4596
898.19	4679
898.311	4812
898.431	4637
898.552	4717
898.672	4790
898.792	4831
898.913	4733
899.033	4596
899.153	4500
899.273	4421
899.393	4519
899.513	4489
899.633	4519
899.753	4561
899.873	4573
899.993	4538
900.113	4554
900.232	4573
900.352	4573
900.472	4512
900.591	4371
900.711	4466
900.83	4466
900.95	4607
901.069	4641
901.189	4550
901.308	4383
901.427	4291
901.546	4379
901.665	4478
901.784	4535
901.904	4371
902.023	4306
902.141	4166
902.26	4147
902.379	4310
902.498	4227
902.617	4204
902.735	4371
902.854	4443
902.973	4402
903.091	4219
903.21	4253
903.328	4314
903.446	4284
903.565	4257
903.683	4379
903.801	4318
903.919	4421
904.038	4440
904.156	4329
904.274	4405
904.392	4386
904.51	4379
904.627	4519
904.745	4580
904.863	4626
904.981	4356
905.098	4360
905.216	4409
905.334	4462
905.451	4424
905.569	4516
905.686	4565
905.803	4580
905.921	4405
906.038	4584
906.155	4485
906.272	4356
906.389	4466
906.506	4363
906.623	4318
906.74	4394
906.857	4306
906.974	4371
907.091	4554
907.208	4694
907.324	4565
907.441	4459
907.557	4375
907.674	4348
907.79	4314
907.907	4383
908.023	4531
908.139	4440
908.256	4421
908.372	4436
908.488	4428
908.604	4348
908.72	4341
908.836	4371
908.952	4405
909.068	4394
909.184	4554
909.3	4516
909.415	4535
909.531	4588
909.647	4375
909.762	4371
909.878	4356
909.993	4436
910.108	4371
910.224	4413
910.339	4478
910.454	4417
910.57	4386
910.685	4318
910.8	4675
910.915	4603
911.03	4451
911.145	4329
911.259	4383
911.374	4356
911.489	4242
911.604	4280
911.718	4150
911.833	4207
911.947	4112
912.062	4048
912.176	4230
912.291	4223
912.405	4238
912.519	4485
912.633	4523
912.748	4352
912.862	4325
912.976	4215
913.09	4112
913.204	4211
913.318	4253
913.431	4375
913.545	4409
913.659	4470
913.772	4341
913.886	4276
914	4242
914.113	4383
914.226	4409
914.34	4383
914.453	4215
914.566	4413
914.68	4333
914.793	4299
914.906	4162
915.019	4196
915.132	4093
915.245	4181
915.358	4223
915.47	4215
915.583	4276
915.696	4253
915.809	4428
915.921	4428
916.034	4242
916.146	4223
916.259	4211
916.371	4398
916.483	4314
916.595	4280
916.708	4325
916.82	4322
916.932	4333
917.044	4314
917.156	4333
917.268	4207
917.38	4253
917.491	4284
917.603	4356
917.715	4375
917.826	4440
917.938	4341
918.049	4253
918.161	4352
918.272	4546
918.384	4535
918.495	4466
918.606	4322
918.717	4230
918.828	4325
918.939	4383
919.05	4284
919.161	4356
919.272	4150
919.383	4242
919.494	4432
919.604	4683
919.715	4451
919.826	4383
919.936	4348
920.047	4531
920.157	4500
920.267	4672
920.378	4527
920.488	4527
920.598	4752
920.708	4889
920.818	4733
920.928	4759
921.038	5014
921.148	4927
921.258	4611
921.368	4558
921.477	4550
921.587	4440
921.697	4363
921.806	4573
921.916	4424
922.025	4287
922.134	4265
922.244	4177
922.353	4291
922.462	4185
922.571	4154
922.68	4013
922.789	3964
922.898	4017
923.007	3972
923.116	4097
923.224	4093
923.333	4078
923.442	3991
923.55	3956
923.659	4013
923.767	4093
923.876	4021
923.984	4116
924.092	3949
924.201	4071
924.309	4101
924.417	4101
924.525	4032
924.633	4071
924.741	5029
924.849	3911
924.956	4124
925.064	3983
925.172	3918
925.279	4006
925.387	4025
925.494	4067
925.602	4169
925.709	4120
925.816	4010
925.924	4109
926.031	4200
926.138	4162
926.245	4181
926.352	4074
926.459	4249
926.566	4284
926.673	4173
926.779	4105
926.886	4025
926.993	3968
927.099	3915
927.206	3937
927.312	3983
927.419	4013
927.525	4048
927.631	4074
927.737	3975
927.843	3930
927.95	3850
928.056	3972
928.162	3956
928.267	4048
928.373	4588
928.479	4101
928.585	3873
928.69	3998
928.796	4067
928.901	4036
929.007	3884
929.112	3994
929.218	3968
929.323	3922
929.428	3934
929.533	4116
929.638	3907
929.743	3949
929.848	4044
929.953	3983
930.058	3934
930.163	3785
930.267	3797
930.372	3979
930.477	3793
930.581	4101
930.685	3915
930.79	3800
930.894	3865
930.998	3842
931.103	4025
931.207	3732
931.311	3690
931.415	3679
931.519	3542
931.623	3530
