Data from test_V78500241_282.txt Node
Date: Fri Mar 25 16:50:57 CST 2022
User: usil
Spectrometer: V785-0024
Trigger mode: 0
Integration Time (sec): 4.000000E-1
Scans to average: 1
Nonlinearity correction enabled: false
Boxcar width: 0
Storing dark spectrum: false
XAxis mode: Wavelengths
Number of Pixels in Spectrum: 1024
>>>>>Begin Spectral Data<<<<<
801.071	8130
801.214	8092
801.356	7898
801.499	7814
801.641	7803
801.783	7879
801.926	8027
802.068	7955
802.211	7982
802.353	8012
802.496	7906
802.638	7932
802.78	7944
802.923	7944
803.065	7932
803.208	7883
803.35	7955
803.492	8020
803.635	8123
803.777	7917
803.919	8065
804.061	8457
804.204	8115
804.346	8103
804.488	7989
804.63	8073
804.773	8008
804.915	8126
805.057	8218
805.199	8187
805.341	8237
805.483	8275
805.626	8161
805.768	8046
805.91	8134
806.052	8210
806.194	8046
806.336	8290
806.478	8123
806.62	8088
806.762	8138
806.904	8248
807.046	8400
807.188	8271
807.33	8244
807.472	8305
807.614	8161
807.756	8050
807.898	7982
808.04	7875
808.182	7887
808.324	7917
808.465	7890
808.607	8062
808.749	8092
808.891	8172
809.033	8282
809.174	8153
809.316	7986
809.458	8069
809.6	8027
809.741	7955
809.883	7947
810.025	8050
810.166	8100
810.308	8031
810.45	8001
810.591	7871
810.733	7830
810.875	7658
811.016	7544
811.158	7499
811.299	7639
811.441	7727
811.582	7734
811.724	7559
811.865	7529
812.007	7578
812.148	7559
812.29	7651
812.431	7757
812.573	7906
812.714	8031
812.855	8111
812.997	8183
813.138	8301
813.279	8187
813.421	8126
813.562	8027
813.703	7822
813.845	7723
813.986	7441
814.127	7285
814.268	7225
814.41	7202
814.551	7156
814.692	7126
814.833	7065
814.974	7107
815.115	7034
815.256	6939
815.397	6905
815.539	6916
815.68	6783
815.821	6715
815.962	6886
816.103	6852
816.244	6787
816.385	6616
816.526	6597
816.666	6551
816.807	6350
816.948	6433
817.089	6498
817.23	6475
817.371	6369
817.512	6426
817.653	6433
817.793	6361
817.934	6395
818.075	6441
818.216	6445
818.356	6384
818.497	6232
818.638	6125
818.778	6136
818.919	6091
819.06	6098
819.2	6300
819.341	6331
819.481	6327
819.622	6506
819.762	6726
819.903	6715
820.043	6608
820.184	6528
820.324	6521
820.465	6673
820.605	6654
820.746	6544
820.886	6513
821.026	6665
821.167	6715
821.307	6753
821.447	6783
821.588	6631
821.728	6521
821.868	6490
822.008	6270
822.149	6357
822.289	6296
822.429	6152
822.569	6083
822.709	6110
822.849	5904
822.99	5931
823.13	5893
823.27	5885
823.41	5764
823.55	5767
823.69	5783
823.83	5859
823.97	5657
824.11	5562
824.25	5512
824.389	5554
824.529	5581
824.669	5516
824.809	5611
824.949	5718
825.089	5653
825.228	5581
825.368	5444
825.508	5299
825.648	5357
825.787	5402
825.927	5337
826.067	5288
826.206	5303
826.346	5337
826.485	5372
826.625	5406
826.765	5570
826.904	5459
827.044	5269
827.183	5208
827.323	5159
827.462	5292
827.601	5201
827.741	5197
827.88	5223
828.02	5098
828.159	5162
828.298	5330
828.437	5410
828.577	5277
828.716	5532
828.855	5349
828.994	5181
829.134	5170
829.273	5261
829.412	5151
829.551	5201
829.69	5151
829.829	5239
829.968	5417
830.107	5265
830.246	5303
830.385	5181
830.524	5166
830.663	5071
830.802	4984
830.941	4927
831.08	4896
831.219	4991
831.357	5003
831.496	5189
831.635	4995
831.774	4892
831.913	4892
832.051	4771
832.19	4771
832.329	4801
832.467	4710
832.606	4702
832.744	4717
832.883	4759
833.022	4729
833.16	4839
833.299	4870
833.437	4889
833.576	4900
833.714	4889
833.852	4915
833.991	4949
834.129	4942
834.267	4987
834.406	5006
834.544	5018
834.682	5048
834.821	5025
834.959	5193
835.097	5037
835.235	5212
835.373	5147
835.511	5189
835.65	5083
835.788	5071
835.926	4949
836.064	4919
836.202	4972
836.34	5227
836.478	5288
836.615	5159
836.753	5212
836.891	5379
837.029	5296
837.167	5250
837.305	5246
837.443	5216
837.58	5109
837.718	5299
837.856	5235
837.993	5212
838.131	5231
838.269	5269
838.406	5258
838.544	5250
838.681	5159
838.819	5109
838.956	4949
839.094	4942
839.231	5014
839.369	5140
839.506	5478
839.643	5280
839.781	5094
839.918	5052
840.055	5124
840.193	5140
840.33	5197
840.467	5197
840.604	5258
840.742	5505
840.879	5113
841.016	5105
841.153	5193
841.29	5395
841.427	5357
841.564	5326
841.701	5421
841.838	5315
841.975	5292
842.112	5303
842.249	5151
842.385	5105
842.522	5334
842.659	5185
842.796	5162
842.933	5193
843.069	5216
843.206	5227
843.343	5303
843.479	5277
843.616	5322
843.752	5075
843.889	5048
844.025	5303
844.162	5041
844.298	5265
844.435	5117
844.571	5064
844.708	5189
844.844	5391
844.98	5360
845.117	5318
845.253	5231
845.389	5136
845.525	5155
845.661	5185
845.798	5105
845.934	5201
846.07	5094
846.206	5201
846.342	5273
846.478	5223
846.614	5018
846.75	5014
846.886	4991
847.022	5170
847.158	5056
847.294	5109
847.429	5162
847.565	5113
847.701	5387
847.837	4896
847.972	4923
848.108	4972
848.244	4965
848.379	4786
848.515	4752
848.65	4691
848.786	4793
848.921	4820
849.057	4847
849.192	4953
849.328	4824
849.463	4938
849.598	4862
849.734	4797
849.869	4710
850.004	4641
850.14	4706
850.275	4660
850.41	4546
850.545	4596
850.68	4691
850.815	4641
850.95	4687
851.085	4900
851.22	4790
851.355	4733
851.49	4653
851.625	4694
851.76	4607
851.895	4622
852.03	4592
852.165	4710
852.299	4759
852.434	4816
852.569	4782
852.703	4790
852.838	4847
852.973	5029
853.107	4968
853.242	4786
853.376	4675
853.511	4615
853.645	4649
853.78	4801
853.914	4736
854.048	4702
854.183	4698
854.317	4786
854.451	4873
854.585	4763
854.72	4679
854.854	4740
854.988	4645
855.122	4668
855.256	4535
855.39	4714
855.524	4801
855.658	4763
855.792	4729
855.926	4702
856.06	4736
856.194	4820
856.327	4733
856.461	4687
856.595	4675
856.729	4653
856.862	4782
856.996	4706
857.13	4755
857.263	4771
857.397	4862
857.53	4656
857.664	4752
857.797	4778
857.931	4797
858.064	4736
858.197	4782
858.331	4664
858.464	4653
858.597	4531
858.731	4740
858.864	4706
858.997	4656
859.13	4664
859.263	4694
859.396	4717
859.529	4649
859.662	4626
859.795	4565
859.928	4645
860.061	4805
860.194	4778
860.327	4694
860.46	4584
860.592	4752
860.725	4710
860.858	4748
860.99	4603
861.123	4546
861.256	4558
861.388	4634
861.521	5357
861.653	4527
861.786	4489
861.918	4474
862.05	4554
862.183	4592
862.315	4672
862.447	4641
862.58	4611
862.712	4413
862.844	4367
862.976	4493
863.108	4489
863.24	4911
863.372	4371
863.504	4466
863.636	4481
863.768	4493
863.9	4512
864.032	4383
864.164	4485
864.296	4500
864.428	4577
864.559	4596
864.691	4592
864.823	4577
864.954	4550
865.086	4535
865.217	4504
865.349	4466
865.48	4474
865.612	4554
865.743	4653
865.875	4535
866.006	4451
866.137	4542
866.269	4523
866.4	4432
866.531	4462
866.662	4417
866.793	4459
866.924	4447
867.055	4516
867.186	4459
867.317	4481
867.448	4402
867.579	4462
867.71	4447
867.841	4394
867.972	4497
868.103	4481
868.233	4466
868.364	4516
868.495	4558
868.625	4752
868.756	4778
868.886	4588
869.017	4618
869.147	4797
869.278	4824
869.408	4706
869.539	4672
869.669	4721
869.799	4706
869.929	4790
870.06	4721
870.19	4930
870.32	4953
870.45	4942
870.58	5060
870.71	5128
870.84	5105
870.97	5033
871.1	4915
871.23	5155
871.36	5136
871.489	5071
871.619	5071
871.749	5185
871.879	5170
872.008	5162
872.138	5098
872.267	5067
872.397	4927
872.526	4858
872.656	4771
872.785	4858
872.915	4942
873.044	5086
873.173	4980
873.303	5033
873.432	4987
873.561	5006
873.69	4896
873.819	4858
873.948	4930
874.077	4866
874.206	4748
874.335	4866
874.464	4949
874.593	5124
874.722	4942
874.851	5155
874.979	5056
875.108	5067
875.237	4957
875.365	4938
875.494	4908
875.623	4980
875.751	4889
875.88	4904
876.008	4995
876.136	5094
876.265	5250
876.393	5360
876.521	5292
876.65	5242
876.778	5185
876.906	5098
877.034	5033
877.162	5140
877.29	4999
877.418	5045
877.546	5041
877.674	5098
877.802	5010
877.93	5083
878.058	5022
878.185	4881
878.313	4942
878.441	4953
878.568	4835
878.696	4900
878.824	4995
878.951	5003
879.079	5105
879.206	5345
879.333	5083
879.461	4999
879.588	5045
879.715	5086
879.842	5265
879.97	5045
880.097	4850
880.224	4793
880.351	4828
880.478	4862
880.605	4862
880.732	4801
880.859	5128
880.986	4965
881.112	4961
881.239	4786
881.366	4687
881.493	4649
881.619	4641
881.746	4618
881.872	4668
881.999	4649
882.125	4733
882.252	4752
882.378	4862
882.505	5014
882.631	4786
882.757	4714
882.883	4755
883.01	4683
883.136	4717
883.262	4645
883.388	4603
883.514	4850
883.64	4919
883.766	4824
883.892	4683
884.018	4755
884.143	4908
884.269	5041
884.395	4698
884.52	4668
884.646	4679
884.772	4618
884.897	4611
885.023	4702
885.148	4778
885.274	4866
885.399	4839
885.524	4763
885.65	4694
885.775	4767
885.9	4717
886.025	4881
886.15	4805
886.275	4736
886.4	4729
886.525	4782
886.65	4694
886.775	4752
886.9	4961
887.025	5056
887.149	4870
887.274	4706
887.399	4615
887.523	4664
887.648	4580
887.773	4592
887.897	4778
888.021	4843
888.146	4725
888.27	4866
888.395	4957
888.519	4828
888.643	4854
888.767	4938
888.891	4729
889.015	4592
889.139	4725
889.263	4596
889.387	4820
889.511	4923
889.635	4824
889.759	4649
889.883	4691
890.006	4790
890.13	4831
890.254	4675
890.377	4683
890.501	4527
890.624	4516
890.748	4641
890.871	4580
890.995	4436
891.118	4375
891.241	4558
891.364	4573
891.488	4691
891.611	4493
891.734	4508
891.857	4611
891.98	4569
892.103	4672
892.226	4592
892.349	4558
892.471	4440
892.594	4618
892.717	4592
892.839	4584
892.962	4660
893.085	4702
893.207	4664
893.33	4447
893.452	4558
893.575	4683
893.697	4630
893.819	4801
893.941	4870
894.064	4828
894.186	4584
894.308	4577
894.43	4759
894.552	4824
894.674	4854
894.796	4615
894.918	4611
895.04	4542
895.161	4721
895.283	4656
895.405	4634
895.526	4649
895.648	4691
895.769	4702
895.891	4714
896.012	4759
896.134	4679
896.255	4694
896.376	4649
896.498	4611
896.619	4694
896.74	4607
896.861	4653
896.982	4938
897.103	5105
897.224	4850
897.345	4733
897.466	4717
897.587	4710
897.708	4919
897.828	4755
897.949	4698
898.07	4569
898.19	4675
898.311	4858
898.431	4733
898.552	4763
898.672	4793
898.792	4847
898.913	4786
899.033	4653
899.153	4565
899.273	4474
899.393	4558
899.513	4531
899.633	4508
899.753	4618
899.873	4527
899.993	4573
900.113	4577
900.232	4599
900.352	4584
900.472	4558
900.591	4394
900.711	4504
900.83	4447
900.95	4626
901.069	4698
901.189	4531
901.308	4417
901.427	4367
901.546	4386
901.665	4470
901.784	4538
901.904	4417
902.023	4303
902.141	4166
902.26	4181
902.379	4333
902.498	4227
902.617	4261
902.735	4390
902.854	4428
902.973	4371
903.091	4185
903.21	4257
903.328	4295
903.446	4272
903.565	4291
903.683	4383
903.801	4306
903.919	4390
904.038	4402
904.156	4402
904.274	4474
904.392	4443
904.51	4428
904.627	4535
904.745	4596
904.863	4645
904.981	4432
905.098	4390
905.216	4424
905.334	4497
905.451	4481
905.569	4474
905.686	4599
905.803	4649
905.921	4451
906.038	4592
906.155	4550
906.272	4417
906.389	4504
906.506	4394
906.623	4390
906.74	4470
906.857	4398
906.974	4390
907.091	4637
907.208	4721
907.324	4622
907.441	4527
907.557	4402
907.674	4390
907.79	4367
907.907	4447
908.023	4565
908.139	4542
908.256	4489
908.372	4493
908.488	4443
908.604	4394
908.72	4405
908.836	4440
908.952	4436
909.068	4466
909.184	4641
909.3	4554
909.415	4649
909.531	4634
909.647	4409
909.762	4405
909.878	4398
909.993	4550
910.108	4459
910.224	4485
910.339	4508
910.454	4504
910.57	4398
910.685	4367
910.8	4668
910.915	4660
911.03	4519
911.145	4402
911.259	4413
911.374	4405
911.489	4375
911.604	4375
911.718	4230
911.833	4238
911.947	4131
912.062	4112
912.176	4284
912.291	4314
912.405	4329
912.519	4500
912.633	4569
912.748	4417
912.862	4386
912.976	4261
913.09	4158
913.204	4200
913.318	4306
913.431	4474
913.545	4398
913.659	4504
913.772	4432
913.886	4280
914	4265
914.113	4390
914.226	4481
914.34	4455
914.453	4287
914.566	4462
914.68	4390
914.793	4348
914.906	4200
915.019	4177
915.132	4116
915.245	4268
915.358	4238
915.47	4253
915.583	4306
915.696	4322
915.809	4470
915.921	4512
916.034	4310
916.146	4310
916.259	4246
916.371	4424
916.483	4432
916.595	4295
916.708	4390
916.82	4398
916.932	4329
917.044	4325
917.156	4386
917.268	4329
917.38	4352
917.491	4284
917.603	4375
917.715	4493
917.826	4527
917.938	4371
918.049	4325
918.161	4497
918.272	4550
918.384	4618
918.495	4462
918.606	4383
918.717	4287
918.828	4394
918.939	4402
919.05	4356
919.161	4371
919.272	4181
919.383	4257
919.494	4512
919.604	4672
919.715	4462
919.826	4394
919.936	4447
920.047	4561
920.157	4550
920.267	4767
920.378	4607
920.488	4531
920.598	4725
920.708	4949
920.818	4820
920.928	4812
921.038	4976
921.148	4995
921.258	4653
921.368	4577
921.477	4523
921.587	4542
921.697	4409
921.806	4588
921.916	4485
922.025	4329
922.134	4303
922.244	4249
922.353	4383
922.462	4265
922.571	4200
922.68	4067
922.789	4021
922.898	4051
923.007	4029
923.116	4101
923.224	4097
923.333	4071
923.442	4013
923.55	4044
923.659	4063
923.767	4150
923.876	4048
923.984	4158
924.092	3994
924.201	4097
924.309	4143
924.417	4207
924.525	4112
924.633	4158
924.741	5124
924.849	3949
924.956	4162
925.064	4006
925.172	3937
925.279	3994
925.387	4112
925.494	4063
925.602	4234
925.709	4249
925.816	4067
925.924	4162
926.031	4211
926.138	4215
926.245	4246
926.352	4135
926.459	4287
926.566	4348
926.673	4215
926.779	4128
926.886	4120
926.993	4021
927.099	4010
927.206	3964
927.312	3998
927.419	4051
927.525	4120
927.631	4097
927.737	4002
927.843	4029
927.95	3896
928.056	3994
928.162	3987
928.267	4090
928.373	4714
928.479	4143
928.585	3926
928.69	4082
928.796	4101
928.901	3998
929.007	3907
929.112	4029
929.218	4074
929.323	3979
929.428	3960
929.533	4162
929.638	3979
929.743	3991
929.848	4093
929.953	4006
930.058	4010
930.163	3797
930.267	3861
930.372	4029
930.477	3835
930.581	4188
930.685	3964
930.79	3869
930.894	3911
930.998	3854
931.103	4105
931.207	3740
931.311	3759
931.415	3682
931.519	3576
931.623	3591
