Data from test_V78500241_1566.txt Node
Date: Fri Mar 25 16:59:53 CST 2022
User: usil
Spectrometer: V785-0024
Trigger mode: 0
Integration Time (sec): 4.000000E-1
Scans to average: 1
Nonlinearity correction enabled: false
Boxcar width: 0
Storing dark spectrum: false
XAxis mode: Wavelengths
Number of Pixels in Spectrum: 1024
>>>>>Begin Spectral Data<<<<<
801.071	7951
801.214	7970
801.356	7913
801.499	7845
801.641	7795
801.783	7807
801.926	7982
802.068	7871
802.211	8065
802.353	7970
802.496	7818
802.638	7792
802.78	7906
802.923	7932
803.065	7852
803.208	7849
803.35	7921
803.492	8054
803.635	8157
803.777	8031
803.919	8244
804.061	8461
804.204	8119
804.346	8073
804.488	7997
804.63	8073
804.773	7997
804.915	8111
805.057	8294
805.199	8149
805.341	8176
805.483	8252
805.626	8210
805.768	8107
805.91	8187
806.052	8206
806.194	8142
806.336	8324
806.478	8069
806.62	8058
806.762	8176
806.904	8271
807.046	8537
807.188	8347
807.33	8252
807.472	8256
807.614	8145
807.756	8077
807.898	8054
808.04	7944
808.182	7947
808.324	7902
808.465	7898
808.607	8077
808.749	8100
808.891	8092
809.033	8366
809.174	8210
809.316	8062
809.458	8062
809.6	8039
809.741	8039
809.883	8050
810.025	8138
810.166	8062
810.308	7963
810.45	7970
810.591	7830
810.733	7712
810.875	7620
811.016	7434
811.158	7514
811.299	7632
811.441	7712
811.582	7738
811.724	7563
811.865	7552
812.007	7586
812.148	7597
812.29	7655
812.431	7784
812.573	7845
812.714	8012
812.855	8161
812.997	8081
813.138	8332
813.279	8180
813.421	8012
813.562	7944
813.703	7864
813.845	7772
813.986	7407
814.127	7194
814.268	7251
814.41	7221
814.551	7137
814.692	7225
814.833	7072
814.974	7110
815.115	7088
815.256	6973
815.397	6962
815.539	6939
815.68	6787
815.821	6738
815.962	6802
816.103	6776
816.244	6684
816.385	6620
816.526	6582
816.666	6509
816.807	6315
816.948	6456
817.089	6407
817.23	6410
817.371	6376
817.512	6357
817.653	6353
817.793	6338
817.934	6369
818.075	6418
818.216	6456
818.356	6418
818.497	6232
818.638	6102
818.778	6197
818.919	6098
819.06	6167
819.2	6273
819.341	6342
819.481	6365
819.622	6513
819.762	6681
819.903	6745
820.043	6559
820.184	6646
820.324	6582
820.465	6768
820.605	6700
820.746	6646
820.886	6498
821.026	6616
821.167	6715
821.307	6760
821.447	6753
821.588	6703
821.728	6597
821.868	6479
822.008	6304
822.149	6323
822.289	6376
822.429	6148
822.569	6003
822.709	6140
822.849	5889
822.99	5893
823.13	5885
823.27	5866
823.41	5764
823.55	5840
823.69	5786
823.83	5756
823.97	5657
824.11	5528
824.25	5474
824.389	5577
824.529	5611
824.669	5493
824.809	5600
824.949	5714
825.089	5562
825.228	5558
825.368	5364
825.508	5364
825.648	5372
825.787	5368
825.927	5379
826.067	5280
826.206	5318
826.346	5414
826.485	5417
826.625	5318
826.765	5543
826.904	5493
827.044	5288
827.183	5155
827.323	5124
827.462	5242
827.601	5140
827.741	5132
827.88	5166
828.02	5102
828.159	5193
828.298	5311
828.437	5353
828.577	5231
828.716	5493
828.855	5345
828.994	5193
829.134	5140
829.273	5124
829.412	5079
829.551	5109
829.69	5151
829.829	5269
829.968	5353
830.107	5288
830.246	5246
830.385	5181
830.524	5166
830.663	5006
830.802	4961
830.941	4919
831.08	4873
831.219	4930
831.357	4915
831.496	5102
831.635	4885
831.774	4820
831.913	4801
832.051	4717
832.19	4694
832.329	4835
832.467	4706
832.606	4634
832.744	4714
832.883	4759
833.022	4706
833.16	4763
833.299	4820
833.437	4831
833.576	4797
833.714	4839
833.852	4915
833.991	4889
834.129	4991
834.267	4946
834.406	4946
834.544	4938
834.682	4911
834.821	4961
834.959	5140
835.097	5010
835.235	5121
835.373	5090
835.511	5041
835.65	5022
835.788	4976
835.926	4854
836.064	4900
836.202	4900
836.34	5109
836.478	5181
836.615	5064
836.753	5204
836.891	5250
837.029	5246
837.167	5185
837.305	5136
837.443	5128
837.58	5079
837.718	5220
837.856	5197
837.993	5121
838.131	5261
838.269	5201
838.406	5143
838.544	5159
838.681	5018
838.819	4976
838.956	4881
839.094	4858
839.231	4995
839.369	5094
839.506	5368
839.643	5242
839.781	5060
839.918	4968
840.055	5075
840.193	5079
840.33	5079
840.467	5102
840.604	5132
840.742	5410
840.879	5079
841.016	5090
841.153	5117
841.29	5341
841.427	5292
841.564	5334
841.701	5398
841.838	5250
841.975	5220
842.112	5280
842.249	5136
842.385	5109
842.522	5330
842.659	5178
842.796	5136
842.933	5212
843.069	5155
843.206	5151
843.343	5261
843.479	5231
843.616	5284
843.752	5041
843.889	4972
844.025	5212
844.162	4980
844.298	5239
844.435	5056
844.571	5067
844.708	5113
844.844	5261
844.98	5315
845.117	5330
845.253	5124
845.389	5075
845.525	5083
845.661	5124
845.798	5048
845.934	5098
846.07	5052
846.206	5204
846.342	5246
846.478	5147
846.614	4953
846.75	4972
846.886	4953
847.022	5086
847.158	5006
847.294	5079
847.429	5109
847.565	5045
847.701	5277
847.837	4866
847.972	4812
848.108	4946
848.244	4889
848.379	4744
848.515	4736
848.65	4679
848.786	4755
848.921	4710
849.057	4824
849.192	4866
849.328	4755
849.463	4854
849.598	4763
849.734	4759
849.869	4694
850.004	4584
850.14	4615
850.275	4573
850.41	4527
850.545	4573
850.68	4630
850.815	4580
850.95	4630
851.085	4820
851.22	4740
851.355	4641
851.49	4558
851.625	4573
851.76	4599
851.895	4565
852.03	4516
852.165	4618
852.299	4729
852.434	4812
852.569	4771
852.703	4774
852.838	4847
852.973	4900
853.107	4877
853.242	4702
853.376	4596
853.511	4561
853.645	4626
853.78	4809
853.914	4679
854.048	4641
854.183	4599
854.317	4721
854.451	4889
854.585	4656
854.72	4641
854.854	4740
854.988	4573
855.122	4649
855.256	4554
855.39	4656
855.524	4790
855.658	4717
855.792	4683
855.926	4740
856.06	4740
856.194	4774
856.327	4698
856.461	4607
856.595	4607
856.729	4618
856.862	4744
856.996	4698
857.13	4771
857.263	4736
857.397	4759
857.53	4580
857.664	4691
857.797	4740
857.931	4725
858.064	4675
858.197	4774
858.331	4683
858.464	4611
858.597	4489
858.731	4649
858.864	4668
858.997	4607
859.13	4634
859.263	4626
859.396	4729
859.529	4584
859.662	4565
859.795	4569
859.928	4592
860.061	4729
860.194	4782
860.327	4611
860.46	4573
860.592	4725
860.725	4645
860.858	4668
860.99	4542
861.123	4497
861.256	4561
861.388	4565
861.521	5204
861.653	4432
861.786	4424
861.918	4428
862.05	4489
862.183	4504
862.315	4599
862.447	4691
862.58	4546
862.712	4390
862.844	4310
862.976	4493
863.108	4470
863.24	4714
863.372	4295
863.504	4363
863.636	4421
863.768	4485
863.9	4413
864.032	4348
864.164	4390
864.296	4466
864.428	4481
864.559	4527
864.691	4508
864.823	4535
864.954	4516
865.086	4493
865.217	4413
865.349	4386
865.48	4459
865.612	4470
865.743	4607
865.875	4459
866.006	4398
866.137	4436
866.269	4447
866.4	4436
866.531	4413
866.662	4318
866.793	4421
866.924	4440
867.055	4462
867.186	4432
867.317	4402
867.448	4352
867.579	4383
867.71	4432
867.841	4383
867.972	4447
868.103	4451
868.233	4402
868.364	4424
868.495	4421
868.625	4698
868.756	4782
868.886	4561
869.017	4615
869.147	4748
869.278	4736
869.408	4637
869.539	4618
869.669	4706
869.799	4599
869.929	4763
870.06	4706
870.19	4938
870.32	4946
870.45	4942
870.58	4976
870.71	5067
870.84	5094
870.97	4927
871.1	4862
871.23	5162
871.36	5102
871.489	5014
871.619	4999
871.749	5090
871.879	5128
872.008	5174
872.138	5006
872.267	4946
872.397	4820
872.526	4771
872.656	4725
872.785	4809
872.915	4900
873.044	5003
873.173	4927
873.303	4968
873.432	4961
873.561	4915
873.69	4847
873.819	4885
873.948	4915
874.077	4797
874.206	4744
874.335	4797
874.464	4934
874.593	5079
874.722	4946
874.851	5117
874.979	5045
875.108	5006
875.237	4885
875.365	4866
875.494	4870
875.623	4930
875.751	4778
875.88	4870
876.008	4885
876.136	5048
876.265	5181
876.393	5334
876.521	5258
876.65	5174
876.778	5174
876.906	5064
877.034	5018
877.162	4991
877.29	5022
877.418	5018
877.546	5052
877.674	5041
877.802	4991
877.93	5025
878.058	4919
878.185	4850
878.313	4976
878.441	4961
878.568	4809
878.696	4828
878.824	4946
878.951	4976
879.079	5090
879.206	5284
879.333	5109
879.461	4968
879.588	4972
879.715	5079
879.842	5178
879.97	4949
880.097	4767
880.224	4763
880.351	4858
880.478	4767
880.605	4805
880.732	4790
880.859	5079
880.986	4870
881.112	4866
881.239	4771
881.366	4626
881.493	4599
881.619	4550
881.746	4645
881.872	4656
881.999	4603
882.125	4672
882.252	4736
882.378	4782
882.505	4923
882.631	4786
882.757	4649
882.883	4725
883.01	4672
883.136	4634
883.262	4569
883.388	4607
883.514	4763
883.64	4877
883.766	4763
883.892	4660
884.018	4691
884.143	4862
884.269	4961
884.395	4641
884.52	4626
884.646	4626
884.772	4565
884.897	4535
885.023	4607
885.148	4782
885.274	4835
885.399	4820
885.524	4725
885.65	4706
885.775	4740
885.9	4675
886.025	4873
886.15	4771
886.275	4744
886.4	4637
886.525	4679
886.65	4630
886.775	4694
886.9	4892
887.025	5064
887.149	4816
887.274	4660
887.399	4603
887.523	4592
887.648	4599
887.773	4592
887.897	4786
888.021	4862
888.146	4637
888.27	4824
888.395	4908
888.519	4824
888.643	4843
888.767	4850
888.891	4691
889.015	4615
889.139	4683
889.263	4668
889.387	4752
889.511	4885
889.635	4759
889.759	4653
889.883	4702
890.006	4816
890.13	4866
890.254	4668
890.377	4675
890.501	4569
890.624	4478
890.748	4714
890.871	4550
890.995	4402
891.118	4455
891.241	4588
891.364	4542
891.488	4683
891.611	4493
891.734	4580
891.857	4603
891.98	4607
892.103	4694
892.226	4618
892.349	4550
892.471	4512
892.594	4592
892.717	4653
892.839	4622
892.962	4641
893.085	4721
893.207	4599
893.33	4485
893.452	4561
893.575	4672
893.697	4596
893.819	4820
893.941	4866
894.064	4801
894.186	4645
894.308	4641
894.43	4736
894.552	4854
894.674	4801
894.796	4596
894.918	4664
895.04	4584
895.161	4763
895.283	4649
895.405	4641
895.526	4664
895.648	4752
895.769	4691
895.891	4725
896.012	4793
896.134	4801
896.255	4687
896.376	4679
896.498	4622
896.619	4675
896.74	4641
896.861	4687
896.982	4942
897.103	5121
897.224	4816
897.345	4793
897.466	4668
897.587	4748
897.708	4866
897.828	4831
897.949	4691
898.07	4618
898.19	4675
898.311	4835
898.431	4710
898.552	4748
898.672	4900
898.792	4809
898.913	4763
899.033	4687
899.153	4542
899.273	4428
899.393	4531
899.513	4603
899.633	4577
899.753	4584
899.873	4535
899.993	4603
900.113	4546
900.232	4615
900.352	4577
900.472	4519
900.591	4432
900.711	4519
900.83	4478
900.95	4641
901.069	4698
901.189	4592
901.308	4379
901.427	4348
901.546	4417
901.665	4489
901.784	4565
901.904	4440
902.023	4352
902.141	4249
902.26	4143
902.379	4337
902.498	4246
902.617	4280
902.735	4424
902.854	4424
902.973	4379
903.091	4227
903.21	4284
903.328	4325
903.446	4280
903.565	4249
903.683	4356
903.801	4322
903.919	4379
904.038	4436
904.156	4299
904.274	4455
904.392	4459
904.51	4466
904.627	4516
904.745	4607
904.863	4637
904.981	4360
905.098	4333
905.216	4390
905.334	4436
905.451	4478
905.569	4459
905.686	4573
905.803	4565
905.921	4481
906.038	4596
906.155	4481
906.272	4447
906.389	4504
906.506	4402
906.623	4413
906.74	4405
906.857	4375
906.974	4405
907.091	4637
907.208	4714
907.324	4580
907.441	4523
907.557	4383
907.674	4348
907.79	4322
907.907	4398
908.023	4561
908.139	4538
908.256	4451
908.372	4497
908.488	4466
908.604	4390
908.72	4375
908.836	4409
908.952	4432
909.068	4432
909.184	4573
909.3	4561
909.415	4649
909.531	4546
909.647	4363
909.762	4402
909.878	4390
909.993	4424
910.108	4504
910.224	4440
910.339	4485
910.454	4459
910.57	4363
910.685	4344
910.8	4694
910.915	4626
911.03	4512
911.145	4379
911.259	4341
911.374	4363
911.489	4325
911.604	4360
911.718	4166
911.833	4280
911.947	4147
912.062	4067
912.176	4207
912.291	4249
912.405	4265
912.519	4489
912.633	4527
912.748	4417
912.862	4325
912.976	4215
913.09	4128
913.204	4223
913.318	4272
913.431	4428
913.545	4451
913.659	4481
913.772	4402
913.886	4238
914	4211
914.113	4421
914.226	4424
914.34	4455
914.453	4287
914.566	4462
914.68	4295
914.793	4344
914.906	4207
915.019	4139
915.132	4097
915.245	4188
915.358	4242
915.47	4280
915.583	4284
915.696	4310
915.809	4462
915.921	4432
916.034	4272
916.146	4284
916.259	4238
916.371	4413
916.483	4379
916.595	4261
916.708	4341
916.82	4344
916.932	4341
917.044	4348
917.156	4333
917.268	4242
917.38	4322
917.491	4341
917.603	4375
917.715	4424
917.826	4440
917.938	4360
918.049	4280
918.161	4409
918.272	4577
918.384	4580
918.495	4451
918.606	4363
918.717	4322
918.828	4337
918.939	4375
919.05	4295
919.161	4371
919.272	4158
919.383	4280
919.494	4493
919.604	4664
919.715	4436
919.826	4337
919.936	4421
920.047	4519
920.157	4489
920.267	4721
920.378	4565
920.488	4542
920.598	4702
920.708	4938
920.818	4748
920.928	4733
921.038	4957
921.148	4968
921.258	4615
921.368	4599
921.477	4497
921.587	4504
921.697	4413
921.806	4527
921.916	4455
922.025	4238
922.134	4272
922.244	4268
922.353	4356
922.462	4188
922.571	4166
922.68	3998
922.789	3975
922.898	4040
923.007	4002
923.116	4105
923.224	4074
923.333	4093
923.442	4006
923.55	4002
923.659	4074
923.767	4093
923.876	4029
923.984	4173
924.092	4036
924.201	4078
924.309	4177
924.417	4135
924.525	4101
924.633	4150
924.741	4858
924.849	3911
924.956	4124
925.064	3998
925.172	3918
925.279	4006
925.387	4044
925.494	4078
925.602	4242
925.709	4234
925.816	3991
925.924	4196
926.031	4261
926.138	4196
926.245	4265
926.352	4124
926.459	4257
926.566	4344
926.673	4192
926.779	4078
926.886	4067
926.993	3964
927.099	4021
927.206	3953
927.312	3956
927.419	4090
927.525	4055
927.631	4097
927.737	3953
927.843	3953
927.95	3873
928.056	3979
928.162	3975
928.267	4063
928.373	4596
928.479	4101
928.585	3896
928.69	4032
928.796	4067
928.901	3983
929.007	3873
929.112	4078
929.218	3975
929.323	3937
929.428	3934
929.533	4135
929.638	3888
929.743	3975
929.848	4048
929.953	3998
930.058	3945
930.163	3835
930.267	3838
930.372	3998
930.477	3816
930.581	4112
930.685	3953
930.79	3854
930.894	3884
930.998	3838
931.103	4063
931.207	3698
931.311	3709
931.415	3701
931.519	3538
931.623	3545
