Data from test_V78500241_1323.txt Node
Date: Fri Mar 25 16:58:12 CST 2022
User: usil
Spectrometer: V785-0024
Trigger mode: 0
Integration Time (sec): 4.000000E-1
Scans to average: 1
Nonlinearity correction enabled: false
Boxcar width: 0
Storing dark spectrum: false
XAxis mode: Wavelengths
Number of Pixels in Spectrum: 1024
>>>>>Begin Spectral Data<<<<<
801.071	7989
801.214	7978
801.356	7883
801.499	7818
801.641	7757
801.783	7807
801.926	7940
802.068	7913
802.211	8024
802.353	7879
802.496	7894
802.638	7807
802.78	7898
802.923	7970
803.065	7868
803.208	7906
803.35	7982
803.492	8050
803.635	8145
803.777	8016
803.919	8084
804.061	8385
804.204	8275
804.346	7986
804.488	7974
804.63	8073
804.773	7997
804.915	8138
805.057	8229
805.199	8153
805.341	8214
805.483	8240
805.626	8202
805.768	8126
805.91	8244
806.052	8214
806.194	8176
806.336	8320
806.478	8134
806.62	8008
806.762	8130
806.904	8233
807.046	8488
807.188	8336
807.33	8259
807.472	8279
807.614	8153
807.756	8145
807.898	8005
808.04	7883
808.182	7864
808.324	7906
808.465	7940
808.607	8069
808.749	8123
808.891	8191
809.033	8294
809.174	8210
809.316	8058
809.458	8077
809.6	7978
809.741	8039
809.883	7982
810.025	8016
810.166	8031
810.308	7978
810.45	7978
810.591	7776
810.733	7731
810.875	7704
811.016	7491
811.158	7480
811.299	7674
811.441	7704
811.582	7670
811.724	7552
811.865	7468
812.007	7556
812.148	7628
812.29	7529
812.431	7693
812.573	7871
812.714	7997
812.855	8043
812.997	8172
813.138	8290
813.279	8259
813.421	8111
813.562	7997
813.703	7849
813.845	7822
813.986	7415
814.127	7259
814.268	7194
814.41	7244
814.551	7168
814.692	7164
814.833	7080
814.974	7038
815.115	7107
815.256	6928
815.397	6943
815.539	6924
815.68	6818
815.821	6818
815.962	6867
816.103	6821
816.244	6749
816.385	6616
816.526	6589
816.666	6513
816.807	6304
816.948	6448
817.089	6494
817.23	6475
817.371	6350
817.512	6437
817.653	6338
817.793	6270
817.934	6429
818.075	6471
818.216	6441
818.356	6445
818.497	6251
818.638	6140
818.778	6144
818.919	6213
819.06	6144
819.2	6285
819.341	6311
819.481	6353
819.622	6528
819.762	6768
819.903	6738
820.043	6639
820.184	6589
820.324	6620
820.465	6669
820.605	6730
820.746	6612
820.886	6506
821.026	6601
821.167	6745
821.307	6764
821.447	6764
821.588	6646
821.728	6494
821.868	6456
822.008	6346
822.149	6380
822.289	6376
822.429	6205
822.569	6087
822.709	6186
822.849	5935
822.99	5889
823.13	5870
823.27	5882
823.41	5764
823.55	5752
823.69	5729
823.83	5786
823.97	5619
824.11	5501
824.25	5463
824.389	5501
824.529	5573
824.669	5448
824.809	5615
824.949	5649
825.089	5653
825.228	5573
825.368	5368
825.508	5337
825.648	5341
825.787	5341
825.927	5406
826.067	5277
826.206	5277
826.346	5391
826.485	5395
826.625	5421
826.765	5509
826.904	5452
827.044	5181
827.183	5181
827.323	5143
827.462	5261
827.601	5193
827.741	5185
827.88	5197
828.02	5159
828.159	5254
828.298	5315
828.437	5387
828.577	5246
828.716	5478
828.855	5353
828.994	5117
829.134	5147
829.273	5151
829.412	5105
829.551	5124
829.69	5098
829.829	5273
829.968	5360
830.107	5280
830.246	5193
830.385	5174
830.524	5064
830.663	5006
830.802	4946
830.941	4881
831.08	4900
831.219	4965
831.357	4968
831.496	5140
831.635	4919
831.774	4805
831.913	4763
832.051	4717
832.19	4740
832.329	4820
832.467	4668
832.606	4599
832.744	4691
832.883	4706
833.022	4714
833.16	4771
833.299	4831
833.437	4736
833.576	4805
833.714	4862
833.852	4835
833.991	4870
834.129	4949
834.267	4938
834.406	4881
834.544	4953
834.682	4968
834.821	4946
834.959	5128
835.097	4995
835.235	5128
835.373	5033
835.511	5056
835.65	4987
835.788	5014
835.926	4877
836.064	4828
836.202	4900
836.34	5143
836.478	5197
836.615	5136
836.753	5197
836.891	5296
837.029	5166
837.167	5140
837.305	5117
837.443	5162
837.58	5075
837.718	5261
837.856	5086
837.993	5098
838.131	5227
838.269	5151
838.406	5235
838.544	5155
838.681	4999
838.819	5010
838.956	4873
839.094	4881
839.231	4927
839.369	5086
839.506	5433
839.643	5254
839.781	5048
839.918	5018
840.055	5086
840.193	5067
840.33	5090
840.467	5113
840.604	5159
840.742	5429
840.879	5052
841.016	5056
841.153	5128
841.29	5349
841.427	5330
841.564	5345
841.701	5383
841.838	5227
841.975	5235
842.112	5212
842.249	5117
842.385	5098
842.522	5357
842.659	5189
842.796	5147
842.933	5212
843.069	5136
843.206	5147
843.343	5311
843.479	5235
843.616	5250
843.752	5052
843.889	5018
844.025	5193
844.162	5010
844.298	5231
844.435	5075
844.571	4991
844.708	5166
844.844	5280
844.98	5299
845.117	5315
845.253	5102
845.389	5094
845.525	5147
845.661	5105
845.798	5064
845.934	5124
846.07	5060
846.206	5178
846.342	5231
846.478	5174
846.614	5033
846.75	4923
846.886	4946
847.022	5166
847.158	5018
847.294	5033
847.429	5128
847.565	5037
847.701	5334
847.837	4877
847.972	4824
848.108	4980
848.244	4957
848.379	4786
848.515	4714
848.65	4702
848.786	4710
848.921	4748
849.057	4786
849.192	4881
849.328	4812
849.463	4809
849.598	4816
849.734	4797
849.869	4675
850.004	4596
850.14	4615
850.275	4596
850.41	4573
850.545	4546
850.68	4519
850.815	4580
850.95	4588
851.085	4831
851.22	4748
851.355	4653
851.49	4615
851.625	4603
851.76	4630
851.895	4512
852.03	4519
852.165	4653
852.299	4675
852.434	4786
852.569	4812
852.703	4778
852.838	4759
852.973	4965
853.107	4927
853.242	4752
853.376	4679
853.511	4542
853.645	4611
853.78	4797
853.914	4702
854.048	4656
854.183	4626
854.317	4679
854.451	4816
854.585	4668
854.72	4596
854.854	4736
854.988	4645
855.122	4599
855.256	4565
855.39	4607
855.524	4752
855.658	4752
855.792	4710
855.926	4733
856.06	4687
856.194	4786
856.327	4649
856.461	4626
856.595	4626
856.729	4592
856.862	4771
856.996	4668
857.13	4702
857.263	4736
857.397	4748
857.53	4634
857.664	4653
857.797	4744
857.931	4759
858.064	4664
858.197	4706
858.331	4656
858.464	4618
858.597	4527
858.731	4634
858.864	4622
858.997	4599
859.13	4618
859.263	4683
859.396	4672
859.529	4554
859.662	4535
859.795	4538
859.928	4672
860.061	4725
860.194	4748
860.327	4565
860.46	4554
860.592	4615
860.725	4683
860.858	4679
860.99	4573
861.123	4558
861.256	4462
861.388	4622
861.521	5124
861.653	4443
861.786	4447
861.918	4424
862.05	4500
862.183	4558
862.315	4592
862.447	4618
862.58	4512
862.712	4394
862.844	4337
862.976	4497
863.108	4474
863.24	4831
863.372	4352
863.504	4405
863.636	4417
863.768	4470
863.9	4440
864.032	4390
864.164	4436
864.296	4455
864.428	4527
864.559	4554
864.691	4508
864.823	4508
864.954	4466
865.086	4527
865.217	4500
865.349	4409
865.48	4417
865.612	4462
865.743	4569
865.875	4451
866.006	4432
866.137	4451
866.269	4428
866.4	4470
866.531	4360
866.662	4405
866.793	4390
866.924	4440
867.055	4493
867.186	4470
867.317	4413
867.448	4352
867.579	4398
867.71	4383
867.841	4371
867.972	4443
868.103	4424
868.233	4455
868.364	4394
868.495	4462
868.625	4702
868.756	4748
868.886	4516
869.017	4630
869.147	4771
869.278	4778
869.408	4615
869.539	4573
869.669	4679
869.799	4691
869.929	4755
870.06	4725
870.19	4961
870.32	4892
870.45	4965
870.58	4987
870.71	5079
870.84	5041
870.97	4961
871.1	4904
871.23	5128
871.36	5098
871.489	5022
871.619	5090
871.749	5048
871.879	5132
872.008	5128
872.138	5105
872.267	4984
872.397	4831
872.526	4812
872.656	4714
872.785	4816
872.915	4946
873.044	5018
873.173	4938
873.303	5010
873.432	4972
873.561	4942
873.69	4908
873.819	4870
873.948	4881
874.077	4774
874.206	4717
874.335	4805
874.464	4923
874.593	5006
874.722	4915
874.851	5147
874.979	5060
875.108	5079
875.237	5003
875.365	4854
875.494	4877
875.623	5003
875.751	4839
875.88	4915
876.008	4965
876.136	5041
876.265	5166
876.393	5307
876.521	5280
876.65	5235
876.778	5166
876.906	5083
877.034	5006
877.162	5029
877.29	4976
877.418	5037
877.546	5056
877.674	5029
877.802	4957
877.93	4995
878.058	4946
878.185	4858
878.313	4930
878.441	4908
878.568	4801
878.696	4828
878.824	4957
878.951	4991
879.079	5094
879.206	5292
879.333	5124
879.461	5022
879.588	4968
879.715	5109
879.842	5204
879.97	4968
880.097	4744
880.224	4752
880.351	4774
880.478	4824
880.605	4805
880.732	4786
880.859	5083
880.986	4892
881.112	4908
881.239	4740
881.366	4710
881.493	4550
881.619	4577
881.746	4660
881.872	4664
881.999	4656
882.125	4672
882.252	4778
882.378	4866
882.505	4972
882.631	4793
882.757	4641
882.883	4740
883.01	4759
883.136	4721
883.262	4592
883.388	4584
883.514	4824
883.64	4824
883.766	4809
883.892	4694
884.018	4729
884.143	4850
884.269	4991
884.395	4706
884.52	4573
884.646	4675
884.772	4615
884.897	4538
885.023	4645
885.148	4778
885.274	4858
885.399	4786
885.524	4744
885.65	4698
885.775	4714
885.9	4683
886.025	4858
886.15	4767
886.275	4729
886.4	4683
886.525	4641
886.65	4687
886.775	4683
886.9	4885
887.025	5033
887.149	4790
887.274	4637
887.399	4603
887.523	4577
887.648	4538
887.773	4569
887.897	4752
888.021	4790
888.146	4637
888.27	4828
888.395	4900
888.519	4763
888.643	4748
888.767	4850
888.891	4672
889.015	4611
889.139	4668
889.263	4577
889.387	4763
889.511	4831
889.635	4786
889.759	4649
889.883	4649
890.006	4725
890.13	4797
890.254	4580
890.377	4637
890.501	4519
890.624	4516
890.748	4630
890.871	4573
890.995	4428
891.118	4394
891.241	4489
891.364	4535
891.488	4607
891.611	4527
891.734	4550
891.857	4580
891.98	4550
892.103	4691
892.226	4588
892.349	4508
892.471	4386
892.594	4512
892.717	4584
892.839	4527
892.962	4569
893.085	4660
893.207	4584
893.33	4447
893.452	4485
893.575	4664
893.697	4573
893.819	4782
893.941	4839
894.064	4793
894.186	4584
894.308	4561
894.43	4736
894.552	4824
894.674	4767
894.796	4565
894.918	4596
895.04	4561
895.161	4714
895.283	4672
895.405	4607
895.526	4634
895.648	4653
895.769	4660
895.891	4729
896.012	4733
896.134	4664
896.255	4660
896.376	4565
896.498	4637
896.619	4698
896.74	4611
896.861	4611
896.982	4934
897.103	5094
897.224	4847
897.345	4820
897.466	4675
897.587	4721
897.708	4843
897.828	4771
897.949	4721
898.07	4531
898.19	4626
898.311	4778
898.431	4679
898.552	4668
898.672	4774
898.792	4782
898.913	4744
899.033	4588
899.153	4527
899.273	4436
899.393	4512
899.513	4504
899.633	4489
899.753	4508
899.873	4531
899.993	4588
900.113	4531
900.232	4577
900.352	4516
900.472	4417
900.591	4386
900.711	4504
900.83	4424
900.95	4615
901.069	4691
901.189	4504
901.308	4421
901.427	4322
901.546	4417
901.665	4462
901.784	4462
901.904	4402
902.023	4318
902.141	4196
902.26	4181
902.379	4310
902.498	4227
902.617	4207
902.735	4310
902.854	4390
902.973	4325
903.091	4185
903.21	4249
903.328	4280
903.446	4261
903.565	4242
903.683	4367
903.801	4322
903.919	4424
904.038	4383
904.156	4299
904.274	4398
904.392	4386
904.51	4424
904.627	4428
904.745	4538
904.863	4618
904.981	4379
905.098	4299
905.216	4375
905.334	4428
905.451	4405
905.569	4436
905.686	4554
905.803	4584
905.921	4398
906.038	4497
906.155	4497
906.272	4394
906.389	4440
906.506	4299
906.623	4333
906.74	4348
906.857	4249
906.974	4360
907.091	4527
907.208	4683
907.324	4577
907.441	4497
907.557	4348
907.674	4360
907.79	4322
907.907	4417
908.023	4443
908.139	4451
908.256	4436
908.372	4440
908.488	4489
908.604	4325
908.72	4299
908.836	4367
908.952	4390
909.068	4360
909.184	4577
909.3	4489
909.415	4569
909.531	4523
909.647	4333
909.762	4356
909.878	4356
909.993	4394
910.108	4383
910.224	4428
910.339	4478
910.454	4402
910.57	4375
910.685	4295
910.8	4622
910.915	4577
911.03	4481
911.145	4348
911.259	4325
911.374	4371
911.489	4306
911.604	4246
911.718	4158
911.833	4158
911.947	4051
912.062	4017
912.176	4242
912.291	4234
912.405	4257
912.519	4432
912.633	4497
912.748	4379
912.862	4295
912.976	4261
913.09	4101
913.204	4185
913.318	4207
913.431	4356
913.545	4363
913.659	4402
913.772	4360
913.886	4303
914	4249
914.113	4379
914.226	4455
914.34	4402
914.453	4181
914.566	4436
914.68	4291
914.793	4299
914.906	4124
915.019	4139
915.132	4036
915.245	4162
915.358	4223
915.47	4181
915.583	4249
915.696	4322
915.809	4421
915.921	4432
916.034	4257
916.146	4306
916.259	4230
916.371	4363
916.483	4318
916.595	4234
916.708	4310
916.82	4306
916.932	4318
917.044	4310
917.156	4314
917.268	4261
917.38	4261
917.491	4253
917.603	4325
917.715	4466
917.826	4474
917.938	4325
918.049	4227
918.161	4394
918.272	4485
918.384	4542
918.495	4413
918.606	4268
918.717	4215
918.828	4314
918.939	4310
919.05	4196
919.161	4318
919.272	4158
919.383	4230
919.494	4462
919.604	4622
919.715	4398
919.826	4356
919.936	4409
920.047	4485
920.157	4443
920.267	4687
920.378	4538
920.488	4493
920.598	4694
920.708	4870
920.818	4809
920.928	4809
921.038	4930
921.148	4949
921.258	4637
921.368	4592
921.477	4485
921.587	4481
921.697	4348
921.806	4485
921.916	4443
922.025	4253
922.134	4246
922.244	4223
922.353	4333
922.462	4169
922.571	4109
922.68	3983
922.789	3922
922.898	4051
923.007	4048
923.116	4093
923.224	4029
923.333	4071
923.442	4013
923.55	3934
923.659	4010
923.767	4071
923.876	3987
923.984	4112
924.092	3956
924.201	4071
924.309	4124
924.417	4120
924.525	4029
924.633	4040
924.741	5037
924.849	3907
924.956	4128
925.064	3941
925.172	3884
925.279	3968
925.387	4055
925.494	4032
925.602	4238
925.709	4135
925.816	4029
925.924	4090
926.031	4211
926.138	4169
926.245	4192
926.352	4032
926.459	4318
926.566	4295
926.673	4192
926.779	4067
926.886	4071
926.993	3987
927.099	3918
927.206	3956
927.312	3972
927.419	4055
927.525	4010
927.631	4128
927.737	3975
927.843	3953
927.95	3793
928.056	3934
928.162	4006
928.267	4025
928.373	4641
928.479	4109
928.585	3880
928.69	4051
928.796	4040
928.901	3968
929.007	3804
929.112	3934
929.218	4010
929.323	3918
929.428	3941
929.533	4120
929.638	3922
929.743	3934
929.848	4010
929.953	4032
930.058	3964
930.163	3747
930.267	3816
930.372	3987
930.477	3800
930.581	4074
930.685	3945
930.79	3797
930.894	3899
930.998	3808
931.103	4059
931.207	3698
931.311	3686
931.415	3690
931.519	3534
931.623	3572
