Data from test_V78500241_309.txt Node
Date: Fri Mar 25 16:51:09 CST 2022
User: usil
Spectrometer: V785-0024
Trigger mode: 0
Integration Time (sec): 4.000000E-1
Scans to average: 1
Nonlinearity correction enabled: false
Boxcar width: 0
Storing dark spectrum: false
XAxis mode: Wavelengths
Number of Pixels in Spectrum: 1024
>>>>>Begin Spectral Data<<<<<
801.071	8058
801.214	8001
801.356	7909
801.499	7879
801.641	7788
801.783	7860
801.926	7997
802.068	7909
802.211	7963
802.353	7967
802.496	7852
802.638	7959
802.78	7932
802.923	7940
803.065	7902
803.208	7841
803.35	7997
803.492	8035
803.635	8176
803.777	7993
803.919	8157
804.061	8461
804.204	8153
804.346	7970
804.488	7982
804.63	8069
804.773	8058
804.915	8058
805.057	8263
805.199	8225
805.341	8271
805.483	8263
805.626	8218
805.768	8088
805.91	8103
806.052	8161
806.194	8096
806.336	8309
806.478	8183
806.62	8103
806.762	8187
806.904	8259
807.046	8415
807.188	8362
807.33	8263
807.472	8324
807.614	8107
807.756	8161
807.898	7989
808.04	7769
808.182	7951
808.324	7947
808.465	8008
808.607	8111
808.749	8191
808.891	8221
809.033	8248
809.174	8168
809.316	8012
809.458	8088
809.6	8084
809.741	8020
809.883	8065
810.025	8096
810.166	8119
810.308	8077
810.45	8100
810.591	7944
810.733	7830
810.875	7719
811.016	7544
811.158	7468
811.299	7628
811.441	7849
811.582	7704
811.724	7575
811.865	7582
812.007	7666
812.148	7636
812.29	7681
812.431	7765
812.573	7928
812.714	8058
812.855	8138
812.997	8202
813.138	8279
813.279	8233
813.421	8199
813.562	8031
813.703	7928
813.845	7837
813.986	7491
814.127	7339
814.268	7305
814.41	7305
814.551	7206
814.692	7240
814.833	7114
814.974	7126
815.115	7080
815.256	6966
815.397	6882
815.539	6977
815.68	6810
815.821	6806
815.962	6920
816.103	6859
816.244	6810
816.385	6692
816.526	6654
816.666	6601
816.807	6365
816.948	6460
817.089	6483
817.23	6494
817.371	6437
817.512	6429
817.653	6399
817.793	6399
817.934	6467
818.075	6498
818.216	6540
818.356	6452
818.497	6277
818.638	6205
818.778	6182
818.919	6209
819.06	6216
819.2	6365
819.341	6308
819.481	6384
819.622	6585
819.762	6772
819.903	6753
820.043	6642
820.184	6612
820.324	6593
820.465	6711
820.605	6677
820.746	6566
820.886	6566
821.026	6703
821.167	6734
821.307	6837
821.447	6810
821.588	6639
821.728	6639
821.868	6452
822.008	6361
822.149	6422
822.289	6384
822.429	6254
822.569	6140
822.709	6175
822.849	5923
822.99	5946
823.13	5984
823.27	5954
823.41	5794
823.55	5844
823.69	5824
823.83	5836
823.97	5707
824.11	5611
824.25	5554
824.389	5570
824.529	5638
824.669	5615
824.809	5642
824.949	5710
825.089	5642
825.228	5589
825.368	5406
825.508	5402
825.648	5410
825.787	5421
825.927	5372
826.067	5345
826.206	5372
826.346	5406
826.485	5417
826.625	5421
826.765	5547
826.904	5501
827.044	5296
827.183	5269
827.323	5181
827.462	5246
827.601	5208
827.741	5201
827.88	5216
828.02	5105
828.159	5227
828.298	5330
828.437	5414
828.577	5292
828.716	5482
828.855	5364
828.994	5208
829.134	5181
829.273	5166
829.412	5208
829.551	5166
829.69	5181
829.829	5299
829.968	5402
830.107	5250
830.246	5311
830.385	5208
830.524	5174
830.663	5071
830.802	4980
830.941	4949
831.08	4911
831.219	5045
831.357	5010
831.496	5189
831.635	4927
831.774	4835
831.913	4911
832.051	4748
832.19	4812
832.329	4862
832.467	4740
832.606	4664
832.744	4771
832.883	4752
833.022	4759
833.16	4843
833.299	4862
833.437	4801
833.576	4843
833.714	4873
833.852	4908
833.991	4991
834.129	4942
834.267	4976
834.406	4930
834.544	4995
834.682	4980
834.821	5014
834.959	5216
835.097	5052
835.235	5170
835.373	5052
835.511	5121
835.65	5079
835.788	5067
835.926	4927
836.064	4930
836.202	4946
836.34	5261
836.478	5296
836.615	5147
836.753	5250
836.891	5292
837.029	5318
837.167	5235
837.305	5185
837.443	5185
837.58	5128
837.718	5299
837.856	5239
837.993	5201
838.131	5288
838.269	5227
838.406	5303
838.544	5185
838.681	5064
838.819	5048
838.956	4870
839.094	4972
839.231	5022
839.369	5079
839.506	5421
839.643	5311
839.781	5121
839.918	5037
840.055	5128
840.193	5181
840.33	5124
840.467	5162
840.604	5193
840.742	5482
840.879	5090
841.016	5102
841.153	5170
841.29	5421
841.427	5391
841.564	5372
841.701	5387
841.838	5322
841.975	5265
842.112	5307
842.249	5178
842.385	5143
842.522	5398
842.659	5239
842.796	5193
842.933	5220
843.069	5197
843.206	5189
843.343	5303
843.479	5250
843.616	5315
843.752	5067
843.889	5041
844.025	5269
844.162	5056
844.298	5197
844.435	5143
844.571	5064
844.708	5197
844.844	5330
844.98	5414
845.117	5349
845.253	5197
845.389	5136
845.525	5121
845.661	5189
845.798	5079
845.934	5124
846.07	5094
846.206	5193
846.342	5318
846.478	5235
846.614	5003
846.75	4987
846.886	5033
847.022	5166
847.158	4995
847.294	5086
847.429	5147
847.565	5079
847.701	5387
847.837	4900
847.972	4862
848.108	5025
848.244	4965
848.379	4866
848.515	4683
848.65	4736
848.786	4744
848.921	4843
849.057	4911
849.192	4957
849.328	4854
849.463	4847
849.598	4797
849.734	4816
849.869	4733
850.004	4668
850.14	4694
850.275	4679
850.41	4542
850.545	4603
850.68	4615
850.815	4645
850.95	4637
851.085	4896
851.22	4763
851.355	4702
851.49	4683
851.625	4641
851.76	4687
851.895	4550
852.03	4592
852.165	4664
852.299	4755
852.434	4793
852.569	4824
852.703	4778
852.838	4873
852.973	5010
853.107	4949
853.242	4793
853.376	4744
853.511	4611
853.645	4626
853.78	4866
853.914	4721
854.048	4641
854.183	4679
854.317	4717
854.451	4858
854.585	4714
854.72	4672
854.854	4828
854.988	4603
855.122	4637
855.256	4554
855.39	4725
855.524	4850
855.658	4733
855.792	4714
855.926	4759
856.06	4786
856.194	4805
856.327	4725
856.461	4637
856.595	4634
856.729	4641
856.862	4778
856.996	4714
857.13	4771
857.263	4801
857.397	4820
857.53	4664
857.664	4774
857.797	4725
857.931	4835
858.064	4710
858.197	4733
858.331	4664
858.464	4637
858.597	4561
858.731	4641
858.864	4626
858.997	4615
859.13	4698
859.263	4683
859.396	4710
859.529	4603
859.662	4630
859.795	4580
859.928	4656
860.061	4778
860.194	4767
860.327	4660
860.46	4588
860.592	4744
860.725	4698
860.858	4771
860.99	4618
861.123	4516
861.256	4504
861.388	4618
861.521	5337
861.653	4481
861.786	4512
861.918	4508
862.05	4519
862.183	4645
862.315	4561
862.447	4649
862.58	4584
862.712	4424
862.844	4318
862.976	4466
863.108	4485
863.24	4892
863.372	4356
863.504	4451
863.636	4478
863.768	4512
863.9	4455
864.032	4409
864.164	4386
864.296	4493
864.428	4599
864.559	4546
864.691	4569
864.823	4527
864.954	4512
865.086	4550
865.217	4474
865.349	4440
865.48	4474
865.612	4535
865.743	4630
865.875	4455
866.006	4455
866.137	4466
866.269	4462
866.4	4455
866.531	4436
866.662	4447
866.793	4428
866.924	4424
867.055	4577
867.186	4500
867.317	4466
867.448	4398
867.579	4398
867.71	4402
867.841	4394
867.972	4478
868.103	4481
868.233	4462
868.364	4462
868.495	4508
868.625	4687
868.756	4763
868.886	4546
869.017	4634
869.147	4759
869.278	4767
869.408	4683
869.539	4618
869.669	4774
869.799	4645
869.929	4771
870.06	4812
870.19	4984
870.32	4995
870.45	4991
870.58	5064
870.71	5121
870.84	5113
870.97	4968
871.1	4923
871.23	5235
871.36	5189
871.489	5071
871.619	5132
871.749	5090
871.879	5174
872.008	5185
872.138	5109
872.267	4953
872.397	4889
872.526	4858
872.656	4740
872.785	4752
872.915	4927
873.044	5041
873.173	4976
873.303	4965
873.432	4961
873.561	4980
873.69	4889
873.819	4919
873.948	4923
874.077	4858
874.206	4755
874.335	4771
874.464	4972
874.593	5075
874.722	4949
874.851	5105
874.979	5052
875.108	4999
875.237	4953
875.365	4896
875.494	4870
875.623	4984
875.751	4854
875.88	4831
876.008	4987
876.136	5060
876.265	5208
876.393	5357
876.521	5246
876.65	5201
876.778	5094
876.906	5136
877.034	5025
877.162	5098
877.29	4999
877.418	5071
877.546	5071
877.674	5094
877.802	5025
877.93	5014
878.058	4911
878.185	4889
878.313	5003
878.441	4892
878.568	4866
878.696	4923
878.824	5029
878.951	4995
879.079	5132
879.206	5311
879.333	5174
879.461	5014
879.588	5033
879.715	5166
879.842	5311
879.97	5033
880.097	4885
880.224	4812
880.351	4824
880.478	4862
880.605	4831
880.732	4850
880.859	5132
880.986	4927
881.112	4949
881.239	4854
881.366	4733
881.493	4645
881.619	4645
881.746	4691
881.872	4694
881.999	4679
882.125	4706
882.252	4881
882.378	4847
882.505	5025
882.631	4839
882.757	4748
882.883	4801
883.01	4828
883.136	4717
883.262	4641
883.388	4698
883.514	4938
883.64	4892
883.766	4870
883.892	4698
884.018	4782
884.143	4995
884.269	5090
884.395	4786
884.52	4637
884.646	4767
884.772	4634
884.897	4565
885.023	4748
885.148	4881
885.274	4938
885.399	4839
885.524	4748
885.65	4729
885.775	4835
885.9	4763
886.025	4911
886.15	4858
886.275	4755
886.4	4641
886.525	4771
886.65	4782
886.775	4710
886.9	5006
887.025	5098
887.149	4843
887.274	4687
887.399	4634
887.523	4664
887.648	4634
887.773	4637
887.897	4767
888.021	4809
888.146	4767
888.27	4858
888.395	4934
888.519	4820
888.643	4862
888.767	4930
888.891	4740
889.015	4649
889.139	4721
889.263	4588
889.387	4767
889.511	4930
889.635	4835
889.759	4672
889.883	4710
890.006	4805
890.13	4892
890.254	4679
890.377	4698
890.501	4596
890.624	4588
890.748	4675
890.871	4573
890.995	4542
891.118	4459
891.241	4527
891.364	4565
891.488	4710
891.611	4615
891.734	4573
891.857	4664
891.98	4630
892.103	4683
892.226	4626
892.349	4599
892.471	4485
892.594	4531
892.717	4615
892.839	4630
892.962	4622
893.085	4729
893.207	4656
893.33	4538
893.452	4596
893.575	4721
893.697	4618
893.819	4870
893.941	4889
894.064	4820
894.186	4641
894.308	4634
894.43	4767
894.552	4816
894.674	4812
894.796	4558
894.918	4668
895.04	4611
895.161	4786
895.283	4698
895.405	4634
895.526	4694
895.648	4694
895.769	4691
895.891	4782
896.012	4816
896.134	4774
896.255	4702
896.376	4649
896.498	4691
896.619	4725
896.74	4653
896.861	4698
896.982	4995
897.103	5124
897.224	4858
897.345	4793
897.466	4694
897.587	4740
897.708	4904
897.828	4873
897.949	4733
898.07	4599
898.19	4645
898.311	4892
898.431	4725
898.552	4816
898.672	4828
898.792	4824
898.913	4717
899.033	4637
899.153	4584
899.273	4462
899.393	4550
899.513	4531
899.633	4538
899.753	4611
899.873	4516
899.993	4630
900.113	4588
900.232	4615
900.352	4558
900.472	4531
900.591	4474
900.711	4516
900.83	4474
900.95	4679
901.069	4710
901.189	4550
901.308	4432
901.427	4322
901.546	4436
901.665	4508
901.784	4535
901.904	4417
902.023	4398
902.141	4238
902.26	4169
902.379	4360
902.498	4310
902.617	4238
902.735	4443
902.854	4421
902.973	4348
903.091	4204
903.21	4306
903.328	4287
903.446	4280
903.565	4287
903.683	4356
903.801	4363
903.919	4436
904.038	4481
904.156	4348
904.274	4459
904.392	4466
904.51	4451
904.627	4508
904.745	4615
904.863	4668
904.981	4470
905.098	4341
905.216	4344
905.334	4447
905.451	4451
905.569	4489
905.686	4599
905.803	4630
905.921	4462
906.038	4554
906.155	4500
906.272	4485
906.389	4489
906.506	4383
906.623	4375
906.74	4409
906.857	4348
906.974	4424
907.091	4596
907.208	4698
907.324	4580
907.441	4592
907.557	4436
907.674	4398
907.79	4383
907.907	4417
908.023	4558
908.139	4474
908.256	4443
908.372	4516
908.488	4478
908.604	4451
908.72	4379
908.836	4443
908.952	4424
909.068	4470
909.184	4641
909.3	4489
909.415	4611
909.531	4588
909.647	4394
909.762	4409
909.878	4360
909.993	4462
910.108	4455
910.224	4455
910.339	4504
910.454	4436
910.57	4398
910.685	4367
910.8	4687
910.915	4634
911.03	4554
911.145	4398
911.259	4371
911.374	4424
911.489	4322
911.604	4303
911.718	4204
911.833	4196
911.947	4128
912.062	4067
912.176	4253
912.291	4268
912.405	4337
912.519	4478
912.633	4554
912.748	4405
912.862	4390
912.976	4242
913.09	4116
913.204	4230
913.318	4303
913.431	4329
913.545	4390
913.659	4489
913.772	4375
913.886	4306
914	4238
914.113	4440
914.226	4497
914.34	4470
914.453	4295
914.566	4489
914.68	4356
914.793	4371
914.906	4166
915.019	4166
915.132	4093
915.245	4207
915.358	4261
915.47	4287
915.583	4261
915.696	4386
915.809	4432
915.921	4455
916.034	4287
916.146	4196
916.259	4287
916.371	4432
916.483	4367
916.595	4284
916.708	4337
916.82	4390
916.932	4360
917.044	4383
917.156	4344
917.268	4249
917.38	4329
917.491	4333
917.603	4375
917.715	4500
917.826	4485
917.938	4398
918.049	4249
918.161	4417
918.272	4561
918.384	4580
918.495	4516
918.606	4341
918.717	4284
918.828	4375
918.939	4367
919.05	4306
919.161	4356
919.272	4169
919.383	4268
919.494	4436
919.604	4645
919.715	4466
919.826	4462
919.936	4413
920.047	4573
920.157	4542
920.267	4755
920.378	4588
920.488	4531
920.598	4786
920.708	4915
920.818	4755
920.928	4801
921.038	5014
921.148	5014
921.258	4679
921.368	4607
921.477	4512
921.587	4466
921.697	4402
921.806	4554
921.916	4489
922.025	4272
922.134	4322
922.244	4257
922.353	4390
922.462	4196
922.571	4131
922.68	4044
922.789	4006
922.898	4093
923.007	4044
923.116	4143
923.224	4040
923.333	4109
923.442	4002
923.55	3987
923.659	4051
923.767	4124
923.876	4040
923.984	4139
924.092	4055
924.201	4109
924.309	4097
924.417	4147
924.525	4059
924.633	4154
924.741	4946
924.849	3907
924.956	4116
925.064	4032
925.172	3930
925.279	3972
925.387	4090
925.494	4082
925.602	4223
925.709	4234
925.816	4040
925.924	4207
926.031	4204
926.138	4173
926.245	4223
926.352	4139
926.459	4242
926.566	4348
926.673	4196
926.779	4093
926.886	4071
926.993	3994
927.099	4002
927.206	4002
927.312	3960
927.419	4044
927.525	4029
927.631	4162
927.737	4032
927.843	3994
927.95	3884
928.056	4013
928.162	4013
928.267	4055
928.373	4748
928.479	4128
928.585	3896
928.69	4051
928.796	4116
928.901	4036
929.007	3876
929.112	4036
929.218	3964
929.323	3964
929.428	3979
929.533	4150
929.638	3899
929.743	4013
929.848	4010
929.953	4036
930.058	3964
930.163	3789
930.267	3876
930.372	4013
930.477	3823
930.581	4116
930.685	3972
930.79	3854
930.894	3907
930.998	3888
931.103	4025
931.207	3713
931.311	3720
931.415	3671
931.519	3564
931.623	3587
