Data from test_V78500241_1102.txt Node
Date: Fri Mar 25 16:56:39 CST 2022
User: usil
Spectrometer: V785-0024
Trigger mode: 0
Integration Time (sec): 4.000000E-1
Scans to average: 1
Nonlinearity correction enabled: false
Boxcar width: 0
Storing dark spectrum: false
XAxis mode: Wavelengths
Number of Pixels in Spectrum: 1024
>>>>>Begin Spectral Data<<<<<
801.071	8062
801.214	8081
801.356	7944
801.499	7845
801.641	7784
801.783	7738
801.926	7959
802.068	7879
802.211	7944
802.353	7982
802.496	7780
802.638	7807
802.78	7879
802.923	7970
803.065	7864
803.208	7947
803.35	7989
803.492	8100
803.635	8115
803.777	7928
803.919	8149
804.061	8503
804.204	8176
804.346	8084
804.488	7947
804.63	8134
804.773	7944
804.915	8088
805.057	8221
805.199	8111
805.341	8248
805.483	8187
805.626	8172
805.768	8062
805.91	8168
806.052	8176
806.194	8046
806.336	8328
806.478	8073
806.62	8092
806.762	8096
806.904	8259
807.046	8446
807.188	8286
807.33	8267
807.472	8298
807.614	8142
807.756	8123
807.898	8001
808.04	7837
808.182	7913
808.324	7852
808.465	7898
808.607	8031
808.749	8153
808.891	8221
809.033	8282
809.174	8183
809.316	7986
809.458	8039
809.6	8012
809.741	8001
809.883	8008
810.025	8012
810.166	7989
810.308	8107
810.45	8020
810.591	7860
810.733	7738
810.875	7571
811.016	7480
811.158	7544
811.299	7544
811.441	7666
811.582	7708
811.724	7594
811.865	7575
812.007	7529
812.148	7578
812.29	7643
812.431	7738
812.573	7772
812.714	7944
812.855	8088
812.997	8202
813.138	8248
813.279	8210
813.421	8096
813.562	8012
813.703	7814
813.845	7761
813.986	7464
814.127	7240
814.268	7179
814.41	7145
814.551	7187
814.692	7110
814.833	7050
814.974	7061
815.115	7053
815.256	6920
815.397	6932
815.539	6916
815.68	6779
815.821	6783
815.962	6878
816.103	6798
816.244	6719
816.385	6627
816.526	6601
816.666	6540
816.807	6285
816.948	6399
817.089	6426
817.23	6410
817.371	6376
817.512	6418
817.653	6441
817.793	6319
817.934	6319
818.075	6506
818.216	6422
818.356	6380
818.497	6243
818.638	6129
818.778	6098
818.919	6102
819.06	6205
819.2	6311
819.341	6353
819.481	6365
819.622	6471
819.762	6749
819.903	6703
820.043	6578
820.184	6578
820.324	6570
820.465	6673
820.605	6662
820.746	6536
820.886	6532
821.026	6658
821.167	6681
821.307	6802
821.447	6696
821.588	6650
821.728	6509
821.868	6490
822.008	6327
822.149	6323
822.289	6334
822.429	6136
822.569	6087
822.709	6110
822.849	5901
822.99	5920
823.13	5923
823.27	5927
823.41	5771
823.55	5760
823.69	5748
823.83	5688
823.97	5688
824.11	5566
824.25	5501
824.389	5551
824.529	5543
824.669	5459
824.809	5642
824.949	5604
825.089	5627
825.228	5512
825.368	5379
825.508	5307
825.648	5345
825.787	5357
825.927	5360
826.067	5303
826.206	5273
826.346	5402
826.485	5387
826.625	5364
826.765	5512
826.904	5410
827.044	5231
827.183	5185
827.323	5090
827.462	5201
827.601	5162
827.741	5128
827.88	5242
828.02	5147
828.159	5197
828.298	5292
828.437	5353
828.577	5280
828.716	5444
828.855	5353
828.994	5162
829.134	5185
829.273	5143
829.412	5132
829.551	5143
829.69	5181
829.829	5178
829.968	5379
830.107	5193
830.246	5250
830.385	5166
830.524	5143
830.663	5045
830.802	4942
830.941	4862
831.08	4862
831.219	4953
831.357	4972
831.496	5140
831.635	4881
831.774	4812
831.913	4839
832.051	4683
832.19	4679
832.329	4824
832.467	4637
832.606	4603
832.744	4744
832.883	4748
833.022	4694
833.16	4763
833.299	4797
833.437	4831
833.576	4797
833.714	4866
833.852	4839
833.991	4892
834.129	4961
834.267	4911
834.406	4915
834.544	4953
834.682	4953
834.821	4984
834.959	5147
835.097	4961
835.235	5098
835.373	5060
835.511	5071
835.65	5018
835.788	5018
835.926	4881
836.064	4862
836.202	4862
836.34	5102
836.478	5258
836.615	5102
836.753	5212
836.891	5307
837.029	5220
837.167	5216
837.305	5181
837.443	5159
837.58	5064
837.718	5235
837.856	5147
837.993	5128
838.131	5159
838.269	5174
838.406	5178
838.544	5117
838.681	5052
838.819	4946
838.956	4885
839.094	4873
839.231	4972
839.369	5121
839.506	5455
839.643	5208
839.781	5041
839.918	5018
840.055	5052
840.193	5143
840.33	5083
840.467	5117
840.604	5109
840.742	5448
840.879	5064
841.016	5109
841.153	5147
841.29	5379
841.427	5288
841.564	5334
841.701	5379
841.838	5201
841.975	5216
842.112	5242
842.249	5071
842.385	5121
842.522	5322
842.659	5140
842.796	5121
842.933	5174
843.069	5151
843.206	5143
843.343	5277
843.479	5204
843.616	5242
843.752	5056
843.889	4995
844.025	5193
844.162	4991
844.298	5204
844.435	5033
844.571	5060
844.708	5208
844.844	5311
844.98	5296
845.117	5227
845.253	5121
845.389	5045
845.525	5109
845.661	5094
845.798	5033
845.934	5132
846.07	5094
846.206	5193
846.342	5273
846.478	5178
846.614	5006
846.75	4927
846.886	4896
847.022	5105
847.158	5006
847.294	5033
847.429	5109
847.565	5033
847.701	5258
847.837	4862
847.972	4767
848.108	4927
848.244	4942
848.379	4702
848.515	4706
848.65	4691
848.786	4725
848.921	4729
849.057	4843
849.192	4885
849.328	4835
849.463	4839
849.598	4729
849.734	4759
849.869	4675
850.004	4607
850.14	4607
850.275	4592
850.41	4554
850.545	4554
850.68	4573
850.815	4618
850.95	4626
851.085	4839
851.22	4717
851.355	4691
851.49	4554
851.625	4611
851.76	4634
851.895	4546
852.03	4504
852.165	4599
852.299	4714
852.434	4771
852.569	4702
852.703	4744
852.838	4831
852.973	4915
853.107	4908
853.242	4717
853.376	4687
853.511	4516
853.645	4584
853.78	4752
853.914	4641
854.048	4634
854.183	4675
854.317	4675
854.451	4831
854.585	4660
854.72	4607
854.854	4694
854.988	4584
855.122	4588
855.256	4455
855.39	4675
855.524	4771
855.658	4691
855.792	4679
855.926	4706
856.06	4729
856.194	4801
856.327	4679
856.461	4622
856.595	4588
856.729	4603
856.862	4725
856.996	4660
857.13	4725
857.263	4702
857.397	4782
857.53	4622
857.664	4740
857.797	4725
857.931	4763
858.064	4645
858.197	4660
858.331	4603
858.464	4588
858.597	4519
858.731	4599
858.864	4618
858.997	4599
859.13	4653
859.263	4630
859.396	4668
859.529	4542
859.662	4596
859.795	4504
859.928	4607
860.061	4733
860.194	4752
860.327	4561
860.46	4516
860.592	4752
860.725	4698
860.858	4687
860.99	4584
861.123	4523
861.256	4516
861.388	4569
861.521	5284
861.653	4459
861.786	4413
861.918	4394
862.05	4508
862.183	4596
862.315	4592
862.447	4683
862.58	4546
862.712	4402
862.844	4341
862.976	4421
863.108	4436
863.24	4782
863.372	4352
863.504	4409
863.636	4402
863.768	4478
863.9	4417
864.032	4337
864.164	4371
864.296	4440
864.428	4519
864.559	4493
864.691	4493
864.823	4558
864.954	4516
865.086	4531
865.217	4440
865.349	4386
865.48	4455
865.612	4504
865.743	4630
865.875	4443
866.006	4436
866.137	4462
866.269	4421
866.4	4443
866.531	4443
866.662	4379
866.793	4417
866.924	4417
867.055	4512
867.186	4424
867.317	4405
867.448	4352
867.579	4409
867.71	4356
867.841	4352
867.972	4428
868.103	4421
868.233	4512
868.364	4428
868.495	4440
868.625	4607
868.756	4740
868.886	4580
869.017	4580
869.147	4786
869.278	4740
869.408	4626
869.539	4596
869.669	4622
869.799	4615
869.929	4675
870.06	4733
870.19	4965
870.32	4862
870.45	4911
870.58	4961
870.71	5067
870.84	5113
870.97	4946
871.1	4862
871.23	5117
871.36	5090
871.489	5056
871.619	5033
871.749	5071
871.879	5102
872.008	5170
872.138	5041
872.267	4946
872.397	4877
872.526	4767
872.656	4740
872.785	4820
872.915	4942
873.044	5014
873.173	4904
873.303	4900
873.432	4934
873.561	4900
873.69	4843
873.819	4828
873.948	4885
874.077	4812
874.206	4725
874.335	4790
874.464	4892
874.593	5018
874.722	4961
874.851	5064
874.979	5025
875.108	5014
875.237	4904
875.365	4911
875.494	4850
875.623	4927
875.751	4793
875.88	4850
876.008	4949
876.136	5037
876.265	5136
876.393	5292
876.521	5227
876.65	5155
876.778	5132
876.906	5064
877.034	5018
877.162	4984
877.29	4946
877.418	5052
877.546	4968
877.674	5033
877.802	5037
877.93	5037
878.058	4870
878.185	4839
878.313	4930
878.441	4927
878.568	4820
878.696	4915
878.824	4915
878.951	4923
879.079	5083
879.206	5246
879.333	5067
879.461	4980
879.588	4968
879.715	5121
879.842	5227
879.97	5022
880.097	4744
880.224	4714
880.351	4793
880.478	4797
880.605	4771
880.732	4786
880.859	5037
880.986	4847
881.112	4873
881.239	4752
881.366	4656
881.493	4531
881.619	4592
881.746	4596
881.872	4668
881.999	4599
882.125	4653
882.252	4759
882.378	4805
882.505	4946
882.631	4782
882.757	4641
882.883	4694
883.01	4702
883.136	4637
883.262	4599
883.388	4645
883.514	4805
883.64	4816
883.766	4809
883.892	4630
884.018	4710
884.143	4850
884.269	4995
884.395	4668
884.52	4653
884.646	4687
884.772	4569
884.897	4531
885.023	4634
885.148	4778
885.274	4824
885.399	4812
885.524	4736
885.65	4668
885.775	4714
885.9	4748
886.025	4835
886.15	4755
886.275	4675
886.4	4664
886.525	4687
886.65	4706
886.775	4645
886.9	4934
887.025	5052
887.149	4854
887.274	4630
887.399	4561
887.523	4599
887.648	4561
887.773	4584
887.897	4771
888.021	4767
888.146	4687
888.27	4835
888.395	4858
888.519	4812
888.643	4885
888.767	4870
888.891	4664
889.015	4618
889.139	4717
889.263	4618
889.387	4778
889.511	4866
889.635	4797
889.759	4675
889.883	4645
890.006	4752
890.13	4824
890.254	4634
890.377	4729
890.501	4618
890.624	4592
890.748	4668
890.871	4558
890.995	4417
891.118	4413
891.241	4489
891.364	4580
891.488	4637
891.611	4512
891.734	4527
891.857	4607
891.98	4577
892.103	4668
892.226	4649
892.349	4599
892.471	4462
892.594	4577
892.717	4683
892.839	4546
892.962	4607
893.085	4679
893.207	4626
893.33	4538
893.452	4485
893.575	4687
893.697	4615
893.819	4862
893.941	4881
894.064	4809
894.186	4596
894.308	4573
894.43	4714
894.552	4873
894.674	4786
894.796	4577
894.918	4603
895.04	4630
895.161	4729
895.283	4634
895.405	4584
895.526	4668
895.648	4744
895.769	4740
895.891	4759
896.012	4782
896.134	4744
896.255	4675
896.376	4615
896.498	4653
896.619	4710
896.74	4672
896.861	4687
896.982	4972
897.103	5117
897.224	4881
897.345	4752
897.466	4706
897.587	4733
897.708	4862
897.828	4797
897.949	4691
898.07	4592
898.19	4691
898.311	4885
898.431	4710
898.552	4793
898.672	4824
898.792	4778
898.913	4786
899.033	4641
899.153	4523
899.273	4455
899.393	4519
899.513	4554
899.633	4577
899.753	4516
899.873	4580
899.993	4588
900.113	4558
900.232	4584
900.352	4535
900.472	4531
900.591	4424
900.711	4485
900.83	4474
900.95	4618
901.069	4687
901.189	4588
901.308	4375
901.427	4356
901.546	4394
901.665	4489
901.784	4489
901.904	4424
902.023	4363
902.141	4242
902.26	4200
902.379	4325
902.498	4268
902.617	4207
902.735	4390
902.854	4375
902.973	4371
903.091	4215
903.21	4238
903.328	4375
903.446	4303
903.565	4272
903.683	4383
903.801	4310
903.919	4474
904.038	4512
904.156	4379
904.274	4440
904.392	4443
904.51	4478
904.627	4459
904.745	4603
904.863	4622
904.981	4405
905.098	4348
905.216	4375
905.334	4459
905.451	4443
905.569	4432
905.686	4626
905.803	4607
905.921	4421
906.038	4577
906.155	4489
906.272	4443
906.389	4470
906.506	4398
906.623	4386
906.74	4394
906.857	4291
906.974	4459
907.091	4577
907.208	4694
907.324	4558
907.441	4493
907.557	4341
907.674	4348
907.79	4303
907.907	4424
908.023	4481
908.139	4485
908.256	4432
908.372	4508
908.488	4455
908.604	4363
908.72	4367
908.836	4405
908.952	4371
909.068	4462
909.184	4645
909.3	4470
909.415	4653
909.531	4588
909.647	4341
909.762	4424
909.878	4440
909.993	4436
910.108	4413
910.224	4459
910.339	4512
910.454	4428
910.57	4398
910.685	4306
910.8	4664
910.915	4679
911.03	4550
911.145	4348
911.259	4337
911.374	4379
911.489	4322
911.604	4272
911.718	4219
911.833	4223
911.947	4139
912.062	4036
912.176	4234
912.291	4215
912.405	4268
912.519	4474
912.633	4538
912.748	4402
912.862	4341
912.976	4246
913.09	4150
913.204	4238
913.318	4257
913.431	4360
913.545	4360
913.659	4455
913.772	4333
913.886	4268
914	4268
914.113	4398
914.226	4424
914.34	4417
914.453	4253
914.566	4455
914.68	4306
914.793	4318
914.906	4162
915.019	4105
915.132	4120
915.245	4230
915.358	4276
915.47	4261
915.583	4337
915.696	4299
915.809	4375
915.921	4485
916.034	4322
916.146	4291
916.259	4253
916.371	4405
916.483	4440
916.595	4257
916.708	4333
916.82	4337
916.932	4352
917.044	4390
917.156	4306
917.268	4238
917.38	4261
917.491	4249
917.603	4367
917.715	4474
917.826	4489
917.938	4371
918.049	4284
918.161	4398
918.272	4546
918.384	4535
918.495	4485
918.606	4329
918.717	4272
918.828	4363
918.939	4356
919.05	4261
919.161	4344
919.272	4177
919.383	4249
919.494	4440
919.604	4645
919.715	4466
919.826	4379
919.936	4386
920.047	4523
920.157	4493
920.267	4717
920.378	4550
920.488	4527
920.598	4733
920.708	4968
920.818	4729
920.928	4744
921.038	4923
921.148	4934
921.258	4656
921.368	4618
921.477	4531
921.587	4489
921.697	4383
921.806	4573
921.916	4436
922.025	4303
922.134	4284
922.244	4211
922.353	4367
922.462	4200
922.571	4166
922.68	4002
922.789	4002
922.898	4074
923.007	4032
923.116	4143
923.224	4082
923.333	4036
923.442	3991
923.55	3987
923.659	4021
923.767	4143
923.876	4013
923.984	4131
924.092	3983
924.201	4078
924.309	4120
924.417	4131
924.525	4029
924.633	4162
924.741	4908
924.849	3964
924.956	4154
925.064	4010
925.172	3899
925.279	3979
925.387	4036
925.494	4109
925.602	4230
925.709	4196
925.816	4040
925.924	4158
926.031	4219
926.138	4219
926.245	4196
926.352	4128
926.459	4246
926.566	4322
926.673	4223
926.779	4074
926.886	4109
926.993	4010
927.099	3987
927.206	4017
927.312	3945
927.419	4040
927.525	4048
927.631	4150
927.737	3941
927.843	3972
927.95	3819
928.056	3941
928.162	4010
928.267	4082
928.373	4679
928.479	4154
928.585	3918
928.69	4010
928.796	4101
928.901	3953
929.007	3827
929.112	4021
929.218	4017
929.323	3983
929.428	3964
929.533	4150
929.638	3899
929.743	3926
929.848	4074
929.953	4017
930.058	3922
930.163	3770
930.267	3854
930.372	3964
930.477	3808
930.581	4124
930.685	3972
930.79	3854
930.894	3915
930.998	3835
931.103	4059
931.207	3743
931.311	3713
931.415	3736
931.519	3557
931.623	3584
