Data from test_V78500241_42.txt Node
Date: Fri Mar 25 16:49:17 CST 2022
User: usil
Spectrometer: V785-0024
Trigger mode: 0
Integration Time (sec): 4.000000E-1
Scans to average: 1
Nonlinearity correction enabled: false
Boxcar width: 0
Storing dark spectrum: false
XAxis mode: Wavelengths
Number of Pixels in Spectrum: 1024
>>>>>Begin Spectral Data<<<<<
801.071	8092
801.214	8088
801.356	7951
801.499	7959
801.641	7974
801.783	7940
801.926	8027
802.068	7978
802.211	8008
802.353	7986
802.496	7997
802.638	7986
802.78	7947
802.923	7951
803.065	7917
803.208	7936
803.35	8073
803.492	8096
803.635	8172
803.777	7951
803.919	8142
804.061	8438
804.204	8221
804.346	8092
804.488	8043
804.63	8123
804.773	8027
804.915	8081
805.057	8191
805.199	8187
805.341	8267
805.483	8294
805.626	8202
805.768	8138
805.91	8256
806.052	8210
806.194	8161
806.336	8263
806.478	8145
806.62	8161
806.762	8237
806.904	8328
807.046	8454
807.188	8404
807.33	8351
807.472	8358
807.614	8161
807.756	8176
807.898	8054
808.04	7963
808.182	7967
808.324	7913
808.465	7917
808.607	8096
808.749	8100
808.891	8294
809.033	8305
809.174	8202
809.316	8081
809.458	8039
809.6	7917
809.741	7993
809.883	7959
810.025	8100
810.166	8115
810.308	8103
810.45	8103
810.591	7936
810.733	7780
810.875	7723
811.016	7506
811.158	7533
811.299	7700
811.441	7822
811.582	7803
811.724	7582
811.865	7628
812.007	7696
812.148	7681
812.29	7727
812.431	7875
812.573	7890
812.714	8008
812.855	8176
812.997	8221
813.138	8328
813.279	8233
813.421	8183
813.562	8046
813.703	7940
813.845	7772
813.986	7491
814.127	7320
814.268	7312
814.41	7255
814.551	7179
814.692	7225
814.833	7160
814.974	7149
815.115	7179
815.256	7034
815.397	6924
815.539	6973
815.68	6795
815.821	6757
815.962	6867
816.103	6905
816.244	6734
816.385	6700
816.526	6665
816.666	6547
816.807	6353
816.948	6467
817.089	6532
817.23	6448
817.371	6467
817.512	6456
817.653	6422
817.793	6403
817.934	6506
818.075	6506
818.216	6513
818.356	6437
818.497	6327
818.638	6136
818.778	6232
818.919	6163
819.06	6167
819.2	6426
819.341	6327
819.481	6407
819.622	6608
819.762	6859
819.903	6734
820.043	6631
820.184	6662
820.324	6658
820.465	6734
820.605	6768
820.746	6662
820.886	6513
821.026	6707
821.167	6757
821.307	6852
821.447	6825
821.588	6684
821.728	6631
821.868	6467
822.008	6323
822.149	6407
822.289	6403
822.429	6220
822.569	6087
822.709	6129
822.849	5950
822.99	5961
823.13	5961
823.27	5950
823.41	5821
823.55	5836
823.69	5847
823.83	5847
823.97	5718
824.11	5592
824.25	5581
824.389	5539
824.529	5649
824.669	5577
824.809	5665
824.949	5676
825.089	5672
825.228	5638
825.368	5459
825.508	5421
825.648	5444
825.787	5376
825.927	5459
826.067	5330
826.206	5307
826.346	5414
826.485	5406
826.625	5440
826.765	5577
826.904	5524
827.044	5280
827.183	5250
827.323	5166
827.462	5235
827.601	5239
827.741	5307
827.88	5254
828.02	5181
828.159	5242
828.298	5349
828.437	5357
828.577	5299
828.716	5573
828.855	5360
828.994	5223
829.134	5140
829.273	5178
829.412	5159
829.551	5140
829.69	5201
829.829	5284
829.968	5440
830.107	5296
830.246	5318
830.385	5269
830.524	5151
830.663	5117
830.802	4968
830.941	4881
831.08	4889
831.219	4984
831.357	5018
831.496	5162
831.635	4942
831.774	4896
831.913	4870
832.051	4782
832.19	4771
832.329	4862
832.467	4729
832.606	4675
832.744	4786
832.883	4763
833.022	4729
833.16	4801
833.299	4843
833.437	4843
833.576	4843
833.714	4870
833.852	4927
833.991	4927
834.129	5014
834.267	5014
834.406	4965
834.544	4987
834.682	5052
834.821	4995
834.959	5181
835.097	5018
835.235	5143
835.373	5067
835.511	5155
835.65	5075
835.788	5071
835.926	4908
836.064	4900
836.202	4965
836.34	5242
836.478	5284
836.615	5193
836.753	5246
836.891	5292
837.029	5307
837.167	5250
837.305	5284
837.443	5189
837.58	5121
837.718	5201
837.856	5277
837.993	5246
838.131	5265
838.269	5246
838.406	5220
838.544	5239
838.681	5098
838.819	5003
838.956	4908
839.094	4946
839.231	4995
839.369	5075
839.506	5444
839.643	5315
839.781	5143
839.918	5075
840.055	5086
840.193	5113
840.33	5189
840.467	5201
840.604	5208
840.742	5444
840.879	5094
841.016	5121
841.153	5155
841.29	5467
841.427	5337
841.564	5368
841.701	5402
841.838	5307
841.975	5292
842.112	5299
842.249	5193
842.385	5155
842.522	5376
842.659	5212
842.796	5208
842.933	5223
843.069	5239
843.206	5155
843.343	5357
843.479	5269
843.616	5322
843.752	5113
843.889	5083
844.025	5273
844.162	5052
844.298	5166
844.435	5094
844.571	5098
844.708	5216
844.844	5341
844.98	5429
845.117	5330
845.253	5220
845.389	5140
845.525	5178
845.661	5170
845.798	5071
845.934	5174
846.07	5086
846.206	5181
846.342	5288
846.478	5227
846.614	5056
846.75	5048
846.886	4957
847.022	5136
847.158	5071
847.294	5098
847.429	5121
847.565	5060
847.701	5315
847.837	4900
847.972	4862
848.108	5022
848.244	5014
848.379	4809
848.515	4767
848.65	4721
848.786	4759
848.921	4801
849.057	4873
849.192	4938
849.328	4820
849.463	4858
849.598	4812
849.734	4805
849.869	4752
850.004	4702
850.14	4679
850.275	4622
850.41	4565
850.545	4622
850.68	4664
850.815	4660
850.95	4675
851.085	4904
851.22	4786
851.355	4668
851.49	4641
851.625	4668
851.76	4675
851.895	4630
852.03	4603
852.165	4725
852.299	4714
852.434	4839
852.569	4759
852.703	4824
852.838	4885
852.973	5003
853.107	4881
853.242	4763
853.376	4710
853.511	4588
853.645	4656
853.78	4866
853.914	4698
854.048	4733
854.183	4675
854.317	4759
854.451	4858
854.585	4752
854.72	4656
854.854	4790
854.988	4611
855.122	4649
855.256	4531
855.39	4721
855.524	4835
855.658	4752
855.792	4656
855.926	4755
856.06	4790
856.194	4828
856.327	4706
856.461	4714
856.595	4649
856.729	4702
856.862	4778
856.996	4698
857.13	4710
857.263	4820
857.397	4843
857.53	4645
857.664	4740
857.797	4755
857.931	4801
858.064	4767
858.197	4733
858.331	4660
858.464	4637
858.597	4554
858.731	4653
858.864	4672
858.997	4603
859.13	4702
859.263	4679
859.396	4706
859.529	4615
859.662	4596
859.795	4588
859.928	4683
860.061	4763
860.194	4835
860.327	4641
860.46	4584
860.592	4725
860.725	4755
860.858	4790
860.99	4634
861.123	4569
861.256	4554
861.388	4634
861.521	5318
861.653	4481
861.786	4489
861.918	4531
862.05	4561
862.183	4592
862.315	4596
862.447	4637
862.58	4561
862.712	4436
862.844	4356
862.976	4504
863.108	4508
863.24	4896
863.372	4367
863.504	4428
863.636	4462
863.768	4493
863.9	4459
864.032	4375
864.164	4428
864.296	4462
864.428	4599
864.559	4569
864.691	4584
864.823	4535
864.954	4550
865.086	4519
865.217	4497
865.349	4443
865.48	4527
865.612	4478
865.743	4641
865.875	4504
866.006	4478
866.137	4478
866.269	4489
866.4	4478
866.531	4462
866.662	4436
866.793	4455
866.924	4436
867.055	4516
867.186	4466
867.317	4432
867.448	4402
867.579	4390
867.71	4436
867.841	4417
867.972	4481
868.103	4478
868.233	4413
868.364	4466
868.495	4538
868.625	4660
868.756	4786
868.886	4618
869.017	4687
869.147	4805
869.278	4793
869.408	4679
869.539	4592
869.669	4752
869.799	4740
869.929	4790
870.06	4774
870.19	4968
870.32	4881
870.45	4957
870.58	5083
870.71	5140
870.84	5178
870.97	4987
871.1	4930
871.23	5147
871.36	5143
871.489	5094
871.619	5052
871.749	5102
871.879	5121
872.008	5220
872.138	5117
872.267	5045
872.397	4919
872.526	4820
872.656	4752
872.785	4812
872.915	5006
873.044	5052
873.173	5010
873.303	4961
873.432	5033
873.561	4919
873.69	4934
873.819	4892
873.948	4930
874.077	4870
874.206	4778
874.335	4892
874.464	4953
874.593	5143
874.722	4995
874.851	5155
874.979	5124
875.108	5113
875.237	4953
875.365	4904
875.494	4923
875.623	4991
875.751	4938
875.88	4961
876.008	4995
876.136	5025
876.265	5303
876.393	5349
876.521	5239
876.65	5277
876.778	5208
876.906	5113
877.034	5064
877.162	5037
877.29	5006
877.418	5090
877.546	5105
877.674	5083
877.802	5071
877.93	5006
878.058	4999
878.185	4965
878.313	5022
878.441	5048
878.568	4816
878.696	4877
878.824	4995
878.951	5056
879.079	5174
879.206	5307
879.333	5147
879.461	5083
879.588	5006
879.715	5208
879.842	5258
879.97	5075
880.097	4828
880.224	4801
880.351	4885
880.478	4862
880.605	4839
880.732	4809
880.859	5159
880.986	4930
881.112	4961
881.239	4828
881.366	4729
881.493	4641
881.619	4656
881.746	4683
881.872	4653
881.999	4717
882.125	4721
882.252	4816
882.378	4870
882.505	4934
882.631	4835
882.757	4763
882.883	4710
883.01	4763
883.136	4763
883.262	4645
883.388	4626
883.514	4866
883.64	4881
883.766	4839
883.892	4691
884.018	4820
884.143	4953
884.269	5105
884.395	4729
884.52	4656
884.646	4660
884.772	4615
884.897	4558
885.023	4714
885.148	4828
885.274	4915
885.399	4892
885.524	4786
885.65	4706
885.775	4744
885.9	4771
886.025	4873
886.15	4801
886.275	4744
886.4	4672
886.525	4744
886.65	4725
886.775	4771
886.9	4927
887.025	5094
887.149	4843
887.274	4725
887.399	4592
887.523	4656
887.648	4664
887.773	4630
887.897	4809
888.021	4797
888.146	4725
888.27	4839
888.395	4949
888.519	4793
888.643	4870
888.767	4881
888.891	4744
889.015	4634
889.139	4714
889.263	4656
889.387	4755
889.511	4900
889.635	4828
889.759	4664
889.883	4691
890.006	4782
890.13	4892
890.254	4710
890.377	4691
890.501	4596
890.624	4546
890.748	4691
890.871	4546
890.995	4428
891.118	4405
891.241	4550
891.364	4588
891.488	4641
891.611	4489
891.734	4569
891.857	4637
891.98	4561
892.103	4687
892.226	4622
892.349	4565
892.471	4478
892.594	4561
892.717	4672
892.839	4645
892.962	4607
893.085	4710
893.207	4622
893.33	4474
893.452	4531
893.575	4637
893.697	4596
893.819	4831
893.941	4870
894.064	4839
894.186	4615
894.308	4634
894.43	4793
894.552	4850
894.674	4786
894.796	4523
894.918	4653
895.04	4611
895.161	4782
895.283	4679
895.405	4596
895.526	4660
895.648	4736
895.769	4733
895.891	4744
896.012	4744
896.134	4752
896.255	4687
896.376	4645
896.498	4622
896.619	4706
896.74	4660
896.861	4702
896.982	4942
897.103	5170
897.224	4812
897.345	4786
897.466	4675
897.587	4733
897.708	4908
897.828	4778
897.949	4733
898.07	4596
898.19	4668
898.311	4820
898.431	4736
898.552	4771
898.672	4839
898.792	4850
898.913	4767
899.033	4672
899.153	4516
899.273	4474
899.393	4527
899.513	4527
899.633	4561
899.753	4584
899.873	4535
899.993	4618
900.113	4569
900.232	4596
900.352	4573
900.472	4546
900.591	4424
900.711	4554
900.83	4508
900.95	4637
901.069	4740
901.189	4577
901.308	4417
901.427	4318
901.546	4428
901.665	4485
901.784	4523
901.904	4417
902.023	4356
902.141	4223
902.26	4192
902.379	4344
902.498	4272
902.617	4318
902.735	4363
902.854	4436
902.973	4413
903.091	4223
903.21	4246
903.328	4291
903.446	4314
903.565	4276
903.683	4436
903.801	4322
903.919	4413
904.038	4443
904.156	4383
904.274	4531
904.392	4421
904.51	4443
904.627	4519
904.745	4584
904.863	4641
904.981	4371
905.098	4348
905.216	4390
905.334	4478
905.451	4493
905.569	4466
905.686	4535
905.803	4573
905.921	4474
906.038	4584
906.155	4504
906.272	4428
906.389	4481
906.506	4318
906.623	4386
906.74	4394
906.857	4356
906.974	4390
907.091	4607
907.208	4702
907.324	4611
907.441	4535
907.557	4375
907.674	4375
907.79	4291
907.907	4443
908.023	4527
908.139	4493
908.256	4474
908.372	4516
908.488	4527
908.604	4367
908.72	4383
908.836	4432
908.952	4413
909.068	4474
909.184	4592
909.3	4519
909.415	4596
909.531	4611
909.647	4436
909.762	4447
909.878	4413
909.993	4451
910.108	4451
910.224	4462
910.339	4538
910.454	4455
910.57	4424
910.685	4322
910.8	4694
910.915	4588
911.03	4573
911.145	4344
911.259	4371
911.374	4436
911.489	4344
911.604	4348
911.718	4261
911.833	4265
911.947	4135
912.062	4071
912.176	4268
912.291	4284
912.405	4352
912.519	4508
912.633	4531
912.748	4447
912.862	4386
912.976	4310
913.09	4143
913.204	4268
913.318	4310
913.431	4474
913.545	4443
913.659	4565
913.772	4485
913.886	4333
914	4303
914.113	4470
914.226	4478
914.34	4417
914.453	4310
914.566	4516
914.68	4398
914.793	4409
914.906	4238
915.019	4223
915.132	4177
915.245	4268
915.358	4261
915.47	4314
915.583	4348
915.696	4428
915.809	4462
915.921	4466
916.034	4325
916.146	4318
916.259	4306
916.371	4512
916.483	4390
916.595	4329
916.708	4443
916.82	4417
916.932	4428
917.044	4447
917.156	4440
917.268	4322
917.38	4329
917.491	4352
917.603	4455
917.715	4462
917.826	4535
917.938	4466
918.049	4333
918.161	4508
918.272	4653
918.384	4550
918.495	4538
918.606	4360
918.717	4333
918.828	4405
918.939	4409
919.05	4318
919.161	4447
919.272	4227
919.383	4325
919.494	4531
919.604	4740
919.715	4500
919.826	4443
919.936	4481
920.047	4630
920.157	4603
920.267	4797
920.378	4641
920.488	4588
920.598	4809
920.708	4961
920.818	4862
920.928	4831
921.038	5025
921.148	4995
921.258	4721
921.368	4618
921.477	4599
921.587	4519
921.697	4394
921.806	4634
921.916	4531
922.025	4375
922.134	4360
922.244	4337
922.353	4405
922.462	4249
922.571	4196
922.68	4040
922.789	4074
922.898	4090
923.007	4051
923.116	4181
923.224	4124
923.333	4173
923.442	4071
923.55	4032
923.659	4112
923.767	4154
923.876	4074
923.984	4177
924.092	4010
924.201	4166
924.309	4150
924.417	4169
924.525	4139
924.633	4154
924.741	5064
924.849	4010
924.956	4204
925.064	4029
925.172	3953
925.279	3983
925.387	4143
925.494	4105
925.602	4276
925.709	4276
925.816	4093
925.924	4211
926.031	4329
926.138	4223
926.245	4246
926.352	4219
926.459	4310
926.566	4341
926.673	4196
926.779	4109
926.886	4173
926.993	4059
927.099	4010
927.206	3968
927.312	4021
927.419	4124
927.525	4112
927.631	4196
927.737	4048
927.843	4029
927.95	3915
928.056	3983
928.162	4040
928.267	4147
928.373	4698
928.479	4188
928.585	3941
928.69	4090
928.796	4112
928.901	4036
929.007	3941
929.112	4044
929.218	4048
929.323	4002
929.428	4048
929.533	4181
929.638	3964
929.743	4044
929.848	4116
929.953	4048
930.058	4006
930.163	3838
930.267	3915
930.372	4017
930.477	3884
930.581	4150
930.685	4040
930.79	3884
930.894	3953
930.998	3941
931.103	4078
931.207	3781
931.311	3747
931.415	3732
931.519	3580
931.623	3606
