Data from test_V78500241_54.txt Node
Date: Fri Mar 25 16:49:22 CST 2022
User: usil
Spectrometer: V785-0024
Trigger mode: 0
Integration Time (sec): 4.000000E-1
Scans to average: 1
Nonlinearity correction enabled: false
Boxcar width: 0
Storing dark spectrum: false
XAxis mode: Wavelengths
Number of Pixels in Spectrum: 1024
>>>>>Begin Spectral Data<<<<<
801.071	8088
801.214	8065
801.356	7959
801.499	7951
801.641	7883
801.783	7837
801.926	8039
802.068	7989
802.211	8050
802.353	8043
802.496	7955
802.638	7974
802.78	8043
802.923	7978
803.065	7932
803.208	7864
803.35	8073
803.492	8157
803.635	8145
803.777	8001
803.919	8084
804.061	8415
804.204	8157
804.346	8077
804.488	7989
804.63	8100
804.773	8077
804.915	8126
805.057	8233
805.199	8176
805.341	8244
805.483	8290
805.626	8237
805.768	8191
805.91	8244
806.052	8252
806.194	8153
806.336	8320
806.478	8202
806.62	8195
806.762	8294
806.904	8366
807.046	8537
807.188	8393
807.33	8389
807.472	8370
807.614	8202
807.756	8233
807.898	8058
808.04	7978
808.182	7989
808.324	7947
808.465	7925
808.607	8126
808.749	8107
808.891	8206
809.033	8317
809.174	8229
809.316	8081
809.458	8100
809.6	7982
809.741	8050
809.883	7982
810.025	8103
810.166	8058
810.308	8088
810.45	8031
810.591	7868
810.733	7731
810.875	7677
811.016	7506
811.158	7510
811.299	7601
811.441	7795
811.582	7761
811.724	7620
811.865	7639
812.007	7639
812.148	7590
812.29	7712
812.431	7818
812.573	7928
812.714	8081
812.855	8172
812.997	8313
813.138	8374
813.279	8214
813.421	8183
813.562	8031
813.703	7902
813.845	7772
813.986	7537
814.127	7297
814.268	7247
814.41	7225
814.551	7225
814.692	7244
814.833	7137
814.974	7114
815.115	7118
815.256	6932
815.397	6993
815.539	6924
815.68	6837
815.821	6833
815.962	6901
816.103	6825
816.244	6703
816.385	6608
816.526	6623
816.666	6528
816.807	6388
816.948	6498
817.089	6486
817.23	6490
817.371	6433
817.512	6422
817.653	6426
817.793	6399
817.934	6467
818.075	6506
818.216	6536
818.356	6433
818.497	6323
818.638	6163
818.778	6190
818.919	6186
819.06	6201
819.2	6327
819.341	6365
819.481	6429
819.622	6604
819.762	6837
819.903	6738
820.043	6658
820.184	6555
820.324	6582
820.465	6726
820.605	6760
820.746	6623
820.886	6555
821.026	6673
821.167	6711
821.307	6837
821.447	6829
821.588	6696
821.728	6608
821.868	6578
822.008	6384
822.149	6471
822.289	6418
822.429	6228
822.569	6125
822.709	6167
822.849	5965
822.99	5969
823.13	5969
823.27	6003
823.41	5809
823.55	5859
823.69	5745
823.83	5836
823.97	5676
824.11	5596
824.25	5528
824.389	5592
824.529	5596
824.669	5551
824.809	5661
824.949	5741
825.089	5691
825.228	5608
825.368	5471
825.508	5337
825.648	5330
825.787	5387
825.927	5436
826.067	5383
826.206	5315
826.346	5478
826.485	5452
826.625	5410
826.765	5566
826.904	5520
827.044	5296
827.183	5235
827.323	5174
827.462	5288
827.601	5227
827.741	5212
827.88	5254
828.02	5143
828.159	5239
828.298	5406
828.437	5391
828.577	5330
828.716	5528
828.855	5372
828.994	5242
829.134	5193
829.273	5261
829.412	5159
829.551	5151
829.69	5201
829.829	5223
829.968	5376
830.107	5273
830.246	5273
830.385	5227
830.524	5178
830.663	5075
830.802	5037
830.941	4942
831.08	4885
831.219	5052
831.357	5025
831.496	5159
831.635	4961
831.774	4889
831.913	4854
832.051	4740
832.19	4801
832.329	4877
832.467	4729
832.606	4683
832.744	4801
832.883	4729
833.022	4801
833.16	4828
833.299	4877
833.437	4870
833.576	4885
833.714	4942
833.852	4904
833.991	4934
834.129	4968
834.267	5029
834.406	4930
834.544	5064
834.682	5029
834.821	4999
834.959	5189
835.097	4999
835.235	5178
835.373	5086
835.511	5117
835.65	5064
835.788	5071
835.926	4953
836.064	4972
836.202	4999
836.34	5258
836.478	5326
836.615	5170
836.753	5220
836.891	5284
837.029	5299
837.167	5231
837.305	5189
837.443	5197
837.58	5102
837.718	5250
837.856	5269
837.993	5197
838.131	5220
838.269	5277
838.406	5254
838.544	5185
838.681	5052
838.819	5071
838.956	4919
839.094	4927
839.231	5033
839.369	5083
839.506	5471
839.643	5292
839.781	5079
839.918	5067
840.055	5147
840.193	5132
840.33	5155
840.467	5162
840.604	5235
840.742	5471
840.879	5090
841.016	5143
841.153	5170
841.29	5398
841.427	5410
841.564	5353
841.701	5368
841.838	5299
841.975	5277
842.112	5269
842.249	5170
842.385	5136
842.522	5318
842.659	5197
842.796	5201
842.933	5246
843.069	5197
843.206	5212
843.343	5341
843.479	5280
843.616	5318
843.752	5041
843.889	5098
844.025	5254
844.162	5045
844.298	5220
844.435	5105
844.571	5109
844.708	5239
844.844	5322
844.98	5402
845.117	5357
845.253	5159
845.389	5056
845.525	5178
845.661	5151
845.798	5075
845.934	5166
846.07	5094
846.206	5250
846.342	5261
846.478	5227
846.614	5117
846.75	5025
846.886	4911
847.022	5159
847.158	5083
847.294	5060
847.429	5079
847.565	5090
847.701	5410
847.837	4904
847.972	4812
848.108	4968
848.244	4968
848.379	4809
848.515	4710
848.65	4717
848.786	4805
848.921	4793
849.057	4968
849.192	4892
849.328	4870
849.463	4866
849.598	4870
849.734	4839
849.869	4721
850.004	4645
850.14	4710
850.275	4679
850.41	4580
850.545	4607
850.68	4649
850.815	4668
850.95	4698
851.085	4915
851.22	4744
851.355	4653
851.49	4649
851.625	4660
851.76	4679
851.895	4592
852.03	4615
852.165	4668
852.299	4748
852.434	4839
852.569	4740
852.703	4790
852.838	4870
852.973	4938
853.107	4942
853.242	4782
853.376	4694
853.511	4584
853.645	4675
853.78	4805
853.914	4759
854.048	4721
854.183	4653
854.317	4778
854.451	4930
854.585	4702
854.72	4687
854.854	4828
854.988	4607
855.122	4626
855.256	4569
855.39	4702
855.524	4790
855.658	4759
855.792	4755
855.926	4828
856.06	4805
856.194	4873
856.327	4755
856.461	4645
856.595	4649
856.729	4656
856.862	4755
856.996	4725
857.13	4778
857.263	4767
857.397	4839
857.53	4641
857.664	4774
857.797	4752
857.931	4809
858.064	4767
858.197	4790
858.331	4698
858.464	4706
858.597	4546
858.731	4725
858.864	4660
858.997	4622
859.13	4710
859.263	4725
859.396	4702
859.529	4656
859.662	4596
859.795	4592
859.928	4622
860.061	4820
860.194	4809
860.327	4679
860.46	4611
860.592	4748
860.725	4736
860.858	4805
860.99	4645
861.123	4565
861.256	4523
861.388	4660
861.521	5318
861.653	4497
861.786	4436
861.918	4573
862.05	4584
862.183	4561
862.315	4664
862.447	4698
862.58	4611
862.712	4436
862.844	4352
862.976	4542
863.108	4519
863.24	4946
863.372	4383
863.504	4417
863.636	4409
863.768	4523
863.9	4500
864.032	4344
864.164	4402
864.296	4417
864.428	4538
864.559	4577
864.691	4573
864.823	4550
864.954	4535
865.086	4504
865.217	4535
865.349	4443
865.48	4481
865.612	4531
865.743	4649
865.875	4535
866.006	4451
866.137	4519
866.269	4466
866.4	4451
866.531	4470
866.662	4421
866.793	4432
866.924	4451
867.055	4516
867.186	4500
867.317	4459
867.448	4398
867.579	4394
867.71	4474
867.841	4413
867.972	4443
868.103	4558
868.233	4462
868.364	4443
868.495	4485
868.625	4710
868.756	4771
868.886	4603
869.017	4687
869.147	4854
869.278	4805
869.408	4702
869.539	4668
869.669	4793
869.799	4687
869.929	4828
870.06	4809
870.19	4961
870.32	4953
870.45	5003
870.58	5037
870.71	5159
870.84	5121
870.97	4957
871.1	4930
871.23	5166
871.36	5170
871.489	5052
871.619	5143
871.749	5155
871.879	5155
872.008	5231
872.138	5094
872.267	5048
872.397	4862
872.526	4881
872.656	4725
872.785	4854
872.915	5010
873.044	5064
873.173	4991
873.303	5003
873.432	4976
873.561	5018
873.69	4953
873.819	4900
873.948	4942
874.077	4904
874.206	4793
874.335	4801
874.464	5022
874.593	5045
874.722	5003
874.851	5136
874.979	5098
875.108	5064
875.237	4942
875.365	4908
875.494	4949
875.623	5025
875.751	4862
875.88	4919
876.008	5041
876.136	5022
876.265	5220
876.393	5353
876.521	5273
876.65	5258
876.778	5204
876.906	5094
877.034	5033
877.162	5079
877.29	5037
877.418	5121
877.546	5105
877.674	5086
877.802	5071
877.93	5033
878.058	4908
878.185	4908
878.313	4984
878.441	4984
878.568	4831
878.696	4930
878.824	4968
878.951	4991
879.079	5193
879.206	5292
879.333	5124
879.461	5014
879.588	5025
879.715	5140
879.842	5299
879.97	5022
880.097	4782
880.224	4824
880.351	4885
880.478	4885
880.605	4801
880.732	4850
880.859	5109
880.986	4915
881.112	4980
881.239	4755
881.366	4702
881.493	4679
881.619	4603
881.746	4668
881.872	4694
881.999	4702
882.125	4733
882.252	4793
882.378	4873
882.505	4984
882.631	4828
882.757	4706
882.883	4748
883.01	4809
883.136	4687
883.262	4611
883.388	4615
883.514	4831
883.64	4839
883.766	4877
883.892	4702
884.018	4744
884.143	4984
884.269	5105
884.395	4653
884.52	4679
884.646	4694
884.772	4630
884.897	4615
885.023	4679
885.148	4824
885.274	4900
885.399	4858
885.524	4748
885.65	4740
885.775	4740
885.9	4714
886.025	4889
886.15	4801
886.275	4782
886.4	4714
886.525	4774
886.65	4740
886.775	4717
886.9	4946
887.025	5033
887.149	4771
887.274	4653
887.399	4630
887.523	4592
887.648	4588
887.773	4603
887.897	4816
888.021	4812
888.146	4702
888.27	4877
888.395	4968
888.519	4839
888.643	4843
888.767	4854
888.891	4744
889.015	4664
889.139	4702
889.263	4660
889.387	4782
889.511	4877
889.635	4835
889.759	4714
889.883	4672
890.006	4744
890.13	4866
890.254	4645
890.377	4714
890.501	4603
890.624	4516
890.748	4656
890.871	4550
890.995	4405
891.118	4432
891.241	4527
891.364	4573
891.488	4698
891.611	4550
891.734	4645
891.857	4637
891.98	4596
892.103	4729
892.226	4569
892.349	4607
892.471	4447
892.594	4615
892.717	4641
892.839	4577
892.962	4603
893.085	4714
893.207	4637
893.33	4508
893.452	4504
893.575	4702
893.697	4592
893.819	4816
893.941	4881
894.064	4793
894.186	4622
894.308	4618
894.43	4733
894.552	4809
894.674	4797
894.796	4611
894.918	4626
895.04	4599
895.161	4736
895.283	4698
895.405	4645
895.526	4675
895.648	4759
895.769	4683
895.891	4782
896.012	4763
896.134	4786
896.255	4740
896.376	4698
896.498	4675
896.619	4714
896.74	4618
896.861	4675
896.982	4976
897.103	5113
897.224	4835
897.345	4809
897.466	4698
897.587	4755
897.708	4953
897.828	4816
897.949	4706
898.07	4683
898.19	4691
898.311	4911
898.431	4710
898.552	4801
898.672	4858
898.792	4854
898.913	4774
899.033	4656
899.153	4516
899.273	4432
899.393	4558
899.513	4535
899.633	4538
899.753	4626
899.873	4565
899.993	4603
900.113	4626
900.232	4596
900.352	4611
900.472	4527
900.591	4409
900.711	4531
900.83	4512
900.95	4649
901.069	4679
901.189	4584
901.308	4398
901.427	4348
901.546	4432
901.665	4519
901.784	4573
901.904	4451
902.023	4383
902.141	4227
902.26	4215
902.379	4329
902.498	4276
902.617	4272
902.735	4360
902.854	4424
902.973	4394
903.091	4253
903.21	4242
903.328	4352
903.446	4337
903.565	4333
903.683	4424
903.801	4352
903.919	4451
904.038	4485
904.156	4348
904.274	4497
904.392	4390
904.51	4436
904.627	4474
904.745	4580
904.863	4668
904.981	4455
905.098	4303
905.216	4405
905.334	4478
905.451	4447
905.569	4500
905.686	4607
905.803	4603
905.921	4451
906.038	4603
906.155	4519
906.272	4443
906.389	4466
906.506	4398
906.623	4390
906.74	4383
906.857	4318
906.974	4367
907.091	4630
907.208	4630
907.324	4618
907.441	4516
907.557	4367
907.674	4375
907.79	4371
907.907	4398
908.023	4485
908.139	4500
908.256	4485
908.372	4523
908.488	4497
908.604	4360
908.72	4360
908.836	4440
908.952	4405
909.068	4500
909.184	4615
909.3	4542
909.415	4653
909.531	4535
909.647	4390
909.762	4440
909.878	4417
909.993	4455
910.108	4478
910.224	4485
910.339	4504
910.454	4428
910.57	4386
910.685	4348
910.8	4672
910.915	4645
911.03	4596
911.145	4322
911.259	4356
911.374	4405
911.489	4299
911.604	4329
911.718	4223
911.833	4215
911.947	4162
912.062	4086
912.176	4257
912.291	4268
912.405	4272
912.519	4569
912.633	4527
912.748	4409
912.862	4348
912.976	4246
913.09	4116
913.204	4234
913.318	4253
913.431	4371
913.545	4409
913.659	4447
913.772	4432
913.886	4291
914	4272
914.113	4371
914.226	4455
914.34	4432
914.453	4261
914.566	4462
914.68	4341
914.793	4348
914.906	4211
915.019	4192
915.132	4116
915.245	4181
915.358	4223
915.47	4299
915.583	4272
915.696	4318
915.809	4462
915.921	4451
916.034	4287
916.146	4276
916.259	4272
916.371	4440
916.483	4390
916.595	4276
916.708	4394
916.82	4371
916.932	4318
917.044	4424
917.156	4371
917.268	4333
917.38	4284
917.491	4299
917.603	4375
917.715	4497
917.826	4451
917.938	4386
918.049	4299
918.161	4405
918.272	4599
918.384	4550
918.495	4470
918.606	4337
918.717	4276
918.828	4383
918.939	4379
919.05	4295
919.161	4348
919.272	4158
919.383	4261
919.494	4489
919.604	4637
919.715	4443
919.826	4394
919.936	4451
920.047	4573
920.157	4550
920.267	4782
920.378	4550
920.488	4569
920.598	4725
920.708	4900
920.818	4782
920.928	4793
921.038	4987
921.148	4930
921.258	4675
921.368	4611
921.477	4554
921.587	4500
921.697	4436
921.806	4535
921.916	4466
922.025	4306
922.134	4314
922.244	4261
922.353	4360
922.462	4150
922.571	4143
922.68	3998
922.789	3979
922.898	4101
923.007	4017
923.116	4093
923.224	4105
923.333	4078
923.442	3956
923.55	4036
923.659	4078
923.767	4120
923.876	4002
923.984	4143
924.092	4025
924.201	4093
924.309	4169
924.417	4158
924.525	4086
924.633	4131
924.741	5071
924.849	3915
924.956	4188
925.064	3968
925.172	3945
925.279	4010
925.387	4105
925.494	4063
925.602	4242
925.709	4230
925.816	4063
925.924	4154
926.031	4253
926.138	4246
926.245	4268
926.352	4162
926.459	4291
926.566	4348
926.673	4219
926.779	4139
926.886	4055
926.993	3994
927.099	4006
927.206	3972
927.312	3972
927.419	4086
927.525	4051
927.631	4128
927.737	3991
927.843	4029
927.95	3915
928.056	3983
928.162	4051
928.267	4105
928.373	4733
928.479	4177
928.585	3899
928.69	4059
928.796	4139
928.901	4017
929.007	3876
929.112	4029
929.218	4059
929.323	3991
929.428	3953
929.533	4131
929.638	3915
929.743	3994
929.848	4074
929.953	4063
930.058	3964
930.163	3797
930.267	3888
930.372	3983
930.477	3823
930.581	4105
930.685	4036
930.79	3835
930.894	3915
930.998	3880
931.103	4078
931.207	3770
931.311	3755
931.415	3709
931.519	3557
931.623	3557
