Data from test_V78500241_2233.txt Node
Date: Fri Mar 25 17:04:31 CST 2022
User: usil
Spectrometer: V785-0024
Trigger mode: 0
Integration Time (sec): 4.000000E-1
Scans to average: 1
Nonlinearity correction enabled: false
Boxcar width: 0
Storing dark spectrum: false
XAxis mode: Wavelengths
Number of Pixels in Spectrum: 1024
>>>>>Begin Spectral Data<<<<<
801.071	7963
801.214	7963
801.356	7849
801.499	7860
801.641	7772
801.783	7852
801.926	7944
802.068	7917
802.211	7932
802.353	7963
802.496	7818
802.638	7864
802.78	7909
802.923	7944
803.065	7887
803.208	7818
803.35	7959
803.492	8054
803.635	8065
803.777	8024
803.919	8069
804.061	8408
804.204	8142
804.346	8123
804.488	7978
804.63	8031
804.773	8012
804.915	8024
805.057	8210
805.199	8164
805.341	8195
805.483	8244
805.626	8214
805.768	8096
805.91	8119
806.052	8195
806.194	8073
806.336	8237
806.478	8062
806.62	8012
806.762	8077
806.904	8229
807.046	8404
807.188	8343
807.33	8229
807.472	8313
807.614	8100
807.756	8145
807.898	7967
808.04	7875
808.182	7875
808.324	7887
808.465	7921
808.607	8062
808.749	8024
808.891	8214
809.033	8286
809.174	8164
809.316	8039
809.458	7989
809.6	8020
809.741	8020
809.883	8081
810.025	8062
810.166	8043
810.308	7978
810.45	7963
810.591	7906
810.733	7658
810.875	7590
811.016	7495
811.158	7468
811.299	7544
811.441	7731
811.582	7613
811.724	7533
811.865	7533
812.007	7594
812.148	7605
812.29	7662
812.431	7723
812.573	7807
812.714	7970
812.855	8134
812.997	8218
813.138	8279
813.279	8130
813.421	7997
813.562	7963
813.703	7788
813.845	7696
813.986	7419
814.127	7164
814.268	7217
814.41	7175
814.551	7171
814.692	7251
814.833	7038
814.974	7084
815.115	7084
815.256	6932
815.397	6913
815.539	6894
815.68	6779
815.821	6745
815.962	6840
816.103	6825
816.244	6715
816.385	6585
816.526	6597
816.666	6448
816.807	6296
816.948	6483
817.089	6441
817.23	6448
817.371	6353
817.512	6353
817.653	6407
817.793	6380
817.934	6384
818.075	6448
818.216	6456
818.356	6422
818.497	6235
818.638	6083
818.778	6152
818.919	6144
819.06	6144
819.2	6334
819.341	6247
819.481	6357
819.622	6490
819.762	6741
819.903	6677
820.043	6578
820.184	6547
820.324	6570
820.465	6677
820.605	6681
820.746	6623
820.886	6506
821.026	6669
821.167	6658
821.307	6810
821.447	6795
821.588	6627
821.728	6604
821.868	6506
822.008	6300
822.149	6369
822.289	6334
822.429	6152
822.569	6159
822.709	6091
822.849	5931
822.99	5893
823.13	5920
823.27	5904
823.41	5733
823.55	5756
823.69	5760
823.83	5733
823.97	5695
824.11	5554
824.25	5486
824.389	5520
824.529	5577
824.669	5482
824.809	5684
824.949	5615
825.089	5646
825.228	5543
825.368	5379
825.508	5337
825.648	5383
825.787	5349
825.927	5417
826.067	5326
826.206	5280
826.346	5463
826.485	5417
826.625	5406
826.765	5566
826.904	5490
827.044	5296
827.183	5250
827.323	5185
827.462	5315
827.601	5231
827.741	5197
827.88	5235
828.02	5151
828.159	5284
828.298	5288
828.437	5337
828.577	5318
828.716	5414
828.855	5357
828.994	5220
829.134	5197
829.273	5201
829.412	5193
829.551	5189
829.69	5162
829.829	5273
829.968	5376
830.107	5345
830.246	5303
830.385	5189
830.524	5197
830.663	5143
830.802	4980
830.941	4946
831.08	4972
831.219	5018
831.357	5014
831.496	5185
831.635	4965
831.774	4854
831.913	4892
832.051	4744
832.19	4782
832.329	4877
832.467	4809
832.606	4702
832.744	4824
832.883	4790
833.022	4748
833.16	4820
833.299	4870
833.437	4820
833.576	4850
833.714	4923
833.852	4885
833.991	4938
834.129	5025
834.267	5006
834.406	4908
834.544	4999
834.682	5014
834.821	5041
834.959	5185
835.097	5071
835.235	5201
835.373	5159
835.511	5147
835.65	5086
835.788	5029
835.926	4900
836.064	4938
836.202	4930
836.34	5204
836.478	5242
836.615	5140
836.753	5185
836.891	5315
837.029	5318
837.167	5235
837.305	5246
837.443	5239
837.58	5121
837.718	5250
837.856	5277
837.993	5159
838.131	5250
838.269	5239
838.406	5220
838.544	5220
838.681	5071
838.819	5056
838.956	4961
839.094	4934
839.231	5025
839.369	5109
839.506	5436
839.643	5292
839.781	5075
839.918	5037
840.055	5143
840.193	5102
840.33	5140
840.467	5140
840.604	5174
840.742	5490
840.879	5079
841.016	5136
841.153	5178
841.29	5429
841.427	5349
841.564	5307
841.701	5398
841.838	5261
841.975	5250
842.112	5265
842.249	5185
842.385	5113
842.522	5364
842.659	5174
842.796	5174
842.933	5246
843.069	5147
843.206	5204
843.343	5318
843.479	5258
843.616	5318
843.752	5083
843.889	5029
844.025	5208
844.162	5010
844.298	5296
844.435	5113
844.571	5102
844.708	5227
844.844	5376
844.98	5402
845.117	5288
845.253	5239
845.389	5155
845.525	5162
845.661	5113
845.798	5105
845.934	5121
846.07	5052
846.206	5208
846.342	5280
846.478	5201
846.614	5056
846.75	4976
846.886	4961
847.022	5193
847.158	5086
847.294	5056
847.429	5147
847.565	5109
847.701	5372
847.837	4896
847.972	4843
848.108	5018
848.244	4953
848.379	4828
848.515	4710
848.65	4759
848.786	4744
848.921	4816
849.057	4923
849.192	4980
849.328	4866
849.463	4858
849.598	4801
849.734	4771
849.869	4714
850.004	4656
850.14	4683
850.275	4618
850.41	4542
850.545	4653
850.68	4649
850.815	4660
850.95	4691
851.085	4866
851.22	4729
851.355	4694
851.49	4668
851.625	4664
851.76	4634
851.895	4546
852.03	4542
852.165	4668
852.299	4759
852.434	4771
852.569	4797
852.703	4793
852.838	4847
852.973	4946
853.107	4953
853.242	4755
853.376	4725
853.511	4611
853.645	4668
853.78	4835
853.914	4717
854.048	4679
854.183	4687
854.317	4710
854.451	4877
854.585	4721
854.72	4637
854.854	4805
854.988	4611
855.122	4649
855.256	4573
855.39	4679
855.524	4774
855.658	4729
855.792	4740
855.926	4725
856.06	4801
856.194	4763
856.327	4729
856.461	4668
856.595	4630
856.729	4694
856.862	4801
856.996	4733
857.13	4725
857.263	4793
857.397	4828
857.53	4649
857.664	4721
857.797	4736
857.931	4733
858.064	4706
858.197	4755
858.331	4672
858.464	4630
858.597	4580
858.731	4664
858.864	4653
858.997	4565
859.13	4691
859.263	4725
859.396	4660
859.529	4584
859.662	4649
859.795	4577
859.928	4660
860.061	4767
860.194	4767
860.327	4645
860.46	4645
860.592	4710
860.725	4759
860.858	4691
860.99	4584
861.123	4561
861.256	4527
861.388	4626
861.521	5315
861.653	4519
861.786	4436
861.918	4466
862.05	4508
862.183	4538
862.315	4630
862.447	4702
862.58	4519
862.712	4470
862.844	4352
862.976	4485
863.108	4497
863.24	4908
863.372	4409
863.504	4440
863.636	4402
863.768	4519
863.9	4485
864.032	4333
864.164	4383
864.296	4459
864.428	4558
864.559	4577
864.691	4569
864.823	4546
864.954	4474
865.086	4459
865.217	4455
865.349	4428
865.48	4497
865.612	4519
865.743	4618
865.875	4512
866.006	4440
866.137	4459
866.269	4481
866.4	4470
866.531	4432
866.662	4424
866.793	4432
866.924	4443
867.055	4500
867.186	4436
867.317	4459
867.448	4383
867.579	4360
867.71	4417
867.841	4386
867.972	4523
868.103	4497
868.233	4455
868.364	4466
868.495	4462
868.625	4664
868.756	4752
868.886	4592
869.017	4641
869.147	4797
869.278	4816
869.408	4672
869.539	4641
869.669	4759
869.799	4653
869.929	4812
870.06	4755
870.19	4949
870.32	4965
870.45	4972
870.58	5022
870.71	5102
870.84	5117
870.97	4968
871.1	4946
871.23	5174
871.36	5140
871.489	5037
871.619	5098
871.749	5075
871.879	5162
872.008	5201
872.138	5003
872.267	5010
872.397	4839
872.526	4854
872.656	4782
872.785	4828
872.915	5014
873.044	5041
873.173	4942
873.303	5003
873.432	5006
873.561	4965
873.69	4889
873.819	4923
873.948	4938
874.077	4870
874.206	4820
874.335	4805
874.464	4976
874.593	5056
874.722	4968
874.851	5155
874.979	5071
875.108	5064
875.237	4949
875.365	4881
875.494	4892
875.623	5010
875.751	4816
875.88	4904
876.008	4991
876.136	5052
876.265	5273
876.393	5315
876.521	5242
876.65	5239
876.778	5105
876.906	5022
877.034	4999
877.162	5064
877.29	5037
877.418	5052
877.546	5086
877.674	5045
877.802	5033
877.93	5079
878.058	4995
878.185	4870
878.313	4968
878.441	4953
878.568	4805
878.696	4877
878.824	4984
878.951	5022
879.079	5079
879.206	5303
879.333	5117
879.461	5037
879.588	5067
879.715	5162
879.842	5235
879.97	5025
880.097	4847
880.224	4809
880.351	4820
880.478	4839
880.605	4801
880.732	4820
880.859	5128
880.986	4904
881.112	4938
881.239	4763
881.366	4664
881.493	4588
881.619	4596
881.746	4645
881.872	4694
881.999	4618
882.125	4706
882.252	4831
882.378	4812
882.505	4930
882.631	4854
882.757	4691
882.883	4717
883.01	4748
883.136	4702
883.262	4603
883.388	4668
883.514	4843
883.64	4908
883.766	4831
883.892	4656
884.018	4752
884.143	4877
884.269	5022
884.395	4687
884.52	4645
884.646	4698
884.772	4561
884.897	4577
885.023	4668
885.148	4774
885.274	4805
885.399	4828
885.524	4729
885.65	4675
885.775	4752
885.9	4736
886.025	4862
886.15	4786
886.275	4710
886.4	4672
886.525	4767
886.65	4744
886.775	4664
886.9	4915
887.025	5067
887.149	4828
887.274	4664
887.399	4626
887.523	4637
887.648	4573
887.773	4660
887.897	4759
888.021	4782
888.146	4698
888.27	4881
888.395	4919
888.519	4812
888.643	4824
888.767	4847
888.891	4691
889.015	4588
889.139	4710
889.263	4634
889.387	4774
889.511	4870
889.635	4786
889.759	4618
889.883	4691
890.006	4755
890.13	4801
890.254	4649
890.377	4687
890.501	4519
890.624	4523
890.748	4626
890.871	4527
890.995	4424
891.118	4356
891.241	4508
891.364	4538
891.488	4691
891.611	4497
891.734	4550
891.857	4630
891.98	4565
892.103	4660
892.226	4599
892.349	4535
892.471	4443
892.594	4573
892.717	4588
892.839	4573
892.962	4596
893.085	4649
893.207	4573
893.33	4485
893.452	4569
893.575	4664
893.697	4611
893.819	4812
893.941	4831
894.064	4824
894.186	4569
894.308	4546
894.43	4725
894.552	4793
894.674	4771
894.796	4607
894.918	4588
895.04	4584
895.161	4729
895.283	4698
895.405	4565
895.526	4702
895.648	4675
895.769	4721
895.891	4679
896.012	4774
896.134	4714
896.255	4664
896.376	4634
896.498	4649
896.619	4653
896.74	4603
896.861	4653
896.982	4911
897.103	5086
897.224	4881
897.345	4702
897.466	4736
897.587	4767
897.708	4881
897.828	4782
897.949	4664
898.07	4584
898.19	4622
898.311	4862
898.431	4672
898.552	4725
898.672	4801
898.792	4858
898.913	4698
899.033	4668
899.153	4531
899.273	4440
899.393	4421
899.513	4546
899.633	4580
899.753	4512
899.873	4508
899.993	4599
900.113	4546
900.232	4592
900.352	4535
900.472	4485
900.591	4417
900.711	4481
900.83	4428
900.95	4626
901.069	4683
901.189	4527
901.308	4390
901.427	4318
901.546	4405
901.665	4470
901.784	4508
901.904	4394
902.023	4303
902.141	4204
902.26	4147
902.379	4344
902.498	4261
902.617	4219
902.735	4402
902.854	4413
902.973	4352
903.091	4219
903.21	4207
903.328	4348
903.446	4299
903.565	4261
903.683	4386
903.801	4276
903.919	4386
904.038	4436
904.156	4314
904.274	4455
904.392	4363
904.51	4386
904.627	4489
904.745	4577
904.863	4637
904.981	4421
905.098	4261
905.216	4386
905.334	4386
905.451	4466
905.569	4443
905.686	4554
905.803	4565
905.921	4363
906.038	4531
906.155	4504
906.272	4443
906.389	4413
906.506	4390
906.623	4363
906.74	4394
906.857	4352
906.974	4379
907.091	4550
907.208	4691
907.324	4584
907.441	4504
907.557	4337
907.674	4356
907.79	4314
907.907	4383
908.023	4470
908.139	4481
908.256	4440
908.372	4440
908.488	4459
908.604	4344
908.72	4367
908.836	4421
908.952	4432
909.068	4455
909.184	4561
909.3	4523
909.415	4561
909.531	4603
909.647	4360
909.762	4356
909.878	4322
909.993	4421
910.108	4447
910.224	4402
910.339	4531
910.454	4405
910.57	4344
910.685	4291
910.8	4656
910.915	4588
911.03	4508
911.145	4291
911.259	4356
911.374	4405
911.489	4299
911.604	4284
911.718	4139
911.833	4204
911.947	4048
912.062	4040
912.176	4196
912.291	4253
912.405	4291
912.519	4459
912.633	4500
912.748	4383
912.862	4318
912.976	4207
913.09	4051
913.204	4143
913.318	4253
913.431	4371
913.545	4371
913.659	4466
913.772	4341
913.886	4238
914	4268
914.113	4367
914.226	4440
914.34	4409
914.453	4215
914.566	4436
914.68	4360
914.793	4367
914.906	4154
915.019	4135
915.132	4093
915.245	4169
915.358	4249
915.47	4234
915.583	4295
915.696	4303
915.809	4421
915.921	4421
916.034	4261
916.146	4230
916.259	4246
916.371	4367
916.483	4405
916.595	4265
916.708	4295
916.82	4356
916.932	4333
917.044	4310
917.156	4329
917.268	4230
917.38	4207
917.491	4276
917.603	4325
917.715	4417
917.826	4466
917.938	4352
918.049	4230
918.161	4375
918.272	4542
918.384	4546
918.495	4481
918.606	4303
918.717	4223
918.828	4322
918.939	4325
919.05	4265
919.161	4329
919.272	4124
919.383	4234
919.494	4451
919.604	4603
919.715	4455
919.826	4341
919.936	4371
920.047	4523
920.157	4440
920.267	4660
920.378	4523
920.488	4481
920.598	4660
920.708	4885
920.818	4702
920.928	4752
921.038	4957
921.148	4873
921.258	4615
921.368	4569
921.477	4493
921.587	4436
921.697	4371
921.806	4516
921.916	4424
922.025	4272
922.134	4272
922.244	4265
922.353	4348
922.462	4166
922.571	4093
922.68	4032
922.789	3964
922.898	4048
923.007	3994
923.116	4116
923.224	4048
923.333	4055
923.442	3998
923.55	3968
923.659	3964
923.767	4101
923.876	3926
923.984	4131
924.092	3991
924.201	4093
924.309	4074
924.417	4150
924.525	4063
924.633	4131
924.741	5071
924.849	3911
924.956	4105
925.064	3968
925.172	3884
925.279	3991
925.387	4006
925.494	4029
925.602	4234
925.709	4154
925.816	4097
925.924	4105
926.031	4253
926.138	4147
926.245	4211
926.352	4067
926.459	4196
926.566	4333
926.673	4150
926.779	4101
926.886	4055
926.993	4017
927.099	3896
927.206	3922
927.312	3926
927.419	4063
927.525	4017
927.631	4017
927.737	3930
927.843	3941
927.95	3869
928.056	3956
928.162	3968
928.267	4048
928.373	4702
928.479	4090
928.585	3854
928.69	4025
928.796	4067
928.901	3968
929.007	3823
929.112	3979
929.218	3968
929.323	3873
929.428	3896
929.533	4074
929.638	3911
929.743	3949
929.848	4051
929.953	3972
930.058	3915
930.163	3793
930.267	3804
930.372	3964
930.477	3819
930.581	4010
930.685	3972
930.79	3850
930.894	3892
930.998	3850
931.103	4036
931.207	3690
931.311	3713
931.415	3705
931.519	3545
931.623	3576
