Data from test_V78500241_811.txt Node
Date: Fri Mar 25 16:54:38 CST 2022
User: usil
Spectrometer: V785-0024
Trigger mode: 0
Integration Time (sec): 4.000000E-1
Scans to average: 1
Nonlinearity correction enabled: false
Boxcar width: 0
Storing dark spectrum: false
XAxis mode: Wavelengths
Number of Pixels in Spectrum: 1024
>>>>>Begin Spectral Data<<<<<
801.071	7963
801.214	7986
801.356	7845
801.499	7845
801.641	7845
801.783	7887
801.926	8031
802.068	7913
802.211	8005
802.353	7936
802.496	7852
802.638	7909
802.78	7921
802.923	7875
803.065	7879
803.208	7917
803.35	7978
803.492	8149
803.635	8176
803.777	7997
803.919	8077
804.061	8351
804.204	8134
804.346	8050
804.488	8008
804.63	8142
804.773	8058
804.915	8039
805.057	8279
805.199	8153
805.341	8214
805.483	8263
805.626	8172
805.768	8111
805.91	8161
806.052	8221
806.194	8046
806.336	8282
806.478	8054
806.62	8016
806.762	8073
806.904	8282
807.046	8412
807.188	8324
807.33	8279
807.472	8313
807.614	8149
807.756	8084
807.898	7959
808.04	7826
808.182	7860
808.324	7902
808.465	7871
808.607	8077
808.749	8046
808.891	8138
809.033	8221
809.174	8176
809.316	8012
809.458	8054
809.6	7921
809.741	7978
809.883	8012
810.025	8073
810.166	8031
810.308	8062
810.45	7997
810.591	7902
810.733	7799
810.875	7609
811.016	7552
811.158	7445
811.299	7556
811.441	7712
811.582	7715
811.724	7605
811.865	7506
812.007	7620
812.148	7586
812.29	7609
812.431	7753
812.573	7772
812.714	7917
812.855	8088
812.997	8142
813.138	8271
813.279	8161
813.421	8145
813.562	8024
813.703	7852
813.845	7738
813.986	7449
814.127	7266
814.268	7221
814.41	7251
814.551	7137
814.692	7137
814.833	6989
814.974	7072
815.115	7110
815.256	6973
815.397	6901
815.539	6920
815.68	6795
815.821	6760
815.962	6806
816.103	6814
816.244	6707
816.385	6646
816.526	6681
816.666	6464
816.807	6296
816.948	6483
817.089	6437
817.23	6441
817.371	6403
817.512	6331
817.653	6365
817.793	6342
817.934	6357
818.075	6452
818.216	6452
818.356	6422
818.497	6201
818.638	6049
818.778	6167
818.919	6159
819.06	6129
819.2	6277
819.341	6338
819.481	6437
819.622	6502
819.762	6688
819.903	6669
820.043	6662
820.184	6597
820.324	6532
820.465	6642
820.605	6593
820.746	6604
820.886	6525
821.026	6639
821.167	6707
821.307	6829
821.447	6741
821.588	6662
821.728	6525
821.868	6384
822.008	6292
822.149	6372
822.289	6391
822.429	6136
822.569	6045
822.709	6117
822.849	5920
822.99	5939
823.13	5923
823.27	5901
823.41	5745
823.55	5748
823.69	5771
823.83	5805
823.97	5688
824.11	5539
824.25	5505
824.389	5551
824.529	5528
824.669	5535
824.809	5634
824.949	5627
825.089	5627
825.228	5581
825.368	5383
825.508	5372
825.648	5307
825.787	5376
825.927	5368
826.067	5273
826.206	5273
826.346	5387
826.485	5387
826.625	5379
826.765	5497
826.904	5486
827.044	5212
827.183	5185
827.323	5132
827.462	5216
827.601	5162
827.741	5147
827.88	5227
828.02	5086
828.159	5239
828.298	5299
828.437	5357
828.577	5296
828.716	5440
828.855	5326
828.994	5170
829.134	5121
829.273	5117
829.412	5121
829.551	5121
829.69	5102
829.829	5227
829.968	5318
830.107	5250
830.246	5303
830.385	5162
830.524	5060
830.663	5056
830.802	4961
830.941	4911
831.08	4862
831.219	4930
831.357	4927
831.496	5151
831.635	4911
831.774	4805
831.913	4831
832.051	4759
832.19	4740
832.329	4774
832.467	4656
832.606	4599
832.744	4714
832.883	4660
833.022	4729
833.16	4763
833.299	4847
833.437	4839
833.576	4816
833.714	4839
833.852	4889
833.991	4862
834.129	4961
834.267	4908
834.406	4911
834.544	4976
834.682	5022
834.821	4991
834.959	5117
835.097	4999
835.235	5136
835.373	5029
835.511	5121
835.65	4987
835.788	5075
835.926	4889
836.064	4904
836.202	4942
836.34	5174
836.478	5178
836.615	5147
836.753	5201
836.891	5235
837.029	5212
837.167	5193
837.305	5155
837.443	5109
837.58	5041
837.718	5223
837.856	5174
837.993	5155
838.131	5231
838.269	5181
838.406	5166
838.544	5193
838.681	5014
838.819	5029
838.956	4862
839.094	4942
839.231	4976
839.369	5033
839.506	5383
839.643	5296
839.781	5033
839.918	5006
840.055	5041
840.193	5086
840.33	5143
840.467	5151
840.604	5204
840.742	5387
840.879	5029
841.016	5048
841.153	5128
841.29	5349
841.427	5326
841.564	5273
841.701	5353
841.838	5250
841.975	5223
842.112	5223
842.249	5105
842.385	5117
842.522	5326
842.659	5166
842.796	5128
842.933	5178
843.069	5162
843.206	5170
843.343	5326
843.479	5250
843.616	5239
843.752	5041
843.889	5025
844.025	5220
844.162	4961
844.298	5216
844.435	5071
844.571	5045
844.708	5216
844.844	5288
844.98	5315
845.117	5273
845.253	5166
845.389	5143
845.525	5071
845.661	5136
845.798	5052
845.934	5143
846.07	5064
846.206	5162
846.342	5334
846.478	5136
846.614	4987
846.75	4953
846.886	4946
847.022	5151
847.158	4965
847.294	5045
847.429	5105
847.565	5018
847.701	5280
847.837	4843
847.972	4816
848.108	4930
848.244	4938
848.379	4759
848.515	4748
848.65	4694
848.786	4740
848.921	4786
849.057	4866
849.192	4835
849.328	4809
849.463	4828
849.598	4820
849.734	4733
849.869	4702
850.004	4573
850.14	4691
850.275	4565
850.41	4508
850.545	4504
850.68	4622
850.815	4599
850.95	4599
851.085	4866
851.22	4740
851.355	4672
851.49	4607
851.625	4668
851.76	4615
851.895	4546
852.03	4535
852.165	4653
852.299	4736
852.434	4790
852.569	4717
852.703	4729
852.838	4797
852.973	4923
853.107	4915
853.242	4752
853.376	4675
853.511	4546
853.645	4558
853.78	4786
853.914	4714
854.048	4668
854.183	4634
854.317	4729
854.451	4847
854.585	4683
854.72	4679
854.854	4721
854.988	4607
855.122	4630
855.256	4504
855.39	4649
855.524	4778
855.658	4744
855.792	4653
855.926	4702
856.06	4778
856.194	4793
856.327	4656
856.461	4607
856.595	4622
856.729	4569
856.862	4771
856.996	4691
857.13	4672
857.263	4740
857.397	4786
857.53	4649
857.664	4706
857.797	4752
857.931	4767
858.064	4668
858.197	4725
858.331	4656
858.464	4615
858.597	4565
858.731	4607
858.864	4630
858.997	4542
859.13	4675
859.263	4660
859.396	4653
859.529	4622
859.662	4569
859.795	4546
859.928	4580
860.061	4763
860.194	4771
860.327	4599
860.46	4577
860.592	4717
860.725	4687
860.858	4683
860.99	4554
861.123	4504
861.256	4512
861.388	4611
861.521	5288
861.653	4508
861.786	4474
861.918	4451
862.05	4462
862.183	4542
862.315	4603
862.447	4577
862.58	4489
862.712	4386
862.844	4295
862.976	4504
863.108	4466
863.24	4870
863.372	4352
863.504	4383
863.636	4379
863.768	4462
863.9	4352
864.032	4356
864.164	4405
864.296	4455
864.428	4538
864.559	4542
864.691	4542
864.823	4523
864.954	4512
865.086	4519
865.217	4459
865.349	4367
865.48	4432
865.612	4478
865.743	4679
865.875	4470
866.006	4421
866.137	4455
866.269	4459
866.4	4432
866.531	4390
866.662	4383
866.793	4413
866.924	4417
867.055	4500
867.186	4462
867.317	4462
867.448	4405
867.579	4379
867.71	4390
867.841	4402
867.972	4474
868.103	4459
868.233	4417
868.364	4436
868.495	4512
868.625	4626
868.756	4702
868.886	4554
869.017	4626
869.147	4786
869.278	4771
869.408	4687
869.539	4660
869.669	4736
869.799	4618
869.929	4736
870.06	4771
870.19	4927
870.32	4843
870.45	4877
870.58	4949
870.71	5136
870.84	5121
870.97	4911
871.1	4881
871.23	5162
871.36	5086
871.489	5045
871.619	5064
871.749	5079
871.879	5102
872.008	5159
872.138	5075
872.267	4942
872.397	4805
872.526	4740
872.656	4717
872.785	4805
872.915	4949
873.044	5037
873.173	4930
873.303	4972
873.432	4930
873.561	4980
873.69	4881
873.819	4824
873.948	4866
874.077	4793
874.206	4771
874.335	4793
874.464	4930
874.593	5048
874.722	4911
874.851	5090
874.979	5067
875.108	5045
875.237	4908
875.365	4850
875.494	4877
875.623	4949
875.751	4812
875.88	4843
876.008	4984
876.136	5029
876.265	5170
876.393	5296
876.521	5242
876.65	5178
876.778	5132
876.906	5056
877.034	4995
877.162	5045
877.29	4972
877.418	5022
877.546	5052
877.674	5067
877.802	4995
877.93	5022
878.058	4911
878.185	4862
878.313	4999
878.441	4972
878.568	4774
878.696	4896
878.824	4870
878.951	4984
879.079	5181
879.206	5277
879.333	5079
879.461	4957
879.588	4999
879.715	5098
879.842	5227
879.97	4991
880.097	4816
880.224	4733
880.351	4786
880.478	4790
880.605	4774
880.732	4835
880.859	5064
880.986	4873
881.112	4908
881.239	4797
881.366	4645
881.493	4634
881.619	4603
881.746	4615
881.872	4626
881.999	4641
882.125	4656
882.252	4835
882.378	4850
882.505	4919
882.631	4801
882.757	4706
882.883	4759
883.01	4687
883.136	4637
883.262	4569
883.388	4615
883.514	4828
883.64	4843
883.766	4748
883.892	4637
884.018	4653
884.143	4858
884.269	5003
884.395	4641
884.52	4626
884.646	4584
884.772	4561
884.897	4565
885.023	4637
885.148	4797
885.274	4854
885.399	4835
885.524	4721
885.65	4691
885.775	4714
885.9	4717
886.025	4892
886.15	4763
886.275	4679
886.4	4683
886.525	4702
886.65	4664
886.775	4675
886.9	4919
887.025	5045
887.149	4782
887.274	4691
887.399	4611
887.523	4596
887.648	4497
887.773	4603
887.897	4748
888.021	4786
888.146	4683
888.27	4809
888.395	4885
888.519	4801
888.643	4793
888.767	4782
888.891	4668
889.015	4596
889.139	4656
889.263	4603
889.387	4763
889.511	4889
889.635	4790
889.759	4634
889.883	4618
890.006	4729
890.13	4889
890.254	4630
890.377	4611
890.501	4516
890.624	4542
890.748	4622
890.871	4493
890.995	4466
891.118	4363
891.241	4554
891.364	4443
891.488	4622
891.611	4523
891.734	4531
891.857	4569
891.98	4527
892.103	4569
892.226	4603
892.349	4592
892.471	4440
892.594	4546
892.717	4584
892.839	4596
892.962	4626
893.085	4649
893.207	4561
893.33	4440
893.452	4436
893.575	4645
893.697	4546
893.819	4790
893.941	4805
894.064	4721
894.186	4565
894.308	4577
894.43	4759
894.552	4782
894.674	4786
894.796	4584
894.918	4611
895.04	4546
895.161	4714
895.283	4653
895.405	4569
895.526	4603
895.648	4736
895.769	4672
895.891	4714
896.012	4729
896.134	4717
896.255	4668
896.376	4615
896.498	4641
896.619	4630
896.74	4611
896.861	4615
896.982	4946
897.103	5064
897.224	4847
897.345	4729
897.466	4649
897.587	4729
897.708	4866
897.828	4774
897.949	4645
898.07	4565
898.19	4645
898.311	4820
898.431	4626
898.552	4672
898.672	4839
898.792	4786
898.913	4721
899.033	4596
899.153	4489
899.273	4470
899.393	4481
899.513	4535
899.633	4478
899.753	4542
899.873	4519
899.993	4565
900.113	4546
900.232	4615
900.352	4512
900.472	4447
900.591	4455
900.711	4470
900.83	4402
900.95	4618
901.069	4679
901.189	4561
901.308	4352
901.427	4306
901.546	4367
901.665	4447
901.784	4516
901.904	4367
902.023	4325
902.141	4162
902.26	4177
902.379	4303
902.498	4246
902.617	4192
902.735	4386
902.854	4375
902.973	4306
903.091	4207
903.21	4158
903.328	4295
903.446	4272
903.565	4272
903.683	4360
903.801	4276
903.919	4394
904.038	4447
904.156	4333
904.274	4398
904.392	4421
904.51	4424
904.627	4504
904.745	4538
904.863	4653
904.981	4421
905.098	4299
905.216	4375
905.334	4436
905.451	4451
905.569	4421
905.686	4592
905.803	4607
905.921	4398
906.038	4573
906.155	4428
906.272	4432
906.389	4497
906.506	4314
906.623	4367
906.74	4352
906.857	4337
906.974	4394
907.091	4596
907.208	4656
907.324	4569
907.441	4497
907.557	4291
907.674	4333
907.79	4322
907.907	4363
908.023	4489
908.139	4478
908.256	4375
908.372	4466
908.488	4428
908.604	4356
908.72	4329
908.836	4363
908.952	4390
909.068	4428
909.184	4580
909.3	4474
909.415	4565
909.531	4554
909.647	4314
909.762	4348
909.878	4363
909.993	4402
910.108	4390
910.224	4371
910.339	4466
910.454	4409
910.57	4363
910.685	4310
910.8	4687
910.915	4611
911.03	4508
911.145	4337
911.259	4333
911.374	4337
911.489	4280
911.604	4257
911.718	4181
911.833	4196
911.947	4059
912.062	4017
912.176	4211
912.291	4227
912.405	4234
912.519	4459
912.633	4493
912.748	4348
912.862	4287
912.976	4204
913.09	4078
913.204	4147
913.318	4204
913.431	4348
913.545	4363
913.659	4455
913.772	4333
913.886	4257
914	4192
914.113	4318
914.226	4371
914.34	4409
914.453	4246
914.566	4428
914.68	4230
914.793	4341
914.906	4181
915.019	4116
915.132	4097
915.245	4112
915.358	4173
915.47	4158
915.583	4280
915.696	4306
915.809	4443
915.921	4413
916.034	4204
916.146	4238
916.259	4177
916.371	4348
916.483	4329
916.595	4261
916.708	4295
916.82	4295
916.932	4306
917.044	4318
917.156	4337
917.268	4246
917.38	4284
917.491	4280
917.603	4344
917.715	4428
917.826	4428
917.938	4348
918.049	4238
918.161	4409
918.272	4527
918.384	4542
918.495	4424
918.606	4310
918.717	4177
918.828	4356
918.939	4363
919.05	4295
919.161	4333
919.272	4185
919.383	4253
919.494	4443
919.604	4634
919.715	4447
919.826	4310
919.936	4394
920.047	4493
920.157	4462
920.267	4721
920.378	4535
920.488	4493
920.598	4698
920.708	4919
920.818	4721
920.928	4759
921.038	4946
921.148	4923
921.258	4653
921.368	4542
921.477	4508
921.587	4470
921.697	4352
921.806	4493
921.916	4447
922.025	4246
922.134	4318
922.244	4181
922.353	4379
922.462	4166
922.571	4105
922.68	4021
922.789	3975
922.898	4025
923.007	4002
923.116	4139
923.224	4048
923.333	4059
923.442	3998
923.55	3972
923.659	4040
923.767	4105
923.876	3998
923.984	4139
924.092	3968
924.201	4063
924.309	4105
924.417	4124
924.525	4010
924.633	4147
924.741	4877
924.849	3915
924.956	4169
925.064	3960
925.172	3892
925.279	3956
925.387	4067
925.494	4040
925.602	4227
925.709	4219
925.816	3991
925.924	4128
926.031	4230
926.138	4173
926.245	4139
926.352	4131
926.459	4227
926.566	4318
926.673	4158
926.779	4105
926.886	4051
926.993	3994
927.099	3934
927.206	3941
927.312	3945
927.419	4006
927.525	3983
927.631	4143
927.737	3979
927.843	3934
927.95	3797
928.056	3934
928.162	3964
928.267	4006
928.373	4645
928.479	4059
928.585	3869
928.69	3991
928.796	4067
928.901	3975
929.007	3835
929.112	4063
929.218	3991
929.323	3937
929.428	3915
929.533	4124
929.638	3899
929.743	3934
929.848	4036
929.953	3964
930.058	3903
930.163	3774
930.267	3785
930.372	3998
930.477	3800
930.581	4093
930.685	3964
930.79	3808
930.894	3827
930.998	3835
931.103	4025
931.207	3690
931.311	3686
931.415	3614
931.519	3507
931.623	3538
