Data from test_V78500241_1009.txt Node
Date: Fri Mar 25 16:56:01 CST 2022
User: usil
Spectrometer: V785-0024
Trigger mode: 0
Integration Time (sec): 4.000000E-1
Scans to average: 1
Nonlinearity correction enabled: false
Boxcar width: 0
Storing dark spectrum: false
XAxis mode: Wavelengths
Number of Pixels in Spectrum: 1024
>>>>>Begin Spectral Data<<<<<
801.071	8084
801.214	8039
801.356	7784
801.499	7845
801.641	7681
801.783	7807
801.926	7868
802.068	7833
802.211	7909
802.353	7982
802.496	7780
802.638	7841
802.78	7921
802.923	7902
803.065	7776
803.208	7852
803.35	7928
803.492	8096
803.635	8176
803.777	7955
803.919	8176
804.061	8362
804.204	8077
804.346	7989
804.488	7936
804.63	8100
804.773	7928
804.915	8035
805.057	8279
805.199	8107
805.341	8206
805.483	8202
805.626	8172
805.768	8081
805.91	8225
806.052	8187
806.194	8081
806.336	8206
806.478	8134
806.62	8058
806.762	8130
806.904	8256
807.046	8396
807.188	8355
807.33	8313
807.472	8290
807.614	8149
807.756	8077
807.898	7974
808.04	7875
808.182	7883
808.324	7883
808.465	7902
808.607	8001
808.749	8088
808.891	8134
809.033	8282
809.174	8218
809.316	8096
809.458	8046
809.6	8005
809.741	7993
809.883	8024
810.025	8031
810.166	8077
810.308	8054
810.45	8058
810.591	7822
810.733	7719
810.875	7681
811.016	7514
811.158	7499
811.299	7601
811.441	7708
811.582	7647
811.724	7563
811.865	7518
812.007	7567
812.148	7586
812.29	7704
812.431	7757
812.573	7868
812.714	8016
812.855	8119
812.997	8240
813.138	8358
813.279	8168
813.421	8130
813.562	8119
813.703	7898
813.845	7807
813.986	7510
814.127	7285
814.268	7263
814.41	7221
814.551	7133
814.692	7126
814.833	7129
814.974	7050
815.115	7137
815.256	7027
815.397	6848
815.539	6973
815.68	6814
815.821	6825
815.962	6859
816.103	6878
816.244	6726
816.385	6662
816.526	6650
816.666	6525
816.807	6304
816.948	6467
817.089	6486
817.23	6479
817.371	6433
817.512	6422
817.653	6372
817.793	6395
817.934	6467
818.075	6460
818.216	6422
818.356	6365
818.497	6213
818.638	6121
818.778	6117
818.919	6159
819.06	6209
819.2	6300
819.341	6414
819.481	6391
819.622	6540
819.762	6722
819.903	6715
820.043	6703
820.184	6601
820.324	6582
820.465	6669
820.605	6639
820.746	6597
820.886	6490
821.026	6703
821.167	6707
821.307	6875
821.447	6745
821.588	6612
821.728	6563
821.868	6521
822.008	6334
822.149	6391
822.289	6410
822.429	6144
822.569	6064
822.709	6148
822.849	5923
822.99	5950
823.13	5939
823.27	5950
823.41	5756
823.55	5798
823.69	5726
823.83	5756
823.97	5733
824.11	5551
824.25	5551
824.389	5585
824.529	5566
824.669	5490
824.809	5627
824.949	5668
825.089	5630
825.228	5604
825.368	5402
825.508	5345
825.648	5345
825.787	5353
825.927	5372
826.067	5303
826.206	5303
826.346	5372
826.485	5421
826.625	5455
826.765	5547
826.904	5486
827.044	5254
827.183	5254
827.323	5162
827.462	5231
827.601	5197
827.741	5174
827.88	5220
828.02	5121
828.159	5242
828.298	5311
828.437	5368
828.577	5311
828.716	5474
828.855	5296
828.994	5166
829.134	5193
829.273	5231
829.412	5151
829.551	5143
829.69	5208
829.829	5269
829.968	5349
830.107	5307
830.246	5311
830.385	5193
830.524	5117
830.663	5083
830.802	4965
830.941	4908
831.08	4942
831.219	5003
831.357	5018
831.496	5102
831.635	4946
831.774	4896
831.913	4831
832.051	4748
832.19	4778
832.329	4881
832.467	4752
832.606	4664
832.744	4740
832.883	4767
833.022	4778
833.16	4812
833.299	4873
833.437	4778
833.576	4828
833.714	4866
833.852	4927
833.991	4942
834.129	5018
834.267	4965
834.406	4919
834.544	5014
834.682	4987
834.821	4984
834.959	5204
835.097	5006
835.235	5204
835.373	5132
835.511	5079
835.65	5079
835.788	5083
835.926	4930
836.064	4885
836.202	4949
836.34	5143
836.478	5231
836.615	5124
836.753	5189
836.891	5303
837.029	5239
837.167	5185
837.305	5227
837.443	5162
837.58	5090
837.718	5227
837.856	5185
837.993	5201
838.131	5242
838.269	5250
838.406	5197
838.544	5235
838.681	5022
838.819	5010
838.956	4911
839.094	4900
839.231	5014
839.369	5083
839.506	5474
839.643	5261
839.781	5037
839.918	5029
840.055	5159
840.193	5170
840.33	5124
840.467	5079
840.604	5197
840.742	5528
840.879	5098
841.016	5170
841.153	5117
841.29	5402
841.427	5341
841.564	5315
841.701	5334
841.838	5273
841.975	5208
842.112	5296
842.249	5151
842.385	5155
842.522	5334
842.659	5212
842.796	5132
842.933	5216
843.069	5204
843.206	5166
843.343	5265
843.479	5212
843.616	5296
843.752	5003
843.889	5006
844.025	5227
844.162	5045
844.298	5273
844.435	5067
844.571	5067
844.708	5181
844.844	5315
844.98	5341
845.117	5318
845.253	5079
845.389	5102
845.525	5204
845.661	5147
845.798	5033
845.934	5140
846.07	5048
846.206	5181
846.342	5273
846.478	5159
846.614	5045
846.75	5014
846.886	4961
847.022	5128
847.158	5067
847.294	5079
847.429	5090
847.565	5067
847.701	5269
847.837	4889
847.972	4831
848.108	5018
848.244	4946
848.379	4771
848.515	4740
848.65	4778
848.786	4793
848.921	4797
849.057	4850
849.192	4900
849.328	4801
849.463	4828
849.598	4774
849.734	4740
849.869	4717
850.004	4664
850.14	4710
850.275	4599
850.41	4561
850.545	4527
850.68	4630
850.815	4561
850.95	4580
851.085	4870
851.22	4725
851.355	4736
851.49	4641
851.625	4645
851.76	4668
851.895	4618
852.03	4542
852.165	4653
852.299	4721
852.434	4790
852.569	4778
852.703	4805
852.838	4866
852.973	4934
853.107	4953
853.242	4740
853.376	4653
853.511	4596
853.645	4641
853.78	4820
853.914	4691
854.048	4698
854.183	4626
854.317	4717
854.451	4816
854.585	4687
854.72	4634
854.854	4793
854.988	4634
855.122	4630
855.256	4531
855.39	4679
855.524	4771
855.658	4752
855.792	4679
855.926	4729
856.06	4771
856.194	4816
856.327	4717
856.461	4626
856.595	4637
856.729	4634
856.862	4721
856.996	4672
857.13	4801
857.263	4759
857.397	4805
857.53	4626
857.664	4694
857.797	4744
857.931	4755
858.064	4691
858.197	4694
858.331	4656
858.464	4618
858.597	4504
858.731	4618
858.864	4622
858.997	4607
859.13	4664
859.263	4714
859.396	4725
859.529	4634
859.662	4558
859.795	4561
859.928	4660
860.061	4763
860.194	4717
860.327	4622
860.46	4607
860.592	4675
860.725	4710
860.858	4774
860.99	4592
861.123	4527
861.256	4512
861.388	4630
861.521	5254
861.653	4485
861.786	4451
861.918	4474
862.05	4565
862.183	4596
862.315	4596
862.447	4641
862.58	4561
862.712	4413
862.844	4363
862.976	4443
863.108	4497
863.24	4850
863.372	4325
863.504	4402
863.636	4413
863.768	4489
863.9	4455
864.032	4329
864.164	4363
864.296	4424
864.428	4523
864.559	4565
864.691	4573
864.823	4485
864.954	4489
865.086	4474
865.217	4478
865.349	4386
865.48	4497
865.612	4542
865.743	4653
865.875	4512
866.006	4451
866.137	4481
866.269	4481
866.4	4436
866.531	4466
866.662	4398
866.793	4413
866.924	4436
867.055	4519
867.186	4462
867.317	4428
867.448	4348
867.579	4424
867.71	4386
867.841	4413
867.972	4478
868.103	4470
868.233	4474
868.364	4516
868.495	4504
868.625	4668
868.756	4740
868.886	4554
869.017	4611
869.147	4763
869.278	4752
869.408	4653
869.539	4645
869.669	4740
869.799	4698
869.929	4759
870.06	4710
870.19	4972
870.32	4896
870.45	4961
870.58	5014
870.71	5094
870.84	5147
870.97	4896
871.1	4908
871.23	5136
871.36	5109
871.489	4987
871.619	5056
871.749	5052
871.879	5124
872.008	5178
872.138	5037
872.267	4987
872.397	4824
872.526	4816
872.656	4714
872.785	4778
872.915	4984
873.044	5033
873.173	4930
873.303	4885
873.432	4927
873.561	4946
873.69	4896
873.819	4847
873.948	4889
874.077	4809
874.206	4767
874.335	4721
874.464	4889
874.593	5056
874.722	4942
874.851	5121
874.979	5071
875.108	5067
875.237	4889
875.365	4873
875.494	4873
875.623	4942
875.751	4820
875.88	4881
876.008	4949
876.136	5037
876.265	5178
876.393	5307
876.521	5311
876.65	5269
876.778	5151
876.906	5048
877.034	5037
877.162	5109
877.29	4968
877.418	5086
877.546	5037
877.674	5075
877.802	5098
877.93	5098
878.058	4953
878.185	4900
878.313	4957
878.441	4946
878.568	4831
878.696	4949
878.824	4980
878.951	5018
879.079	5128
879.206	5280
879.333	5151
879.461	5010
879.588	5014
879.715	5143
879.842	5269
879.97	5025
880.097	4862
880.224	4763
880.351	4877
880.478	4858
880.605	4870
880.732	4862
880.859	5121
880.986	4904
881.112	4946
881.239	4748
881.366	4714
881.493	4668
881.619	4668
881.746	4664
881.872	4725
881.999	4706
882.125	4733
882.252	4854
882.378	4850
882.505	5006
882.631	4870
882.757	4687
882.883	4790
883.01	4733
883.136	4668
883.262	4645
883.388	4599
883.514	4881
883.64	4885
883.766	4824
883.892	4717
884.018	4744
884.143	4938
884.269	4999
884.395	4714
884.52	4653
884.646	4687
884.772	4622
884.897	4630
885.023	4725
885.148	4797
885.274	4919
885.399	4820
885.524	4702
885.65	4717
885.775	4744
885.9	4736
886.025	4877
886.15	4816
886.275	4752
886.4	4755
886.525	4790
886.65	4733
886.775	4714
886.9	4930
887.025	5037
887.149	4847
887.274	4698
887.399	4668
887.523	4637
887.648	4675
887.773	4618
887.897	4778
888.021	4828
888.146	4714
888.27	4850
888.395	4904
888.519	4873
888.643	4896
888.767	4831
888.891	4740
889.015	4656
889.139	4694
889.263	4675
889.387	4786
889.511	4896
889.635	4858
889.759	4694
889.883	4679
890.006	4767
890.13	4816
890.254	4622
890.377	4679
890.501	4626
890.624	4554
890.748	4637
890.871	4508
890.995	4436
891.118	4402
891.241	4554
891.364	4542
891.488	4679
891.611	4497
891.734	4584
891.857	4615
891.98	4535
892.103	4664
892.226	4615
892.349	4523
892.471	4474
892.594	4527
892.717	4645
892.839	4607
892.962	4637
893.085	4721
893.207	4653
893.33	4451
893.452	4580
893.575	4656
893.697	4577
893.819	4801
893.941	4858
894.064	4793
894.186	4584
894.308	4573
894.43	4717
894.552	4877
894.674	4752
894.796	4592
894.918	4599
895.04	4599
895.161	4740
895.283	4660
895.405	4607
895.526	4675
895.648	4702
895.769	4702
895.891	4736
896.012	4767
896.134	4752
896.255	4649
896.376	4698
896.498	4660
896.619	4710
896.74	4637
896.861	4702
896.982	4908
897.103	5094
897.224	4816
897.345	4755
897.466	4691
897.587	4736
897.708	4881
897.828	4812
897.949	4717
898.07	4596
898.19	4668
898.311	4850
898.431	4710
898.552	4733
898.672	4824
898.792	4809
898.913	4755
899.033	4683
899.153	4519
899.273	4432
899.393	4535
899.513	4577
899.633	4512
899.753	4558
899.873	4550
899.993	4584
900.113	4561
900.232	4577
900.352	4573
900.472	4497
900.591	4424
900.711	4516
900.83	4485
900.95	4649
901.069	4729
901.189	4592
901.308	4402
901.427	4348
901.546	4409
901.665	4443
901.784	4493
901.904	4405
902.023	4371
902.141	4169
902.26	4211
902.379	4333
902.498	4272
902.617	4287
902.735	4402
902.854	4413
902.973	4375
903.091	4204
903.21	4272
903.328	4295
903.446	4306
903.565	4261
903.683	4413
903.801	4322
903.919	4436
904.038	4451
904.156	4325
904.274	4451
904.392	4421
904.51	4447
904.627	4504
904.745	4656
904.863	4660
904.981	4379
905.098	4287
905.216	4432
905.334	4462
905.451	4413
905.569	4497
905.686	4603
905.803	4611
905.921	4428
906.038	4596
906.155	4493
906.272	4459
906.389	4508
906.506	4405
906.623	4443
906.74	4417
906.857	4367
906.974	4409
907.091	4584
907.208	4710
907.324	4630
907.441	4523
907.557	4379
907.674	4371
907.79	4344
907.907	4413
908.023	4497
908.139	4523
908.256	4489
908.372	4462
908.488	4459
908.604	4409
908.72	4329
908.836	4398
908.952	4371
909.068	4436
909.184	4615
909.3	4500
909.415	4603
909.531	4569
909.647	4371
909.762	4375
909.878	4390
909.993	4436
910.108	4413
910.224	4432
910.339	4493
910.454	4443
910.57	4390
910.685	4303
910.8	4717
910.915	4599
911.03	4508
911.145	4375
911.259	4329
911.374	4325
911.489	4280
911.604	4314
911.718	4177
911.833	4246
911.947	4074
912.062	4059
912.176	4249
912.291	4257
912.405	4268
912.519	4493
912.633	4489
912.748	4402
912.862	4344
912.976	4242
913.09	4071
913.204	4169
913.318	4287
913.431	4367
913.545	4363
913.659	4459
913.772	4337
913.886	4295
914	4223
914.113	4390
914.226	4462
914.34	4409
914.453	4246
914.566	4436
914.68	4295
914.793	4367
914.906	4154
915.019	4147
915.132	4090
915.245	4246
915.358	4249
915.47	4238
915.583	4215
915.696	4356
915.809	4394
915.921	4417
916.034	4265
916.146	4280
916.259	4215
916.371	4398
916.483	4348
916.595	4234
916.708	4363
916.82	4303
916.932	4341
917.044	4318
917.156	4337
917.268	4230
917.38	4299
917.491	4337
917.603	4356
917.715	4421
917.826	4478
917.938	4363
918.049	4238
918.161	4386
918.272	4538
918.384	4577
918.495	4462
918.606	4322
918.717	4211
918.828	4363
918.939	4402
919.05	4284
919.161	4344
919.272	4177
919.383	4265
919.494	4451
919.604	4630
919.715	4462
919.826	4394
919.936	4421
920.047	4565
920.157	4516
920.267	4694
920.378	4558
920.488	4519
920.598	4702
920.708	4919
920.818	4774
920.928	4782
921.038	4957
921.148	4942
921.258	4630
921.368	4558
921.477	4527
921.587	4451
921.697	4375
921.806	4554
921.916	4447
922.025	4265
922.134	4268
922.244	4188
922.353	4344
922.462	4177
922.571	4204
922.68	4067
922.789	4013
922.898	4086
923.007	3983
923.116	4128
923.224	4116
923.333	4109
923.442	4006
923.55	3994
923.659	4040
923.767	4131
923.876	4021
923.984	4120
924.092	4002
924.201	4158
924.309	4074
924.417	4147
924.525	4074
924.633	4124
924.741	5090
924.849	3979
924.956	4105
925.064	3979
925.172	3903
925.279	3956
925.387	4078
925.494	4090
925.602	4242
925.709	4185
925.816	4044
925.924	4139
926.031	4196
926.138	4211
926.245	4192
926.352	4090
926.459	4230
926.566	4356
926.673	4196
926.779	4032
926.886	4093
926.993	3979
927.099	3994
927.206	3945
927.312	3956
927.419	4021
927.525	4032
927.631	4055
927.737	3953
927.843	3930
927.95	3880
928.056	3934
928.162	3953
928.267	4105
928.373	4668
928.479	4162
928.585	3892
928.69	4048
928.796	4112
928.901	3994
929.007	3876
929.112	4055
929.218	3979
929.323	3937
929.428	3972
929.533	4093
929.638	3907
929.743	3975
929.848	4006
929.953	4002
930.058	3949
930.163	3812
930.267	3842
930.372	4013
930.477	3831
930.581	4124
930.685	3991
930.79	3846
930.894	3899
930.998	3854
931.103	4044
931.207	3743
931.311	3713
931.415	3705
931.519	3526
931.623	3557
