Data from test_V78500241_1251.txt Node
Date: Fri Mar 25 16:57:41 CST 2022
User: usil
Spectrometer: V785-0024
Trigger mode: 0
Integration Time (sec): 4.000000E-1
Scans to average: 1
Nonlinearity correction enabled: false
Boxcar width: 0
Storing dark spectrum: false
XAxis mode: Wavelengths
Number of Pixels in Spectrum: 1024
>>>>>Begin Spectral Data<<<<<
801.071	7967
801.214	8027
801.356	7921
801.499	7868
801.641	7769
801.783	7807
801.926	7982
802.068	7913
802.211	7940
802.353	7936
802.496	7792
802.638	7845
802.78	7932
802.923	7940
803.065	7887
803.208	7898
803.35	7913
803.492	8077
803.635	8153
803.777	8012
803.919	8176
804.061	8400
804.204	8103
804.346	8088
804.488	7940
804.63	8168
804.773	8024
804.915	8176
805.057	8301
805.199	8115
805.341	8157
805.483	8298
805.626	8142
805.768	8107
805.91	8191
806.052	8210
806.194	8111
806.336	8248
806.478	8077
806.62	8035
806.762	8221
806.904	8267
807.046	8438
807.188	8339
807.33	8271
807.472	8336
807.614	8142
807.756	8084
807.898	7978
808.04	7879
808.182	7940
808.324	7974
808.465	7959
808.607	8145
808.749	8199
808.891	8240
809.033	8225
809.174	8210
809.316	8058
809.458	7982
809.6	7970
809.741	8069
809.883	8050
810.025	8092
810.166	8035
810.308	8031
810.45	8005
810.591	7883
810.733	7655
810.875	7628
811.016	7525
811.158	7457
811.299	7540
811.441	7731
811.582	7689
811.724	7567
811.865	7445
812.007	7559
812.148	7575
812.29	7719
812.431	7734
812.573	7830
812.714	7986
812.855	8058
812.997	8218
813.138	8298
813.279	8168
813.421	8092
813.562	7940
813.703	7898
813.845	7784
813.986	7419
814.127	7194
814.268	7194
814.41	7202
814.551	7095
814.692	7175
814.833	7046
814.974	7122
815.115	7072
815.256	6970
815.397	6894
815.539	6924
815.68	6802
815.821	6806
815.962	6764
816.103	6798
816.244	6722
816.385	6566
816.526	6570
816.666	6467
816.807	6262
816.948	6471
817.089	6479
817.23	6422
817.371	6384
817.512	6365
817.653	6376
817.793	6342
817.934	6452
818.075	6441
818.216	6429
818.356	6391
818.497	6213
818.638	6083
818.778	6140
818.919	6121
819.06	6121
819.2	6292
819.341	6289
819.481	6395
819.622	6506
819.762	6711
819.903	6760
820.043	6540
820.184	6601
820.324	6506
820.465	6650
820.605	6650
820.746	6642
820.886	6540
821.026	6646
821.167	6741
821.307	6795
821.447	6738
821.588	6738
821.728	6551
821.868	6509
822.008	6361
822.149	6289
822.289	6369
822.429	6121
822.569	6079
822.709	6167
822.849	6022
822.99	5950
823.13	5904
823.27	5950
823.41	5847
823.55	5786
823.69	5779
823.83	5824
823.97	5695
824.11	5581
824.25	5516
824.389	5604
824.529	5615
824.669	5573
824.809	5634
824.949	5714
825.089	5653
825.228	5562
825.368	5376
825.508	5398
825.648	5440
825.787	5406
825.927	5414
826.067	5353
826.206	5303
826.346	5421
826.485	5455
826.625	5379
826.765	5585
826.904	5505
827.044	5239
827.183	5227
827.323	5185
827.462	5303
827.601	5212
827.741	5246
827.88	5254
828.02	5189
828.159	5311
828.298	5376
828.437	5414
828.577	5330
828.716	5490
828.855	5357
828.994	5201
829.134	5201
829.273	5288
829.412	5136
829.551	5193
829.69	5242
829.829	5296
829.968	5334
830.107	5318
830.246	5296
830.385	5193
830.524	5201
830.663	5045
830.802	5037
830.941	4927
831.08	4885
831.219	4965
831.357	4976
831.496	5185
831.635	4984
831.774	4831
831.913	4843
832.051	4729
832.19	4805
832.329	4949
832.467	4721
832.606	4626
832.744	4721
832.883	4748
833.022	4755
833.16	4839
833.299	4873
833.437	4843
833.576	4873
833.714	4786
833.852	4881
833.991	4892
834.129	4972
834.267	4938
834.406	4927
834.544	4984
834.682	4980
834.821	4968
834.959	5231
835.097	5003
835.235	5132
835.373	5143
835.511	5140
835.65	5083
835.788	4991
835.926	4908
836.064	4896
836.202	4946
836.34	5208
836.478	5231
836.615	5155
836.753	5223
836.891	5307
837.029	5246
837.167	5246
837.305	5201
837.443	5170
837.58	5124
837.718	5280
837.856	5197
837.993	5174
838.131	5227
838.269	5181
838.406	5204
838.544	5246
838.681	5048
838.819	4980
838.956	4904
839.094	4930
839.231	5022
839.369	5102
839.506	5417
839.643	5284
839.781	5109
839.918	5064
840.055	5128
840.193	5143
840.33	5102
840.467	5117
840.604	5216
840.742	5433
840.879	5098
841.016	5136
841.153	5155
841.29	5364
841.427	5292
841.564	5322
841.701	5391
841.838	5261
841.975	5292
842.112	5277
842.249	5193
842.385	5136
842.522	5376
842.659	5216
842.796	5159
842.933	5220
843.069	5197
843.206	5212
843.343	5368
843.479	5269
843.616	5277
843.752	5086
843.889	5052
844.025	5273
844.162	4984
844.298	5208
844.435	5071
844.571	5045
844.708	5246
844.844	5353
844.98	5330
845.117	5330
845.253	5136
845.389	5060
845.525	5170
845.661	5147
845.798	5094
845.934	5162
846.07	5071
846.206	5223
846.342	5269
846.478	5189
846.614	5010
846.75	5048
846.886	4991
847.022	5166
847.158	5006
847.294	5090
847.429	5143
847.565	5083
847.701	5261
847.837	4870
847.972	4843
848.108	4976
848.244	4957
848.379	4824
848.515	4733
848.65	4683
848.786	4771
848.921	4790
849.057	4896
849.192	4904
849.328	4816
849.463	4866
849.598	4862
849.734	4778
849.869	4744
850.004	4675
850.14	4694
850.275	4660
850.41	4531
850.545	4611
850.68	4637
850.815	4649
850.95	4664
851.085	4923
851.22	4812
851.355	4698
851.49	4634
851.625	4660
851.76	4668
851.895	4599
852.03	4573
852.165	4637
852.299	4763
852.434	4831
852.569	4763
852.703	4752
852.838	4896
852.973	4949
853.107	4938
853.242	4744
853.376	4698
853.511	4577
853.645	4603
853.78	4778
853.914	4698
854.048	4710
854.183	4626
854.317	4672
854.451	4847
854.585	4683
854.72	4668
854.854	4771
854.988	4599
855.122	4721
855.256	4504
855.39	4675
855.524	4816
855.658	4702
855.792	4714
855.926	4736
856.06	4759
856.194	4850
856.327	4675
856.461	4634
856.595	4694
856.729	4637
856.862	4736
856.996	4672
857.13	4714
857.263	4790
857.397	4828
857.53	4725
857.664	4755
857.797	4771
857.931	4790
858.064	4653
858.197	4752
858.331	4664
858.464	4592
858.597	4538
858.731	4622
858.864	4660
858.997	4611
859.13	4649
859.263	4725
859.396	4660
859.529	4527
859.662	4535
859.795	4535
859.928	4660
860.061	4824
860.194	4797
860.327	4626
860.46	4618
860.592	4702
860.725	4748
860.858	4675
860.99	4607
861.123	4535
861.256	4558
861.388	4675
861.521	5345
861.653	4493
861.786	4459
861.918	4538
862.05	4558
862.183	4584
862.315	4630
862.447	4687
862.58	4550
862.712	4386
862.844	4291
862.976	4447
863.108	4478
863.24	4896
863.372	4318
863.504	4417
863.636	4398
863.768	4535
863.9	4436
864.032	4360
864.164	4409
864.296	4516
864.428	4603
864.559	4596
864.691	4500
864.823	4497
864.954	4523
865.086	4565
865.217	4481
865.349	4455
865.48	4451
865.612	4489
865.743	4626
865.875	4523
866.006	4470
866.137	4462
866.269	4478
866.4	4470
866.531	4409
866.662	4413
866.793	4470
866.924	4478
867.055	4470
867.186	4440
867.317	4462
867.448	4379
867.579	4424
867.71	4421
867.841	4363
867.972	4447
868.103	4447
868.233	4455
868.364	4519
868.495	4474
868.625	4615
868.756	4774
868.886	4550
869.017	4630
869.147	4820
869.278	4774
869.408	4714
869.539	4630
869.669	4740
869.799	4702
869.929	4710
870.06	4736
870.19	4938
870.32	4961
870.45	4934
870.58	4999
870.71	5067
870.84	5159
870.97	4915
871.1	4892
871.23	5086
871.36	5113
871.489	5003
871.619	5052
871.749	5132
871.879	5121
872.008	5212
872.138	5045
872.267	4995
872.397	4889
872.526	4831
872.656	4698
872.785	4805
872.915	4953
873.044	5029
873.173	4976
873.303	4968
873.432	4938
873.561	4942
873.69	4847
873.819	4881
873.948	4934
874.077	4862
874.206	4782
874.335	4831
874.464	4915
874.593	5086
874.722	4904
874.851	5128
874.979	5041
875.108	5056
875.237	4885
875.365	4896
875.494	4885
875.623	4984
875.751	4831
875.88	4873
876.008	4991
876.136	5094
876.265	5197
876.393	5311
876.521	5212
876.65	5231
876.778	5220
876.906	5109
877.034	5048
877.162	5041
877.29	5037
877.418	5037
877.546	5071
877.674	5075
877.802	5010
877.93	4984
878.058	4942
878.185	4923
878.313	4987
878.441	4938
878.568	4812
878.696	4881
878.824	4980
878.951	5014
879.079	5155
879.206	5311
879.333	5102
879.461	4942
879.588	4984
879.715	5117
879.842	5216
879.97	5060
880.097	4778
880.224	4786
880.351	4828
880.478	4831
880.605	4740
880.732	4824
880.859	5140
880.986	4919
881.112	4957
881.239	4839
881.366	4694
881.493	4603
881.619	4637
881.746	4630
881.872	4679
881.999	4573
882.125	4736
882.252	4812
882.378	4847
882.505	4949
882.631	4801
882.757	4687
882.883	4725
883.01	4740
883.136	4694
883.262	4577
883.388	4637
883.514	4847
883.64	4904
883.766	4824
883.892	4698
884.018	4755
884.143	4908
884.269	5041
884.395	4683
884.52	4634
884.646	4664
884.772	4618
884.897	4554
885.023	4660
885.148	4771
885.274	4862
885.399	4816
885.524	4622
885.65	4759
885.775	4793
885.9	4744
886.025	4778
886.15	4767
886.275	4702
886.4	4687
886.525	4725
886.65	4694
886.775	4694
886.9	4900
887.025	5060
887.149	4805
887.274	4622
887.399	4607
887.523	4546
887.648	4584
887.773	4538
887.897	4744
888.021	4801
888.146	4714
888.27	4793
888.395	4942
888.519	4809
888.643	4812
888.767	4816
888.891	4683
889.015	4622
889.139	4626
889.263	4561
889.387	4767
889.511	4835
889.635	4744
889.759	4622
889.883	4672
890.006	4694
890.13	4812
890.254	4569
890.377	4683
890.501	4561
890.624	4558
890.748	4664
890.871	4519
890.995	4409
891.118	4390
891.241	4550
891.364	4519
891.488	4653
891.611	4516
891.734	4531
891.857	4615
891.98	4554
892.103	4653
892.226	4554
892.349	4565
892.471	4443
892.594	4538
892.717	4607
892.839	4626
892.962	4596
893.085	4683
893.207	4622
893.33	4481
893.452	4523
893.575	4672
893.697	4599
893.819	4797
893.941	4824
894.064	4755
894.186	4558
894.308	4634
894.43	4710
894.552	4816
894.674	4812
894.796	4603
894.918	4637
895.04	4577
895.161	4694
895.283	4683
895.405	4569
895.526	4622
895.648	4706
895.769	4634
895.891	4675
896.012	4717
896.134	4744
896.255	4656
896.376	4630
896.498	4569
896.619	4687
896.74	4634
896.861	4672
896.982	4976
897.103	5113
897.224	4790
897.345	4790
897.466	4706
897.587	4744
897.708	4854
897.828	4820
897.949	4687
898.07	4588
898.19	4626
898.311	4820
898.431	4675
898.552	4721
898.672	4790
898.792	4793
898.913	4729
899.033	4599
899.153	4500
899.273	4417
899.393	4512
899.513	4531
899.633	4527
899.753	4550
899.873	4531
899.993	4561
900.113	4489
900.232	4573
900.352	4558
900.472	4527
900.591	4436
900.711	4447
900.83	4417
900.95	4577
901.069	4664
901.189	4565
901.308	4394
901.427	4363
901.546	4367
901.665	4470
901.784	4489
901.904	4360
902.023	4284
902.141	4204
902.26	4211
902.379	4337
902.498	4246
902.617	4215
902.735	4367
902.854	4337
902.973	4398
903.091	4162
903.21	4291
903.328	4265
903.446	4284
903.565	4306
903.683	4348
903.801	4276
903.919	4371
904.038	4474
904.156	4356
904.274	4413
904.392	4360
904.51	4421
904.627	4447
904.745	4561
904.863	4603
904.981	4402
905.098	4310
905.216	4367
905.334	4443
905.451	4424
905.569	4443
905.686	4523
905.803	4573
905.921	4402
906.038	4603
906.155	4462
906.272	4409
906.389	4459
906.506	4394
906.623	4303
906.74	4363
906.857	4360
906.974	4386
907.091	4584
907.208	4694
907.324	4599
907.441	4497
907.557	4356
907.674	4325
907.79	4318
907.907	4371
908.023	4462
908.139	4417
908.256	4432
908.372	4459
908.488	4428
908.604	4386
908.72	4344
908.836	4390
908.952	4405
909.068	4405
909.184	4535
909.3	4485
909.415	4542
909.531	4588
909.647	4386
909.762	4383
909.878	4363
909.993	4432
910.108	4390
910.224	4424
910.339	4500
910.454	4424
910.57	4352
910.685	4318
910.8	4637
910.915	4565
911.03	4497
911.145	4318
911.259	4337
911.374	4390
911.489	4299
911.604	4284
911.718	4192
911.833	4204
911.947	4086
912.062	4055
912.176	4204
912.291	4211
912.405	4291
912.519	4481
912.633	4500
912.748	4344
912.862	4348
912.976	4173
913.09	4112
913.204	4188
913.318	4268
913.431	4371
913.545	4348
913.659	4478
913.772	4363
913.886	4246
914	4253
914.113	4371
914.226	4462
914.34	4367
914.453	4215
914.566	4447
914.68	4295
914.793	4341
914.906	4105
915.019	4128
915.132	4105
915.245	4188
915.358	4227
915.47	4246
915.583	4268
915.696	4276
915.809	4356
915.921	4402
916.034	4272
916.146	4242
916.259	4246
916.371	4379
916.483	4344
916.595	4306
916.708	4322
916.82	4329
916.932	4337
917.044	4325
917.156	4295
917.268	4188
917.38	4276
917.491	4291
917.603	4333
917.715	4402
917.826	4451
917.938	4329
918.049	4230
918.161	4367
918.272	4512
918.384	4554
918.495	4466
918.606	4291
918.717	4223
918.828	4333
918.939	4409
919.05	4227
919.161	4303
919.272	4124
919.383	4207
919.494	4462
919.604	4611
919.715	4398
919.826	4375
919.936	4409
920.047	4535
920.157	4466
920.267	4694
920.378	4497
920.488	4493
920.598	4710
920.708	4873
920.818	4725
920.928	4740
921.038	4965
921.148	4873
921.258	4626
921.368	4573
921.477	4462
921.587	4417
921.697	4299
921.806	4599
921.916	4485
922.025	4280
922.134	4261
922.244	4215
922.353	4295
922.462	4192
922.571	4120
922.68	4029
922.789	3930
922.898	4013
923.007	3994
923.116	4090
923.224	4029
923.333	4071
923.442	4006
923.55	3983
923.659	4040
923.767	4101
923.876	3953
923.984	4166
924.092	3975
924.201	4074
924.309	4067
924.417	4124
924.525	4059
924.633	4109
924.741	5025
924.849	3956
924.956	4158
925.064	3972
925.172	3934
925.279	3987
925.387	4013
925.494	4051
925.602	4242
925.709	4181
925.816	4006
925.924	4067
926.031	4249
926.138	4223
926.245	4219
926.352	4082
926.459	4238
926.566	4249
926.673	4131
926.779	4086
926.886	4067
926.993	3945
927.099	3964
927.206	3922
927.312	3930
927.419	4059
927.525	4040
927.631	4105
927.737	3949
927.843	3968
927.95	3865
928.056	3930
928.162	3994
928.267	4063
928.373	4668
928.479	4101
928.585	3907
928.69	4025
928.796	4120
928.901	3964
929.007	3804
929.112	4010
929.218	3998
929.323	3956
929.428	3956
929.533	4101
929.638	3899
929.743	3941
929.848	4017
929.953	3998
930.058	3911
930.163	3732
930.267	3827
930.372	3956
930.477	3823
930.581	4078
930.685	3888
930.79	3827
930.894	3873
930.998	3838
931.103	4055
931.207	3709
931.311	3713
931.415	3667
931.519	3538
931.623	3538
