Data from test_V78500241_1299.txt Node
Date: Fri Mar 25 16:58:02 CST 2022
User: usil
Spectrometer: V785-0024
Trigger mode: 0
Integration Time (sec): 4.000000E-1
Scans to average: 1
Nonlinearity correction enabled: false
Boxcar width: 0
Storing dark spectrum: false
XAxis mode: Wavelengths
Number of Pixels in Spectrum: 1024
>>>>>Begin Spectral Data<<<<<
801.071	8054
801.214	7997
801.356	7898
801.499	7849
801.641	7780
801.783	7719
801.926	7894
802.068	7936
802.211	7978
802.353	7982
802.496	7761
802.638	7856
802.78	7902
802.923	7921
803.065	7849
803.208	7928
803.35	7959
803.492	8111
803.635	8138
803.777	7974
803.919	8157
804.061	8438
804.204	8145
804.346	8084
804.488	8031
804.63	8092
804.773	7925
804.915	8138
805.057	8256
805.199	8187
805.341	8176
805.483	8237
805.626	8176
805.768	8100
805.91	8214
806.052	8187
806.194	8024
806.336	8233
806.478	8081
806.62	8016
806.762	8039
806.904	8286
807.046	8423
807.188	8374
807.33	8263
807.472	8362
807.614	8138
807.756	8187
807.898	8054
808.04	7841
808.182	7898
808.324	7932
808.465	7898
808.607	8050
808.749	8161
808.891	8210
809.033	8301
809.174	8221
809.316	8073
809.458	8084
809.6	7963
809.741	8001
809.883	8031
810.025	8084
810.166	8123
810.308	8031
810.45	8005
810.591	7860
810.733	7761
810.875	7605
811.016	7487
811.158	7548
811.299	7616
811.441	7734
811.582	7666
811.724	7483
811.865	7514
812.007	7552
812.148	7578
812.29	7670
812.431	7719
812.573	7883
812.714	7978
812.855	8069
812.997	8134
813.138	8279
813.279	8168
813.421	8092
813.562	7982
813.703	7841
813.845	7795
813.986	7388
814.127	7217
814.268	7228
814.41	7232
814.551	7156
814.692	7152
814.833	7019
814.974	7076
815.115	7122
815.256	6920
815.397	6928
815.539	6920
815.68	6829
815.821	6749
815.962	6772
816.103	6837
816.244	6711
816.385	6677
816.526	6597
816.666	6467
816.807	6270
816.948	6388
817.089	6388
817.23	6467
817.371	6380
817.512	6353
817.653	6353
817.793	6346
817.934	6437
818.075	6536
818.216	6437
818.356	6384
818.497	6220
818.638	6133
818.778	6152
818.919	6121
819.06	6148
819.2	6418
819.341	6365
819.481	6342
819.622	6498
819.762	6745
819.903	6684
820.043	6642
820.184	6559
820.324	6585
820.465	6677
820.605	6719
820.746	6669
820.886	6490
821.026	6620
821.167	6658
821.307	6791
821.447	6791
821.588	6665
821.728	6509
821.868	6490
822.008	6300
822.149	6346
822.289	6369
822.429	6163
822.569	6095
822.709	6171
822.849	5912
822.99	5912
823.13	5931
823.27	5942
823.41	5798
823.55	5794
823.69	5714
823.83	5745
823.97	5653
824.11	5539
824.25	5482
824.389	5566
824.529	5585
824.669	5493
824.809	5589
824.949	5661
825.089	5558
825.228	5535
825.368	5410
825.508	5318
825.648	5296
825.787	5322
825.927	5391
826.067	5307
826.206	5284
826.346	5349
826.485	5360
826.625	5383
826.765	5512
826.904	5455
827.044	5170
827.183	5216
827.323	5109
827.462	5223
827.601	5117
827.741	5170
827.88	5170
828.02	5140
828.159	5288
828.298	5296
828.437	5315
828.577	5261
828.716	5467
828.855	5250
828.994	5181
829.134	5136
829.273	5117
829.412	5151
829.551	5094
829.69	5147
829.829	5246
829.968	5383
830.107	5242
830.246	5284
830.385	5189
830.524	5090
830.663	5102
830.802	4942
830.941	4873
831.08	4877
831.219	4927
831.357	4965
831.496	5086
831.635	4938
831.774	4885
831.913	4816
832.051	4672
832.19	4702
832.329	4843
832.467	4706
832.606	4618
832.744	4736
832.883	4725
833.022	4679
833.16	4759
833.299	4847
833.437	4790
833.576	4797
833.714	4847
833.852	4885
833.991	4847
834.129	4949
834.267	4923
834.406	4824
834.544	4923
834.682	4999
834.821	4949
834.959	5140
835.097	4961
835.235	5140
835.373	5060
835.511	5121
835.65	5010
835.788	5033
835.926	4843
836.064	4858
836.202	4908
836.34	5162
836.478	5204
836.615	5102
836.753	5147
836.891	5318
837.029	5220
837.167	5204
837.305	5136
837.443	5162
837.58	5045
837.718	5227
837.856	5181
837.993	5132
838.131	5193
838.269	5193
838.406	5174
838.544	5174
838.681	4968
838.819	5018
838.956	4847
839.094	4911
839.231	4991
839.369	5052
839.506	5436
839.643	5315
839.781	5071
839.918	4999
840.055	5117
840.193	5090
840.33	5151
840.467	5109
840.604	5155
840.742	5444
840.879	5056
841.016	5052
841.153	5208
841.29	5353
841.427	5345
841.564	5265
841.701	5364
841.838	5292
841.975	5269
842.112	5296
842.249	5216
842.385	5098
842.522	5330
842.659	5174
842.796	5124
842.933	5235
843.069	5140
843.206	5124
843.343	5280
843.479	5227
843.616	5216
843.752	4984
843.889	4957
844.025	5201
844.162	5010
844.298	5178
844.435	5067
844.571	5010
844.708	5178
844.844	5280
844.98	5303
845.117	5277
845.253	5128
845.389	5075
845.525	5117
845.661	5140
845.798	4991
845.934	5109
846.07	5052
846.206	5227
846.342	5292
846.478	5174
846.614	4999
846.75	4930
846.886	4965
847.022	5079
847.158	4968
847.294	4999
847.429	5086
847.565	5060
847.701	5277
847.837	4870
847.972	4805
848.108	4972
848.244	4927
848.379	4816
848.515	4672
848.65	4672
848.786	4721
848.921	4733
849.057	4847
849.192	4881
849.328	4801
849.463	4843
849.598	4733
849.734	4706
849.869	4641
850.004	4607
850.14	4664
850.275	4599
850.41	4508
850.545	4558
850.68	4634
850.815	4618
850.95	4626
851.085	4805
851.22	4725
851.355	4656
851.49	4599
851.625	4645
851.76	4618
851.895	4607
852.03	4500
852.165	4645
852.299	4706
852.434	4763
852.569	4782
852.703	4744
852.838	4828
852.973	4953
853.107	4892
853.242	4691
853.376	4691
853.511	4580
853.645	4592
853.78	4820
853.914	4698
854.048	4649
854.183	4637
854.317	4725
854.451	4797
854.585	4660
854.72	4588
854.854	4786
854.988	4565
855.122	4618
855.256	4485
855.39	4611
855.524	4744
855.658	4736
855.792	4694
855.926	4698
856.06	4782
856.194	4797
856.327	4702
856.461	4596
856.595	4569
856.729	4630
856.862	4774
856.996	4698
857.13	4725
857.263	4736
857.397	4710
857.53	4637
857.664	4717
857.797	4771
857.931	4782
858.064	4694
858.197	4763
858.331	4618
858.464	4611
858.597	4489
858.731	4618
858.864	4592
858.997	4622
859.13	4588
859.263	4672
859.396	4710
859.529	4546
859.662	4569
859.795	4508
859.928	4611
860.061	4725
860.194	4740
860.327	4542
860.46	4561
860.592	4687
860.725	4706
860.858	4702
860.99	4542
861.123	4474
861.256	4451
861.388	4577
861.521	5181
861.653	4504
861.786	4432
861.918	4474
862.05	4504
862.183	4546
862.315	4569
862.447	4649
862.58	4546
862.712	4421
862.844	4333
862.976	4493
863.108	4440
863.24	4831
863.372	4314
863.504	4398
863.636	4417
863.768	4470
863.9	4428
864.032	4344
864.164	4363
864.296	4485
864.428	4554
864.559	4527
864.691	4554
864.823	4497
864.954	4440
865.086	4504
865.217	4428
865.349	4447
865.48	4504
865.612	4538
865.743	4577
865.875	4428
866.006	4383
866.137	4500
866.269	4481
866.4	4428
866.531	4405
866.662	4417
866.793	4390
866.924	4405
867.055	4497
867.186	4413
867.317	4436
867.448	4367
867.579	4440
867.71	4367
867.841	4348
867.972	4474
868.103	4443
868.233	4470
868.364	4432
868.495	4489
868.625	4656
868.756	4759
868.886	4538
869.017	4607
869.147	4752
869.278	4759
869.408	4637
869.539	4596
869.669	4733
869.799	4649
869.929	4721
870.06	4675
870.19	4927
870.32	4885
870.45	4919
870.58	4987
870.71	5143
870.84	5075
870.97	4892
871.1	4934
871.23	5105
871.36	5128
871.489	5003
871.619	5067
871.749	5102
871.879	5143
872.008	5140
872.138	5071
872.267	4980
872.397	4816
872.526	4774
872.656	4691
872.785	4820
872.915	4942
873.044	5033
873.173	4949
873.303	4972
873.432	4934
873.561	4908
873.69	4927
873.819	4862
873.948	4873
874.077	4824
874.206	4755
874.335	4744
874.464	4938
874.593	5079
874.722	4957
874.851	5048
874.979	5041
875.108	5014
875.237	4953
875.365	4915
875.494	4915
875.623	4957
875.751	4839
875.88	4820
876.008	4976
876.136	5052
876.265	5239
876.393	5318
876.521	5242
876.65	5246
876.778	5170
876.906	5060
877.034	5010
877.162	5060
877.29	4957
877.418	5056
877.546	5022
877.674	5033
877.802	5010
877.93	4938
878.058	4919
878.185	4816
878.313	4881
878.441	4987
878.568	4812
878.696	4873
878.824	4934
878.951	4987
879.079	5086
879.206	5280
879.333	5071
879.461	4919
879.588	4984
879.715	5075
879.842	5181
879.97	5010
880.097	4778
880.224	4714
880.351	4778
880.478	4763
880.605	4763
880.732	4782
880.859	5064
880.986	4885
881.112	4942
881.239	4805
881.366	4660
881.493	4626
881.619	4569
881.746	4618
881.872	4641
881.999	4645
882.125	4683
882.252	4774
882.378	4793
882.505	4942
882.631	4786
882.757	4687
882.883	4702
883.01	4683
883.136	4645
883.262	4603
883.388	4607
883.514	4778
883.64	4816
883.766	4774
883.892	4664
884.018	4672
884.143	4862
884.269	4980
884.395	4645
884.52	4588
884.646	4588
884.772	4535
884.897	4546
885.023	4653
885.148	4824
885.274	4797
885.399	4786
885.524	4714
885.65	4656
885.775	4748
885.9	4729
886.025	4866
886.15	4790
886.275	4702
886.4	4649
886.525	4668
886.65	4660
886.775	4706
886.9	4866
887.025	5025
887.149	4809
887.274	4660
887.399	4516
887.523	4599
887.648	4538
887.773	4596
887.897	4771
888.021	4782
888.146	4675
888.27	4839
888.395	4908
888.519	4778
888.643	4778
888.767	4793
888.891	4611
889.015	4615
889.139	4649
889.263	4599
889.387	4740
889.511	4828
889.635	4744
889.759	4637
889.883	4637
890.006	4710
890.13	4786
890.254	4679
890.377	4683
890.501	4527
890.624	4531
890.748	4630
890.871	4466
890.995	4428
891.118	4424
891.241	4508
891.364	4542
891.488	4664
891.611	4523
891.734	4569
891.857	4577
891.98	4596
892.103	4630
892.226	4596
892.349	4569
892.471	4405
892.594	4531
892.717	4603
892.839	4577
892.962	4599
893.085	4698
893.207	4577
893.33	4470
893.452	4538
893.575	4649
893.697	4519
893.819	4805
893.941	4797
894.064	4752
894.186	4550
894.308	4584
894.43	4729
894.552	4763
894.674	4744
894.796	4573
894.918	4599
895.04	4573
895.161	4691
895.283	4630
895.405	4558
895.526	4637
895.648	4683
895.769	4656
895.891	4702
896.012	4710
896.134	4725
896.255	4660
896.376	4649
896.498	4599
896.619	4622
896.74	4596
896.861	4664
896.982	4889
897.103	5033
897.224	4850
897.345	4778
897.466	4687
897.587	4725
897.708	4862
897.828	4786
897.949	4649
898.07	4538
898.19	4626
898.311	4820
898.431	4687
898.552	4706
898.672	4763
898.792	4755
898.913	4725
899.033	4584
899.153	4500
899.273	4421
899.393	4535
899.513	4485
899.633	4523
899.753	4516
899.873	4497
899.993	4592
900.113	4542
900.232	4577
900.352	4535
900.472	4508
900.591	4390
900.711	4489
900.83	4386
900.95	4603
901.069	4691
901.189	4504
901.308	4356
901.427	4306
901.546	4394
901.665	4455
901.784	4497
901.904	4360
902.023	4329
902.141	4181
902.26	4169
902.379	4325
902.498	4207
902.617	4154
902.735	4341
902.854	4409
902.973	4344
903.091	4196
903.21	4200
903.328	4223
903.446	4246
903.565	4318
903.683	4329
903.801	4284
903.919	4386
904.038	4481
904.156	4299
904.274	4428
904.392	4360
904.51	4424
904.627	4523
904.745	4565
904.863	4626
904.981	4440
905.098	4314
905.216	4375
905.334	4383
905.451	4417
905.569	4432
905.686	4596
905.803	4607
905.921	4409
906.038	4519
906.155	4523
906.272	4413
906.389	4462
906.506	4348
906.623	4383
906.74	4394
906.857	4268
906.974	4348
907.091	4497
907.208	4687
907.324	4565
907.441	4577
907.557	4265
907.674	4356
907.79	4341
907.907	4379
908.023	4428
908.139	4440
908.256	4413
908.372	4493
908.488	4402
908.604	4348
908.72	4287
908.836	4398
908.952	4333
909.068	4443
909.184	4512
909.3	4440
909.415	4535
909.531	4569
909.647	4310
909.762	4379
909.878	4306
909.993	4451
910.108	4383
910.224	4413
910.339	4451
910.454	4421
910.57	4306
910.685	4341
910.8	4634
910.915	4558
911.03	4481
911.145	4348
911.259	4303
911.374	4333
911.489	4295
911.604	4303
911.718	4181
911.833	4166
911.947	4071
912.062	4032
912.176	4177
912.291	4219
912.405	4234
912.519	4474
912.633	4421
912.748	4352
912.862	4322
912.976	4249
913.09	4071
913.204	4200
913.318	4253
913.431	4337
913.545	4367
913.659	4443
913.772	4341
913.886	4211
914	4166
914.113	4390
914.226	4436
914.34	4417
914.453	4230
914.566	4440
914.68	4310
914.793	4280
914.906	4150
915.019	4086
915.132	4105
915.245	4135
915.358	4185
915.47	4249
915.583	4246
915.696	4284
915.809	4344
915.921	4398
916.034	4284
916.146	4242
916.259	4204
916.371	4390
916.483	4333
916.595	4287
916.708	4318
916.82	4310
916.932	4341
917.044	4257
917.156	4318
917.268	4211
917.38	4223
917.491	4257
917.603	4329
917.715	4451
917.826	4394
917.938	4329
918.049	4215
918.161	4344
918.272	4535
918.384	4508
918.495	4421
918.606	4337
918.717	4223
918.828	4303
918.939	4360
919.05	4265
919.161	4314
919.272	4150
919.383	4242
919.494	4405
919.604	4577
919.715	4497
919.826	4314
919.936	4428
920.047	4474
920.157	4440
920.267	4675
920.378	4542
920.488	4466
920.598	4774
920.708	4930
920.818	4752
920.928	4763
921.038	4923
921.148	4915
921.258	4592
921.368	4554
921.477	4512
921.587	4413
921.697	4363
921.806	4512
921.916	4367
922.025	4215
922.134	4268
922.244	4185
922.353	4325
922.462	4128
922.571	4166
922.68	4002
922.789	3941
922.898	3994
923.007	3998
923.116	4101
923.224	4071
923.333	4051
923.442	4017
923.55	3968
923.659	4002
923.767	4109
923.876	3960
923.984	4105
924.092	4032
924.201	4048
924.309	4105
924.417	4109
924.525	4021
924.633	4093
924.741	5022
924.849	3907
924.956	4143
925.064	3953
925.172	3911
925.279	3953
925.387	4029
925.494	4036
925.602	4200
925.709	4147
925.816	4029
925.924	4090
926.031	4253
926.138	4192
926.245	4181
926.352	4093
926.459	4257
926.566	4253
926.673	4169
926.779	4120
926.886	4074
926.993	3945
927.099	3945
927.206	3975
927.312	3930
927.419	4071
927.525	4032
927.631	4101
927.737	3949
927.843	3915
927.95	3857
928.056	3934
928.162	3975
928.267	4032
928.373	4664
928.479	4131
928.585	3819
928.69	4029
928.796	4063
928.901	3972
929.007	3812
929.112	3975
929.218	3983
929.323	3899
929.428	3922
929.533	4112
929.638	3880
929.743	3972
929.848	4036
929.953	3991
930.058	3915
930.163	3766
930.267	3835
930.372	3960
930.477	3797
930.581	4078
930.685	3930
930.79	3835
930.894	3876
930.998	3857
931.103	4032
931.207	3660
931.311	3679
931.415	3679
931.519	3515
931.623	3538
