Data from test_V78500241_539.txt Node
Date: Fri Mar 25 16:52:45 CST 2022
User: usil
Spectrometer: V785-0024
Trigger mode: 0
Integration Time (sec): 4.000000E-1
Scans to average: 1
Nonlinearity correction enabled: false
Boxcar width: 0
Storing dark spectrum: false
XAxis mode: Wavelengths
Number of Pixels in Spectrum: 1024
>>>>>Begin Spectral Data<<<<<
801.071	8073
801.214	7940
801.356	7849
801.499	7837
801.641	7849
801.783	7852
801.926	7989
802.068	7963
802.211	7989
802.353	8027
802.496	7887
802.638	7909
802.78	7875
802.923	7925
803.065	7852
803.208	7868
803.35	7963
803.492	8058
803.635	8123
803.777	8020
803.919	8096
804.061	8442
804.204	8111
804.346	8016
804.488	7902
804.63	8161
804.773	7974
804.915	8058
805.057	8259
805.199	8107
805.341	8199
805.483	8221
805.626	8180
805.768	8043
805.91	8176
806.052	8210
806.194	8130
806.336	8218
806.478	8084
806.62	8062
806.762	8096
806.904	8202
807.046	8469
807.188	8279
807.33	8221
807.472	8282
807.614	8145
807.756	8039
807.898	7967
808.04	7864
808.182	7879
808.324	7947
808.465	7868
808.607	7955
808.749	8142
808.891	8180
809.033	8313
809.174	8202
809.316	8039
809.458	8035
809.6	7963
809.741	8024
809.883	7986
810.025	8024
810.166	8073
810.308	8043
810.45	7982
810.591	7932
810.733	7757
810.875	7609
811.016	7518
811.158	7533
811.299	7590
811.441	7700
811.582	7662
811.724	7529
811.865	7548
812.007	7552
812.148	7609
812.29	7639
812.431	7753
812.573	7887
812.714	8031
812.855	8168
812.997	8229
813.138	8381
813.279	8275
813.421	8161
813.562	8043
813.703	7959
813.845	7811
813.986	7514
814.127	7346
814.268	7259
814.41	7263
814.551	7171
814.692	7202
814.833	7012
814.974	7084
815.115	7110
815.256	6954
815.397	6981
815.539	6894
815.68	6821
815.821	6791
815.962	6871
816.103	6795
816.244	6741
816.385	6646
816.526	6639
816.666	6464
816.807	6319
816.948	6452
817.089	6441
817.23	6403
817.371	6311
817.512	6388
817.653	6338
817.793	6388
817.934	6407
818.075	6445
818.216	6452
818.356	6441
818.497	6243
818.638	6144
818.778	6148
818.919	6148
819.06	6163
819.2	6308
819.341	6258
819.481	6361
819.622	6490
819.762	6711
819.903	6726
820.043	6589
820.184	6540
820.324	6597
820.465	6681
820.605	6597
820.746	6608
820.886	6517
821.026	6608
821.167	6700
821.307	6802
821.447	6730
821.588	6604
821.728	6585
821.868	6475
822.008	6315
822.149	6399
822.289	6380
822.429	6144
822.569	6110
822.709	6049
822.849	5897
822.99	5874
823.13	5863
823.27	5863
823.41	5832
823.55	5809
823.69	5714
823.83	5752
823.97	5653
824.11	5535
824.25	5474
824.389	5497
824.529	5547
824.669	5570
824.809	5646
824.949	5726
825.089	5570
825.228	5551
825.368	5391
825.508	5353
825.648	5330
825.787	5349
825.927	5334
826.067	5284
826.206	5334
826.346	5368
826.485	5410
826.625	5379
826.765	5520
826.904	5444
827.044	5254
827.183	5193
827.323	5132
827.462	5250
827.601	5121
827.741	5193
827.88	5166
828.02	5136
828.159	5178
828.298	5303
828.437	5349
828.577	5277
828.716	5482
828.855	5307
828.994	5170
829.134	5147
829.273	5204
829.412	5155
829.551	5162
829.69	5174
829.829	5269
829.968	5341
830.107	5254
830.246	5273
830.385	5212
830.524	5151
830.663	5075
830.802	4968
830.941	4908
831.08	4847
831.219	4980
831.357	4957
831.496	5162
831.635	4896
831.774	4835
831.913	4831
832.051	4691
832.19	4771
832.329	4767
832.467	4717
832.606	4607
832.744	4721
832.883	4664
833.022	4763
833.16	4797
833.299	4763
833.437	4793
833.576	4809
833.714	4854
833.852	4839
833.991	4881
834.129	4881
834.267	4904
834.406	4946
834.544	4965
834.682	4949
834.821	4938
834.959	5140
835.097	4965
835.235	5178
835.373	5003
835.511	5075
835.65	5033
835.788	4965
835.926	4908
836.064	4824
836.202	4946
836.34	5159
836.478	5193
836.615	5113
836.753	5208
836.891	5299
837.029	5227
837.167	5170
837.305	5140
837.443	5140
837.58	5067
837.718	5212
837.856	5159
837.993	5098
838.131	5212
838.269	5193
838.406	5242
838.544	5216
838.681	5071
838.819	4999
838.956	4904
839.094	4892
839.231	4976
839.369	5090
839.506	5387
839.643	5265
839.781	5064
839.918	5022
840.055	5159
840.193	5090
840.33	5113
840.467	5090
840.604	5212
840.742	5440
840.879	5071
841.016	5128
841.153	5162
841.29	5364
841.427	5280
841.564	5315
841.701	5349
841.838	5258
841.975	5189
842.112	5273
842.249	5094
842.385	5140
842.522	5296
842.659	5189
842.796	5105
842.933	5189
843.069	5201
843.206	5151
843.343	5261
843.479	5235
843.616	5265
843.752	5029
843.889	4999
844.025	5189
844.162	4968
844.298	5220
844.435	5067
844.571	5071
844.708	5208
844.844	5303
844.98	5277
845.117	5311
845.253	5109
845.389	5071
845.525	5109
845.661	5162
845.798	5048
845.934	5159
846.07	5086
846.206	5204
846.342	5307
846.478	5170
846.614	5056
846.75	4995
846.886	4938
847.022	5090
847.158	4991
847.294	5048
847.429	5113
847.565	5064
847.701	5318
847.837	4820
847.972	4793
848.108	4934
848.244	4965
848.379	4801
848.515	4706
848.65	4714
848.786	4763
848.921	4809
849.057	4870
849.192	4877
849.328	4812
849.463	4816
849.598	4774
849.734	4793
849.869	4668
850.004	4637
850.14	4626
850.275	4607
850.41	4478
850.545	4584
850.68	4577
850.815	4615
850.95	4603
851.085	4812
851.22	4694
851.355	4653
851.49	4603
851.625	4634
851.76	4637
851.895	4527
852.03	4523
852.165	4637
852.299	4710
852.434	4786
852.569	4710
852.703	4740
852.838	4877
852.973	4892
853.107	4927
853.242	4774
853.376	4706
853.511	4535
853.645	4573
853.78	4820
853.914	4725
854.048	4679
854.183	4660
854.317	4687
854.451	4824
854.585	4664
854.72	4607
854.854	4725
854.988	4592
855.122	4596
855.256	4497
855.39	4683
855.524	4748
855.658	4698
855.792	4714
855.926	4744
856.06	4748
856.194	4831
856.327	4660
856.461	4607
856.595	4641
856.729	4580
856.862	4782
856.996	4683
857.13	4706
857.263	4683
857.397	4839
857.53	4645
857.664	4702
857.797	4736
857.931	4774
858.064	4740
858.197	4744
858.331	4615
858.464	4592
858.597	4523
858.731	4588
858.864	4618
858.997	4611
859.13	4607
859.263	4653
859.396	4710
859.529	4603
859.662	4599
859.795	4519
859.928	4607
860.061	4752
860.194	4729
860.327	4611
860.46	4558
860.592	4744
860.725	4691
860.858	4755
860.99	4546
861.123	4516
861.256	4478
861.388	4607
861.521	5387
861.653	4440
861.786	4383
861.918	4455
862.05	4500
862.183	4516
862.315	4603
862.447	4634
862.58	4527
862.712	4398
862.844	4337
862.976	4481
863.108	4398
863.24	4870
863.372	4303
863.504	4383
863.636	4451
863.768	4443
863.9	4428
864.032	4356
864.164	4413
864.296	4451
864.428	4531
864.559	4565
864.691	4523
864.823	4500
864.954	4504
865.086	4531
865.217	4478
865.349	4375
865.48	4470
865.612	4500
865.743	4596
865.875	4516
866.006	4417
866.137	4447
866.269	4440
866.4	4405
866.531	4432
866.662	4386
866.793	4405
866.924	4432
867.055	4481
867.186	4417
867.317	4424
867.448	4367
867.579	4367
867.71	4390
867.841	4367
867.972	4421
868.103	4478
868.233	4443
868.364	4394
868.495	4459
868.625	4691
868.756	4744
868.886	4531
869.017	4573
869.147	4717
869.278	4748
869.408	4622
869.539	4626
869.669	4706
869.799	4630
869.929	4778
870.06	4725
870.19	4957
870.32	4972
870.45	4915
870.58	5006
870.71	5102
870.84	5086
870.97	4972
871.1	4915
871.23	5128
871.36	5136
871.489	4946
871.619	5025
871.749	5064
871.879	5098
872.008	5201
872.138	5052
872.267	4957
872.397	4862
872.526	4835
872.656	4710
872.785	4790
872.915	4957
873.044	5022
873.173	4942
873.303	4965
873.432	4957
873.561	4972
873.69	4900
873.819	4854
873.948	4915
874.077	4809
874.206	4774
874.335	4812
874.464	4946
874.593	5048
874.722	4942
874.851	5109
874.979	5045
875.108	5045
875.237	4889
875.365	4885
875.494	4911
875.623	4942
875.751	4835
875.88	4892
876.008	4953
876.136	4999
876.265	5235
876.393	5376
876.521	5258
876.65	5204
876.778	5124
876.906	5022
877.034	4995
877.162	5033
877.29	4980
877.418	5064
877.546	5045
877.674	5022
877.802	4965
877.93	4984
878.058	4915
878.185	4881
878.313	5006
878.441	4946
878.568	4809
878.696	4892
878.824	4987
878.951	4965
879.079	5121
879.206	5303
879.333	5132
879.461	4965
879.588	4995
879.715	5113
879.842	5208
879.97	4995
880.097	4812
880.224	4748
880.351	4782
880.478	4877
880.605	4790
880.732	4824
880.859	5098
880.986	4908
881.112	4885
881.239	4763
881.366	4691
881.493	4622
881.619	4599
881.746	4641
881.872	4660
881.999	4656
882.125	4706
882.252	4790
882.378	4835
882.505	5018
882.631	4843
882.757	4637
882.883	4759
883.01	4748
883.136	4645
883.262	4592
883.388	4611
883.514	4850
883.64	4816
883.766	4831
883.892	4660
884.018	4702
884.143	4892
884.269	5006
884.395	4672
884.52	4649
884.646	4641
884.772	4573
884.897	4569
885.023	4733
885.148	4786
885.274	4793
885.399	4778
885.524	4702
885.65	4679
885.775	4729
885.9	4714
886.025	4828
886.15	4828
886.275	4717
886.4	4687
886.525	4733
886.65	4694
886.775	4725
886.9	4885
887.025	5037
887.149	4805
887.274	4611
887.399	4577
887.523	4580
887.648	4546
887.773	4561
887.897	4771
888.021	4725
888.146	4656
888.27	4809
888.395	4896
888.519	4748
888.643	4809
888.767	4805
888.891	4653
889.015	4599
889.139	4626
889.263	4626
889.387	4710
889.511	4862
889.635	4778
889.759	4626
889.883	4649
890.006	4755
890.13	4839
890.254	4634
890.377	4679
890.501	4516
890.624	4516
890.748	4637
890.871	4508
890.995	4409
891.118	4398
891.241	4493
891.364	4550
891.488	4622
891.611	4481
891.734	4588
891.857	4599
891.98	4531
892.103	4622
892.226	4580
892.349	4596
892.471	4398
892.594	4550
892.717	4569
892.839	4558
892.962	4611
893.085	4656
893.207	4580
893.33	4462
893.452	4516
893.575	4668
893.697	4554
893.819	4805
893.941	4793
894.064	4771
894.186	4596
894.308	4622
894.43	4725
894.552	4793
894.674	4759
894.796	4607
894.918	4634
895.04	4531
895.161	4653
895.283	4687
895.405	4603
895.526	4634
895.648	4687
895.769	4679
895.891	4710
896.012	4736
896.134	4717
896.255	4672
896.376	4622
896.498	4577
896.619	4687
896.74	4565
896.861	4641
896.982	4881
897.103	5045
897.224	4866
897.345	4816
897.466	4694
897.587	4725
897.708	4850
897.828	4755
897.949	4679
898.07	4573
898.19	4641
898.311	4850
898.431	4649
898.552	4748
898.672	4759
898.792	4782
898.913	4774
899.033	4607
899.153	4497
899.273	4432
899.393	4527
899.513	4519
899.633	4535
899.753	4550
899.873	4508
899.993	4599
900.113	4519
900.232	4565
900.352	4523
900.472	4538
900.591	4424
900.711	4451
900.83	4402
900.95	4596
901.069	4733
901.189	4516
901.308	4398
901.427	4280
901.546	4367
901.665	4478
901.784	4466
901.904	4394
902.023	4341
902.141	4188
902.26	4192
902.379	4318
902.498	4196
902.617	4223
902.735	4405
902.854	4360
902.973	4352
903.091	4200
903.21	4204
903.328	4280
903.446	4249
903.565	4265
903.683	4360
903.801	4284
903.919	4390
904.038	4440
904.156	4360
904.274	4428
904.392	4371
904.51	4413
904.627	4436
904.745	4550
904.863	4618
904.981	4417
905.098	4314
905.216	4371
905.334	4432
905.451	4459
905.569	4398
905.686	4535
905.803	4542
905.921	4440
906.038	4527
906.155	4481
906.272	4383
906.389	4497
906.506	4348
906.623	4341
906.74	4379
906.857	4287
906.974	4363
907.091	4588
907.208	4675
907.324	4588
907.441	4462
907.557	4363
907.674	4348
907.79	4344
907.907	4413
908.023	4500
908.139	4500
908.256	4421
908.372	4470
908.488	4436
908.604	4341
908.72	4333
908.836	4371
908.952	4394
909.068	4421
909.184	4569
909.3	4485
909.415	4561
909.531	4500
909.647	4352
909.762	4367
909.878	4291
909.993	4459
910.108	4371
910.224	4405
910.339	4447
910.454	4367
910.57	4367
910.685	4299
910.8	4675
910.915	4558
911.03	4470
911.145	4402
911.259	4329
911.374	4386
911.489	4284
911.604	4352
911.718	4150
911.833	4215
911.947	4036
912.062	3956
912.176	4200
912.291	4227
912.405	4207
912.519	4432
912.633	4519
912.748	4344
912.862	4344
912.976	4223
913.09	4086
913.204	4169
913.318	4276
913.431	4348
913.545	4371
913.659	4390
913.772	4306
913.886	4265
914	4215
914.113	4363
914.226	4440
914.34	4341
914.453	4200
914.566	4409
914.68	4268
914.793	4333
914.906	4109
915.019	4150
915.132	4109
915.245	4166
915.358	4177
915.47	4215
915.583	4207
915.696	4276
915.809	4379
915.921	4409
916.034	4272
916.146	4265
916.259	4219
916.371	4318
916.483	4352
916.595	4242
916.708	4310
916.82	4310
916.932	4337
917.044	4363
917.156	4322
917.268	4272
917.38	4265
917.491	4253
917.603	4344
917.715	4455
917.826	4481
917.938	4375
918.049	4230
918.161	4398
918.272	4573
918.384	4531
918.495	4489
918.606	4341
918.717	4211
918.828	4348
918.939	4344
919.05	4246
919.161	4352
919.272	4139
919.383	4234
919.494	4455
919.604	4668
919.715	4462
919.826	4356
919.936	4440
920.047	4527
920.157	4497
920.267	4668
920.378	4618
920.488	4512
920.598	4725
920.708	4896
920.818	4778
920.928	4778
921.038	5003
921.148	4904
921.258	4706
921.368	4550
921.477	4519
921.587	4508
921.697	4394
921.806	4538
921.916	4512
922.025	4295
922.134	4276
922.244	4276
922.353	4333
922.462	4234
922.571	4181
922.68	4044
922.789	4010
922.898	4071
923.007	4059
923.116	4147
923.224	4139
923.333	4162
923.442	4036
923.55	4051
923.659	4067
923.767	4150
923.876	4086
923.984	4139
924.092	4025
924.201	4131
924.309	4135
924.417	4150
924.525	4105
924.633	4135
924.741	5079
924.849	3960
924.956	4158
925.064	4017
925.172	3979
925.279	3998
925.387	4078
925.494	4101
925.602	4265
925.709	4242
925.816	4082
925.924	4196
926.031	4272
926.138	4181
926.245	4265
926.352	4120
926.459	4272
926.566	4337
926.673	4188
926.779	4112
926.886	4147
926.993	3998
927.099	4032
927.206	3937
927.312	3964
927.419	4074
927.525	4059
927.631	4131
927.737	3987
927.843	3979
927.95	3880
928.056	4006
928.162	4021
928.267	4101
928.373	4717
928.479	4143
928.585	3896
928.69	4059
928.796	4124
928.901	4013
929.007	3835
929.112	4025
929.218	4010
929.323	3987
929.428	3991
929.533	4124
929.638	3930
929.743	4006
929.848	4051
929.953	3998
930.058	3960
930.163	3827
930.267	3930
930.372	4025
930.477	3869
930.581	4135
930.685	4029
930.79	3835
930.894	3926
930.998	3915
931.103	4074
931.207	3724
931.311	3717
931.415	3778
931.519	3568
931.623	3557
