Data from test_V78500241_1436.txt Node
Date: Fri Mar 25 16:58:59 CST 2022
User: usil
Spectrometer: V785-0024
Trigger mode: 0
Integration Time (sec): 4.000000E-1
Scans to average: 1
Nonlinearity correction enabled: false
Boxcar width: 0
Storing dark spectrum: false
XAxis mode: Wavelengths
Number of Pixels in Spectrum: 1024
>>>>>Begin Spectral Data<<<<<
801.071	8012
801.214	7997
801.356	7803
801.499	7803
801.641	7765
801.783	7871
801.926	7921
802.068	7921
802.211	7967
802.353	7940
802.496	7814
802.638	7849
802.78	7887
802.923	7982
803.065	7921
803.208	7852
803.35	7928
803.492	8046
803.635	8145
803.777	7982
803.919	8062
804.061	8434
804.204	8183
804.346	7967
804.488	7959
804.63	8092
804.773	7978
804.915	8103
805.057	8279
805.199	8195
805.341	8279
805.483	8275
805.626	8202
805.768	8130
805.91	8263
806.052	8221
806.194	8103
806.336	8279
806.478	8081
806.62	8046
806.762	8119
806.904	8271
807.046	8469
807.188	8434
807.33	8351
807.472	8339
807.614	8176
807.756	8126
807.898	7963
808.04	7841
808.182	7894
808.324	7982
808.465	7989
808.607	8142
808.749	8153
808.891	8180
809.033	8233
809.174	8164
809.316	8039
809.458	8062
809.6	8035
809.741	8012
809.883	7974
810.025	8126
810.166	8016
810.308	8050
810.45	7989
810.591	7871
810.733	7677
810.875	7643
811.016	7514
811.158	7510
811.299	7586
811.441	7727
811.582	7738
811.724	7533
811.865	7521
812.007	7582
812.148	7586
812.29	7601
812.431	7708
812.573	7917
812.714	7967
812.855	8077
812.997	8153
813.138	8320
813.279	8172
813.421	8100
813.562	7989
813.703	7868
813.845	7750
813.986	7434
814.127	7232
814.268	7171
814.41	7217
814.551	7179
814.692	7232
814.833	7076
814.974	7118
815.115	7114
815.256	6970
815.397	6932
815.539	6932
815.68	6810
815.821	6776
815.962	6795
816.103	6738
816.244	6795
816.385	6616
816.526	6601
816.666	6490
816.807	6281
816.948	6460
817.089	6433
817.23	6399
817.371	6331
817.512	6365
817.653	6384
817.793	6376
817.934	6426
818.075	6464
818.216	6441
818.356	6403
818.497	6266
818.638	6106
818.778	6102
818.919	6110
819.06	6197
819.2	6319
819.341	6289
819.481	6372
819.622	6521
819.762	6700
819.903	6692
820.043	6566
820.184	6559
820.324	6525
820.465	6677
820.605	6665
820.746	6635
820.886	6486
821.026	6597
821.167	6703
821.307	6795
821.447	6730
821.588	6654
821.728	6578
821.868	6509
822.008	6281
822.149	6414
822.289	6399
822.429	6167
822.569	6117
822.709	6095
822.849	5904
822.99	5954
823.13	5912
823.27	5893
823.41	5764
823.55	5756
823.69	5748
823.83	5805
823.97	5630
824.11	5482
824.25	5524
824.389	5535
824.529	5600
824.669	5474
824.809	5581
824.949	5646
825.089	5604
825.228	5551
825.368	5353
825.508	5303
825.648	5391
825.787	5406
825.927	5364
826.067	5330
826.206	5303
826.346	5349
826.485	5357
826.625	5379
826.765	5573
826.904	5463
827.044	5258
827.183	5208
827.323	5162
827.462	5223
827.601	5113
827.741	5189
827.88	5185
828.02	5128
828.159	5250
828.298	5265
828.437	5357
828.577	5269
828.716	5471
828.855	5326
828.994	5162
829.134	5155
829.273	5189
829.412	5136
829.551	5098
829.69	5151
829.829	5239
829.968	5311
830.107	5227
830.246	5239
830.385	5113
830.524	5117
830.663	5075
830.802	4968
830.941	4919
831.08	4816
831.219	4957
831.357	4942
831.496	5170
831.635	4877
831.774	4839
831.913	4866
832.051	4729
832.19	4744
832.329	4839
832.467	4664
832.606	4660
832.744	4740
832.883	4675
833.022	4668
833.16	4725
833.299	4809
833.437	4839
833.576	4847
833.714	4854
833.852	4854
833.991	4812
834.129	4953
834.267	4892
834.406	4892
834.544	4946
834.682	4965
834.821	4987
834.959	5174
835.097	4968
835.235	5124
835.373	5060
835.511	5045
835.65	5018
835.788	5037
835.926	4923
836.064	4797
836.202	4892
836.34	5140
836.478	5231
836.615	5155
836.753	5227
836.891	5315
837.029	5269
837.167	5147
837.305	5185
837.443	5136
837.58	5037
837.718	5250
837.856	5189
837.993	5143
838.131	5235
838.269	5197
838.406	5212
838.544	5193
838.681	5025
838.819	4976
838.956	4892
839.094	4870
839.231	4946
839.369	5109
839.506	5448
839.643	5265
839.781	5045
839.918	4984
840.055	5140
840.193	5067
840.33	5086
840.467	5109
840.604	5231
840.742	5402
840.879	5045
841.016	5045
841.153	5166
841.29	5360
841.427	5318
841.564	5311
841.701	5326
841.838	5254
841.975	5216
842.112	5269
842.249	5109
842.385	5071
842.522	5296
842.659	5185
842.796	5143
842.933	5227
843.069	5159
843.206	5162
843.343	5292
843.479	5185
843.616	5261
843.752	4991
843.889	4972
844.025	5239
844.162	4980
844.298	5193
844.435	5075
844.571	5033
844.708	5178
844.844	5307
844.98	5322
845.117	5296
845.253	5185
845.389	5113
845.525	5128
845.661	5113
845.798	5037
845.934	5098
846.07	5041
846.206	5193
846.342	5277
846.478	5170
846.614	4999
846.75	4923
846.886	4930
847.022	5132
847.158	4991
847.294	5048
847.429	5075
847.565	5041
847.701	5322
847.837	4839
847.972	4816
848.108	4961
848.244	4930
848.379	4733
848.515	4740
848.65	4710
848.786	4714
848.921	4793
849.057	4866
849.192	4862
849.328	4854
849.463	4824
849.598	4801
849.734	4774
849.869	4668
850.004	4615
850.14	4630
850.275	4554
850.41	4527
850.545	4546
850.68	4626
850.815	4626
850.95	4626
851.085	4877
851.22	4755
851.355	4656
851.49	4611
851.625	4615
851.76	4618
851.895	4542
852.03	4542
852.165	4675
852.299	4714
852.434	4786
852.569	4714
852.703	4786
852.838	4839
852.973	4927
853.107	4889
853.242	4694
853.376	4694
853.511	4554
853.645	4535
853.78	4812
853.914	4691
854.048	4675
854.183	4660
854.317	4698
854.451	4850
854.585	4634
854.72	4580
854.854	4752
854.988	4630
855.122	4615
855.256	4485
855.39	4656
855.524	4797
855.658	4748
855.792	4691
855.926	4691
856.06	4721
856.194	4778
856.327	4660
856.461	4577
856.595	4550
856.729	4546
856.862	4774
856.996	4717
857.13	4691
857.263	4771
857.397	4793
857.53	4618
857.664	4706
857.797	4763
857.931	4782
858.064	4702
858.197	4729
858.331	4683
858.464	4645
858.597	4546
858.731	4634
858.864	4599
858.997	4569
859.13	4706
859.263	4637
859.396	4733
859.529	4542
859.662	4580
859.795	4542
859.928	4637
860.061	4759
860.194	4759
860.327	4561
860.46	4611
860.592	4714
860.725	4748
860.858	4714
860.99	4569
861.123	4519
861.256	4497
861.388	4611
861.521	5402
861.653	4485
861.786	4436
861.918	4432
862.05	4489
862.183	4573
862.315	4588
862.447	4588
862.58	4512
862.712	4443
862.844	4314
862.976	4443
863.108	4421
863.24	4862
863.372	4348
863.504	4360
863.636	4367
863.768	4459
863.9	4455
864.032	4356
864.164	4436
864.296	4466
864.428	4577
864.559	4546
864.691	4554
864.823	4542
864.954	4527
865.086	4474
865.217	4394
865.349	4394
865.48	4440
865.612	4478
865.743	4675
865.875	4459
866.006	4451
866.137	4428
866.269	4462
866.4	4428
866.531	4398
866.662	4474
866.793	4398
866.924	4436
867.055	4462
867.186	4462
867.317	4413
867.448	4352
867.579	4405
867.71	4383
867.841	4329
867.972	4440
868.103	4462
868.233	4481
868.364	4455
868.495	4470
868.625	4664
868.756	4755
868.886	4588
869.017	4603
869.147	4740
869.278	4752
869.408	4645
869.539	4630
869.669	4664
869.799	4656
869.929	4752
870.06	4729
870.19	4984
870.32	4923
870.45	4934
870.58	5006
870.71	5075
870.84	5067
870.97	4915
871.1	4889
871.23	5121
871.36	5086
871.489	5052
871.619	5102
871.749	5037
871.879	5117
872.008	5124
872.138	5041
872.267	4930
872.397	4816
872.526	4801
872.656	4702
872.785	4763
872.915	4927
873.044	4965
873.173	4930
873.303	4953
873.432	4938
873.561	4991
873.69	4824
873.819	4866
873.948	4889
874.077	4877
874.206	4778
874.335	4812
874.464	4923
874.593	5033
874.722	4953
874.851	5041
874.979	5056
875.108	5029
875.237	4896
875.365	4896
875.494	4900
875.623	4968
875.751	4812
875.88	4866
876.008	4980
876.136	4972
876.265	5201
876.393	5322
876.521	5254
876.65	5216
876.778	5197
876.906	5102
877.034	5014
877.162	5003
877.29	4968
877.418	5052
877.546	5048
877.674	5003
877.802	5025
877.93	4980
878.058	4942
878.185	4862
878.313	4938
878.441	4892
878.568	4774
878.696	4892
878.824	4980
878.951	5022
879.079	5090
879.206	5318
879.333	5094
879.461	4927
879.588	5029
879.715	5113
879.842	5181
879.97	5014
880.097	4771
880.224	4717
880.351	4782
880.478	4831
880.605	4771
880.732	4820
880.859	5075
880.986	4900
881.112	4896
881.239	4698
881.366	4691
881.493	4603
881.619	4599
881.746	4630
881.872	4645
881.999	4630
882.125	4694
882.252	4736
882.378	4782
882.505	4915
882.631	4812
882.757	4645
882.883	4675
883.01	4717
883.136	4698
883.262	4599
883.388	4622
883.514	4873
883.64	4847
883.766	4767
883.892	4622
884.018	4660
884.143	4908
884.269	5067
884.395	4668
884.52	4622
884.646	4603
884.772	4546
884.897	4580
885.023	4683
885.148	4771
885.274	4843
885.399	4759
885.524	4710
885.65	4717
885.775	4694
885.9	4729
886.025	4824
886.15	4786
886.275	4664
886.4	4611
886.525	4736
886.65	4649
886.775	4706
886.9	4896
887.025	5014
887.149	4850
887.274	4649
887.399	4588
887.523	4580
887.648	4580
887.773	4607
887.897	4771
888.021	4744
888.146	4691
888.27	4740
888.395	4915
888.519	4820
888.643	4831
888.767	4809
888.891	4679
889.015	4611
889.139	4611
889.263	4569
889.387	4797
889.511	4862
889.635	4740
889.759	4596
889.883	4603
890.006	4740
890.13	4801
890.254	4596
890.377	4656
890.501	4493
890.624	4538
890.748	4656
890.871	4516
890.995	4447
891.118	4390
891.241	4493
891.364	4546
891.488	4641
891.611	4508
891.734	4516
891.857	4584
891.98	4550
892.103	4599
892.226	4550
892.349	4519
892.471	4405
892.594	4485
892.717	4569
892.839	4577
892.962	4569
893.085	4664
893.207	4580
893.33	4470
893.452	4516
893.575	4675
893.697	4569
893.819	4782
893.941	4847
894.064	4763
894.186	4622
894.308	4527
894.43	4725
894.552	4843
894.674	4748
894.796	4504
894.918	4535
895.04	4550
895.161	4656
895.283	4679
895.405	4580
895.526	4603
895.648	4660
895.769	4675
895.891	4702
896.012	4729
896.134	4622
896.255	4641
896.376	4668
896.498	4637
896.619	4683
896.74	4607
896.861	4653
896.982	4862
897.103	5083
897.224	4771
897.345	4698
897.466	4683
897.587	4740
897.708	4870
897.828	4782
897.949	4660
898.07	4523
898.19	4641
898.311	4820
898.431	4698
898.552	4740
898.672	4805
898.792	4801
898.913	4733
899.033	4554
899.153	4516
899.273	4432
899.393	4512
899.513	4542
899.633	4508
899.753	4535
899.873	4519
899.993	4577
900.113	4493
900.232	4596
900.352	4542
900.472	4489
900.591	4367
900.711	4459
900.83	4409
900.95	4580
901.069	4672
901.189	4584
901.308	4386
901.427	4325
901.546	4337
901.665	4424
901.784	4493
901.904	4398
902.023	4295
902.141	4173
902.26	4147
902.379	4299
902.498	4242
902.617	4261
902.735	4375
902.854	4379
902.973	4341
903.091	4215
903.21	4219
903.328	4272
903.446	4291
903.565	4280
903.683	4398
903.801	4265
903.919	4360
904.038	4455
904.156	4341
904.274	4443
904.392	4375
904.51	4436
904.627	4466
904.745	4569
904.863	4656
904.981	4394
905.098	4272
905.216	4379
905.334	4413
905.451	4478
905.569	4440
905.686	4478
905.803	4531
905.921	4375
906.038	4504
906.155	4481
906.272	4360
906.389	4459
906.506	4367
906.623	4337
906.74	4405
906.857	4280
906.974	4287
907.091	4550
907.208	4637
907.324	4573
907.441	4493
907.557	4333
907.674	4333
907.79	4299
907.907	4440
908.023	4440
908.139	4428
908.256	4470
908.372	4489
908.488	4436
908.604	4329
908.72	4322
908.836	4432
908.952	4352
909.068	4440
909.184	4573
909.3	4459
909.415	4569
909.531	4481
909.647	4322
909.762	4348
909.878	4310
909.993	4398
910.108	4386
910.224	4455
910.339	4481
910.454	4413
910.57	4367
910.685	4325
910.8	4672
910.915	4546
911.03	4455
911.145	4356
911.259	4333
911.374	4424
911.489	4287
911.604	4261
911.718	4200
911.833	4166
911.947	4067
912.062	4055
912.176	4192
912.291	4154
912.405	4253
912.519	4432
912.633	4489
912.748	4344
912.862	4333
912.976	4185
913.09	4086
913.204	4143
913.318	4238
913.431	4348
913.545	4367
913.659	4405
913.772	4386
913.886	4230
914	4223
914.113	4341
914.226	4405
914.34	4375
914.453	4234
914.566	4363
914.68	4310
914.793	4329
914.906	4158
915.019	4173
915.132	4059
915.245	4169
915.358	4204
915.47	4230
915.583	4280
915.696	4318
915.809	4405
915.921	4398
916.034	4272
916.146	4280
916.259	4223
916.371	4390
916.483	4318
916.595	4249
916.708	4306
916.82	4314
916.932	4360
917.044	4280
917.156	4333
917.268	4211
917.38	4280
917.491	4284
917.603	4363
917.715	4440
917.826	4424
917.938	4306
918.049	4261
918.161	4356
918.272	4569
918.384	4565
918.495	4424
918.606	4261
918.717	4207
918.828	4337
918.939	4295
919.05	4249
919.161	4329
919.272	4128
919.383	4227
919.494	4474
919.604	4653
919.715	4421
919.826	4371
919.936	4459
920.047	4535
920.157	4500
920.267	4691
920.378	4561
920.488	4497
920.598	4752
920.708	4866
920.818	4801
920.928	4729
921.038	4930
921.148	4889
921.258	4630
921.368	4577
921.477	4519
921.587	4462
921.697	4356
921.806	4542
921.916	4428
922.025	4261
922.134	4261
922.244	4238
922.353	4276
922.462	4128
922.571	4109
922.68	3975
922.789	3979
922.898	4029
923.007	3987
923.116	4078
923.224	4048
923.333	4101
923.442	3998
923.55	3987
923.659	4021
923.767	4074
923.876	4006
923.984	4097
924.092	3983
924.201	4044
924.309	4097
924.417	4124
924.525	4010
924.633	4135
924.741	5025
924.849	3880
924.956	4109
925.064	3979
925.172	3915
925.279	3991
925.387	4032
925.494	4021
925.602	4234
925.709	4139
925.816	4051
925.924	4109
926.031	4227
926.138	4181
926.245	4230
926.352	4101
926.459	4238
926.566	4303
926.673	4139
926.779	4071
926.886	4063
926.993	3987
927.099	3934
927.206	3945
927.312	3930
927.419	4032
927.525	4048
927.631	4048
927.737	3956
927.843	3945
927.95	3838
928.056	3960
928.162	3998
928.267	4051
928.373	4603
928.479	4135
928.585	3861
928.69	4036
928.796	4086
928.901	3979
929.007	3823
929.112	3994
929.218	3956
929.323	3922
929.428	3941
929.533	4063
929.638	3915
929.743	3949
929.848	4025
929.953	4010
930.058	3937
930.163	3755
930.267	3816
930.372	3956
930.477	3819
930.581	4063
930.685	3949
930.79	3846
930.894	3915
930.998	3838
931.103	4040
931.207	3648
931.311	3713
931.415	3660
931.519	3511
931.623	3545
