Data from test_V78500241_396.txt Node
Date: Fri Mar 25 16:51:45 CST 2022
User: usil
Spectrometer: V785-0024
Trigger mode: 0
Integration Time (sec): 4.000000E-1
Scans to average: 1
Nonlinearity correction enabled: false
Boxcar width: 0
Storing dark spectrum: false
XAxis mode: Wavelengths
Number of Pixels in Spectrum: 1024
>>>>>Begin Spectral Data<<<<<
801.071	8107
801.214	8103
801.356	7917
801.499	7925
801.641	7890
801.783	7928
801.926	7932
802.068	7982
802.211	7978
802.353	7997
802.496	7902
802.638	7902
802.78	7940
802.923	7970
803.065	7928
803.208	7887
803.35	7997
803.492	8084
803.635	8157
803.777	8001
803.919	8107
804.061	8438
804.204	8119
804.346	8054
804.488	7955
804.63	8119
804.773	7982
804.915	8126
805.057	8298
805.199	8221
805.341	8199
805.483	8271
805.626	8172
805.768	8054
805.91	8119
806.052	8183
806.194	8084
806.336	8404
806.478	8164
806.62	8107
806.762	8225
806.904	8358
807.046	8427
807.188	8427
807.33	8252
807.472	8381
807.614	8202
807.756	8172
807.898	8027
808.04	7875
808.182	7913
808.324	7993
808.465	7902
808.607	8103
808.749	8183
808.891	8256
809.033	8370
809.174	8221
809.316	8081
809.458	8073
809.6	8027
809.741	7978
809.883	8065
810.025	8138
810.166	8096
810.308	8062
810.45	7997
810.591	7936
810.733	7803
810.875	7704
811.016	7605
811.158	7521
811.299	7712
811.441	7841
811.582	7772
811.724	7632
811.865	7502
812.007	7639
812.148	7628
812.29	7597
812.431	7788
812.573	7951
812.714	8005
812.855	8149
812.997	8259
813.138	8362
813.279	8202
813.421	8168
813.562	8069
813.703	7947
813.845	7811
813.986	7552
814.127	7350
814.268	7316
814.41	7240
814.551	7259
814.692	7285
814.833	7149
814.974	7103
815.115	7122
815.256	6943
815.397	6951
815.539	6916
815.68	6844
815.821	6802
815.962	6886
816.103	6878
816.244	6779
816.385	6696
816.526	6684
816.666	6536
816.807	6353
816.948	6509
817.089	6506
817.23	6532
817.371	6372
817.512	6441
817.653	6448
817.793	6399
817.934	6388
818.075	6494
818.216	6467
818.356	6422
818.497	6296
818.638	6201
818.778	6117
818.919	6148
819.06	6205
819.2	6300
819.341	6270
819.481	6365
819.622	6574
819.762	6776
819.903	6757
820.043	6574
820.184	6620
820.324	6604
820.465	6719
820.605	6707
820.746	6627
820.886	6559
821.026	6677
821.167	6711
821.307	6829
821.447	6806
821.588	6642
821.728	6589
821.868	6525
822.008	6350
822.149	6410
822.289	6410
822.429	6121
822.569	6091
822.709	6182
822.849	6011
822.99	5916
823.13	5988
823.27	5965
823.41	5859
823.55	5859
823.69	5741
823.83	5794
823.97	5684
824.11	5573
824.25	5497
824.389	5619
824.529	5627
824.669	5562
824.809	5676
824.949	5676
825.089	5627
825.228	5516
825.368	5387
825.508	5360
825.648	5360
825.787	5376
825.927	5368
826.067	5326
826.206	5322
826.346	5368
826.485	5402
826.625	5425
826.765	5570
826.904	5501
827.044	5261
827.183	5269
827.323	5174
827.462	5288
827.601	5170
827.741	5258
827.88	5261
828.02	5178
828.159	5299
828.298	5307
828.437	5376
828.577	5322
828.716	5478
828.855	5383
828.994	5159
829.134	5162
829.273	5212
829.412	5140
829.551	5155
829.69	5174
829.829	5235
829.968	5387
830.107	5326
830.246	5326
830.385	5181
830.524	5162
830.663	5113
830.802	4968
830.941	4938
831.08	4930
831.219	5006
831.357	4976
831.496	5147
831.635	4961
831.774	4828
831.913	4835
832.051	4778
832.19	4752
832.329	4870
832.467	4675
832.606	4656
832.744	4702
832.883	4755
833.022	4774
833.16	4797
833.299	4847
833.437	4820
833.576	4873
833.714	4866
833.852	4858
833.991	4911
834.129	4938
834.267	4949
834.406	4911
834.544	4991
834.682	4976
834.821	4927
834.959	5178
835.097	5025
835.235	5204
835.373	5094
835.511	5136
835.65	5010
835.788	5033
835.926	4946
836.064	4881
836.202	4961
836.34	5170
836.478	5193
836.615	5136
836.753	5254
836.891	5318
837.029	5273
837.167	5201
837.305	5185
837.443	5170
837.58	5071
837.718	5284
837.856	5223
837.993	5189
838.131	5269
838.269	5239
838.406	5197
838.544	5193
838.681	5094
838.819	4995
838.956	4904
839.094	4831
839.231	5006
839.369	5071
839.506	5448
839.643	5299
839.781	5121
839.918	5041
840.055	5143
840.193	5178
840.33	5113
840.467	5204
840.604	5231
840.742	5474
840.879	5079
841.016	5090
841.153	5159
841.29	5387
841.427	5318
841.564	5334
841.701	5330
841.838	5254
841.975	5261
842.112	5330
842.249	5178
842.385	5102
842.522	5337
842.659	5189
842.796	5132
842.933	5235
843.069	5162
843.206	5162
843.343	5311
843.479	5235
843.616	5246
843.752	5064
843.889	5033
844.025	5204
844.162	5037
844.298	5273
844.435	5060
844.571	5045
844.708	5242
844.844	5326
844.98	5395
845.117	5273
845.253	5159
845.389	5086
845.525	5162
845.661	5151
845.798	5006
845.934	5136
846.07	5041
846.206	5250
846.342	5303
846.478	5204
846.614	5003
846.75	5010
846.886	4976
847.022	5159
847.158	5022
847.294	5132
847.429	5109
847.565	5067
847.701	5322
847.837	4854
847.972	4831
848.108	4953
848.244	4904
848.379	4778
848.515	4740
848.65	4763
848.786	4771
848.921	4801
849.057	4919
849.192	4892
849.328	4828
849.463	4850
849.598	4763
849.734	4771
849.869	4687
850.004	4694
850.14	4694
850.275	4668
850.41	4546
850.545	4622
850.68	4615
850.815	4634
850.95	4668
851.085	4904
851.22	4786
851.355	4675
851.49	4656
851.625	4626
851.76	4565
851.895	4554
852.03	4573
852.165	4656
852.299	4740
852.434	4771
852.569	4717
852.703	4793
852.838	4793
852.973	4923
853.107	4953
853.242	4733
853.376	4679
853.511	4538
853.645	4649
853.78	4797
853.914	4725
854.048	4706
854.183	4725
854.317	4694
854.451	4862
854.585	4653
854.72	4672
854.854	4763
854.988	4569
855.122	4615
855.256	4527
855.39	4656
855.524	4824
855.658	4736
855.792	4786
855.926	4755
856.06	4767
856.194	4793
856.327	4664
856.461	4584
856.595	4596
856.729	4664
856.862	4759
856.996	4717
857.13	4740
857.263	4786
857.397	4801
857.53	4645
857.664	4729
857.797	4801
857.931	4828
858.064	4702
858.197	4698
858.331	4740
858.464	4653
858.597	4493
858.731	4679
858.864	4615
858.997	4599
859.13	4649
859.263	4733
859.396	4710
859.529	4634
859.662	4611
859.795	4603
859.928	4668
860.061	4778
860.194	4782
860.327	4618
860.46	4584
860.592	4694
860.725	4786
860.858	4748
860.99	4592
861.123	4550
861.256	4508
861.388	4660
861.521	5345
861.653	4478
861.786	4402
861.918	4443
862.05	4573
862.183	4554
862.315	4618
862.447	4649
862.58	4577
862.712	4394
862.844	4325
862.976	4462
863.108	4470
863.24	4797
863.372	4325
863.504	4409
863.636	4413
863.768	4493
863.9	4470
864.032	4379
864.164	4424
864.296	4470
864.428	4558
864.559	4573
864.691	4527
864.823	4531
864.954	4527
865.086	4516
865.217	4474
865.349	4443
865.48	4470
865.612	4504
865.743	4618
865.875	4485
866.006	4440
866.137	4474
866.269	4440
866.4	4432
866.531	4424
866.662	4432
866.793	4424
866.924	4402
867.055	4519
867.186	4462
867.317	4455
867.448	4360
867.579	4421
867.71	4428
867.841	4421
867.972	4459
868.103	4478
868.233	4478
868.364	4478
868.495	4493
868.625	4622
868.756	4793
868.886	4622
869.017	4637
869.147	4771
869.278	4774
869.408	4683
869.539	4626
869.669	4691
869.799	4664
869.929	4778
870.06	4736
870.19	4942
870.32	4938
870.45	4930
870.58	4991
870.71	5098
870.84	5083
870.97	4968
871.1	4892
871.23	5124
871.36	5159
871.489	4999
871.619	5121
871.749	5124
871.879	5166
872.008	5189
872.138	5090
872.267	4938
872.397	4862
872.526	4809
872.656	4759
872.785	4809
872.915	4938
873.044	5006
873.173	4949
873.303	5018
873.432	4953
873.561	4980
873.69	4908
873.819	4870
873.948	4949
874.077	4847
874.206	4831
874.335	4801
874.464	4938
874.593	5048
874.722	4946
874.851	5140
874.979	5086
875.108	5014
875.237	4908
875.365	4858
875.494	4877
875.623	4984
875.751	4858
875.88	4881
876.008	5010
876.136	5033
876.265	5242
876.393	5345
876.521	5269
876.65	5220
876.778	5166
876.906	5071
877.034	5022
877.162	5022
877.29	4987
877.418	5071
877.546	5052
877.674	5041
877.802	4995
877.93	4995
878.058	4915
878.185	4908
878.313	4957
878.441	4908
878.568	4828
878.696	4896
878.824	4999
878.951	4991
879.079	5109
879.206	5292
879.333	5105
879.461	5041
879.588	4987
879.715	5143
879.842	5223
879.97	4953
880.097	4850
880.224	4767
880.351	4824
880.478	4870
880.605	4801
880.732	4786
880.859	5105
880.986	4904
881.112	4911
881.239	4805
881.366	4698
881.493	4577
881.619	4603
881.746	4691
881.872	4645
881.999	4626
882.125	4683
882.252	4790
882.378	4824
882.505	4957
882.631	4812
882.757	4679
882.883	4714
883.01	4755
883.136	4660
883.262	4653
883.388	4592
883.514	4805
883.64	4858
883.766	4828
883.892	4725
884.018	4736
884.143	4889
884.269	4976
884.395	4675
884.52	4649
884.646	4660
884.772	4622
884.897	4554
885.023	4687
885.148	4812
885.274	4854
885.399	4801
885.524	4710
885.65	4729
885.775	4759
885.9	4748
886.025	4873
886.15	4847
886.275	4740
886.4	4641
886.525	4706
886.65	4698
886.775	4744
886.9	4919
887.025	5037
887.149	4885
887.274	4672
887.399	4615
887.523	4596
887.648	4588
887.773	4542
887.897	4809
888.021	4790
888.146	4645
888.27	4801
888.395	4938
888.519	4790
888.643	4797
888.767	4793
888.891	4698
889.015	4622
889.139	4653
889.263	4618
889.387	4706
889.511	4877
889.635	4801
889.759	4630
889.883	4626
890.006	4763
890.13	4843
890.254	4649
890.377	4660
890.501	4577
890.624	4493
890.748	4637
890.871	4561
890.995	4474
891.118	4417
891.241	4516
891.364	4554
891.488	4649
891.611	4504
891.734	4516
891.857	4611
891.98	4535
892.103	4653
892.226	4596
892.349	4554
892.471	4424
892.594	4523
892.717	4615
892.839	4599
892.962	4596
893.085	4637
893.207	4637
893.33	4474
893.452	4504
893.575	4641
893.697	4558
893.819	4759
893.941	4866
894.064	4782
894.186	4607
894.308	4558
894.43	4736
894.552	4778
894.674	4793
894.796	4558
894.918	4611
895.04	4508
895.161	4755
895.283	4679
895.405	4577
895.526	4698
895.648	4683
895.769	4660
895.891	4702
896.012	4714
896.134	4744
896.255	4641
896.376	4599
896.498	4660
896.619	4656
896.74	4603
896.861	4626
896.982	4900
897.103	5075
897.224	4809
897.345	4721
897.466	4694
897.587	4763
897.708	4892
897.828	4767
897.949	4698
898.07	4516
898.19	4630
898.311	4850
898.431	4645
898.552	4740
898.672	4824
898.792	4759
898.913	4752
899.033	4645
899.153	4523
899.273	4436
899.393	4497
899.513	4531
899.633	4493
899.753	4546
899.873	4516
899.993	4592
900.113	4474
900.232	4622
900.352	4554
900.472	4493
900.591	4379
900.711	4451
900.83	4440
900.95	4626
901.069	4649
901.189	4558
901.308	4356
901.427	4375
901.546	4337
901.665	4478
901.784	4485
901.904	4375
902.023	4344
902.141	4207
902.26	4143
902.379	4287
902.498	4284
902.617	4230
902.735	4383
902.854	4428
902.973	4390
903.091	4230
903.21	4234
903.328	4265
903.446	4299
903.565	4253
903.683	4325
903.801	4306
903.919	4402
904.038	4428
904.156	4280
904.274	4462
904.392	4447
904.51	4428
904.627	4508
904.745	4535
904.863	4626
904.981	4390
905.098	4303
905.216	4363
905.334	4466
905.451	4394
905.569	4485
905.686	4565
905.803	4558
905.921	4402
906.038	4580
906.155	4508
906.272	4394
906.389	4470
906.506	4329
906.623	4352
906.74	4390
906.857	4314
906.974	4417
907.091	4603
907.208	4660
907.324	4607
907.441	4470
907.557	4352
907.674	4341
907.79	4341
907.907	4447
908.023	4466
908.139	4489
908.256	4451
908.372	4443
908.488	4440
908.604	4383
908.72	4352
908.836	4360
908.952	4405
909.068	4478
909.184	4550
909.3	4478
909.415	4550
909.531	4550
909.647	4375
909.762	4344
909.878	4360
909.993	4443
910.108	4443
910.224	4398
910.339	4470
910.454	4443
910.57	4417
910.685	4299
910.8	4653
910.915	4596
911.03	4504
911.145	4318
911.259	4375
911.374	4360
911.489	4303
911.604	4261
911.718	4234
911.833	4166
911.947	4032
912.062	3998
912.176	4200
912.291	4238
912.405	4268
912.519	4405
912.633	4478
912.748	4390
912.862	4291
912.976	4166
913.09	4101
913.204	4158
913.318	4272
913.431	4333
913.545	4386
913.659	4428
913.772	4329
913.886	4249
914	4246
914.113	4413
914.226	4500
914.34	4402
914.453	4207
914.566	4436
914.68	4325
914.793	4329
914.906	4147
915.019	4131
915.132	4044
915.245	4150
915.358	4242
915.47	4265
915.583	4253
915.696	4299
915.809	4417
915.921	4402
916.034	4261
916.146	4284
916.259	4246
916.371	4417
916.483	4390
916.595	4215
916.708	4363
916.82	4306
916.932	4276
917.044	4333
917.156	4348
917.268	4257
917.38	4242
917.491	4280
917.603	4348
917.715	4405
917.826	4417
917.938	4356
918.049	4246
918.161	4421
918.272	4474
918.384	4531
918.495	4466
918.606	4299
918.717	4230
918.828	4325
918.939	4371
919.05	4246
919.161	4329
919.272	4185
919.383	4249
919.494	4409
919.604	4641
919.715	4470
919.826	4360
919.936	4386
920.047	4481
920.157	4432
920.267	4706
920.378	4538
920.488	4516
920.598	4725
920.708	4919
920.818	4748
920.928	4744
921.038	4919
921.148	4934
921.258	4649
921.368	4546
921.477	4474
921.587	4489
921.697	4360
921.806	4523
921.916	4421
922.025	4276
922.134	4291
922.244	4268
922.353	4303
922.462	4196
922.571	4116
922.68	4032
922.789	3937
922.898	4055
923.007	4013
923.116	4101
923.224	4063
923.333	4051
923.442	3998
923.55	4013
923.659	4029
923.767	4116
923.876	4021
923.984	4139
924.092	3983
924.201	4078
924.309	4112
924.417	4147
924.525	4063
924.633	4055
924.741	5075
924.849	3937
924.956	4147
925.064	3994
925.172	3896
925.279	3949
925.387	4090
925.494	4063
925.602	4207
925.709	4246
925.816	4086
925.924	4147
926.031	4310
926.138	4211
926.245	4219
926.352	4128
926.459	4253
926.566	4314
926.673	4181
926.779	4044
926.886	4082
926.993	4002
927.099	3983
927.206	3922
927.312	3949
927.419	4048
927.525	4059
927.631	4124
927.737	3987
927.843	3907
927.95	3854
928.056	3994
928.162	3991
928.267	4017
928.373	4672
928.479	4101
928.585	3861
928.69	4002
928.796	4078
928.901	3972
929.007	3854
929.112	4006
929.218	4010
929.323	3953
929.428	3960
929.533	4166
929.638	3949
929.743	3983
929.848	4082
929.953	3991
930.058	3918
930.163	3762
930.267	3808
930.372	3998
930.477	3770
930.581	4036
930.685	3926
930.79	3831
930.894	3922
930.998	3884
931.103	4032
931.207	3770
931.311	3694
931.415	3686
931.519	3519
931.623	3580
