Data from test_V78500241_320.txt Node
Date: Fri Mar 25 16:51:13 CST 2022
User: usil
Spectrometer: V785-0024
Trigger mode: 0
Integration Time (sec): 4.000000E-1
Scans to average: 1
Nonlinearity correction enabled: false
Boxcar width: 0
Storing dark spectrum: false
XAxis mode: Wavelengths
Number of Pixels in Spectrum: 1024
>>>>>Begin Spectral Data<<<<<
801.071	8054
801.214	8043
801.356	7913
801.499	7894
801.641	7818
801.783	7852
801.926	8031
802.068	8039
802.211	7986
802.353	8008
802.496	7917
802.638	7890
802.78	7974
802.923	7963
803.065	7879
803.208	7887
803.35	7986
803.492	8092
803.635	8092
803.777	7997
803.919	8183
804.061	8484
804.204	8195
804.346	8077
804.488	7967
804.63	8088
804.773	8020
804.915	8096
805.057	8271
805.199	8187
805.341	8256
805.483	8187
805.626	8206
805.768	8115
805.91	8111
806.052	8183
806.194	8130
806.336	8290
806.478	8161
806.62	8123
806.762	8199
806.904	8298
807.046	8446
807.188	8404
807.33	8275
807.472	8343
807.614	8168
807.756	8058
807.898	7978
808.04	7875
808.182	7970
808.324	7974
808.465	8046
808.607	8138
808.749	8119
808.891	8187
809.033	8252
809.174	8119
809.316	8092
809.458	8054
809.6	7936
809.741	8054
809.883	7951
810.025	8046
810.166	8043
810.308	8088
810.45	8008
810.591	7894
810.733	7643
810.875	7681
811.016	7422
811.158	7472
811.299	7597
811.441	7792
811.582	7742
811.724	7548
811.865	7544
812.007	7693
812.148	7639
812.29	7639
812.431	7776
812.573	7875
812.714	7936
812.855	8107
812.997	8202
813.138	8313
813.279	8164
813.421	8092
813.562	8035
813.703	7917
813.845	7731
813.986	7438
814.127	7308
814.268	7206
814.41	7202
814.551	7247
814.692	7190
814.833	7099
814.974	7061
815.115	7110
815.256	7008
815.397	6894
815.539	6939
815.68	6810
815.821	6829
815.962	6818
816.103	6825
816.244	6791
816.385	6646
816.526	6639
816.666	6483
816.807	6342
816.948	6521
817.089	6475
817.23	6464
817.371	6334
817.512	6350
817.653	6376
817.793	6437
817.934	6407
818.075	6433
818.216	6467
818.356	6433
818.497	6281
818.638	6114
818.778	6144
818.919	6148
819.06	6136
819.2	6319
819.341	6327
819.481	6369
819.622	6506
819.762	6768
819.903	6741
820.043	6627
820.184	6570
820.324	6555
820.465	6688
820.605	6654
820.746	6665
820.886	6525
821.026	6658
821.167	6654
821.307	6833
821.447	6764
821.588	6696
821.728	6544
821.868	6517
822.008	6327
822.149	6357
822.289	6388
822.429	6178
822.569	6114
822.709	6125
822.849	5916
822.99	5893
823.13	5977
823.27	5908
823.41	5802
823.55	5817
823.69	5741
823.83	5760
823.97	5665
824.11	5581
824.25	5501
824.389	5573
824.529	5577
824.669	5467
824.809	5668
824.949	5627
825.089	5623
825.228	5585
825.368	5433
825.508	5360
825.648	5334
825.787	5379
825.927	5357
826.067	5307
826.206	5292
826.346	5417
826.485	5368
826.625	5410
826.765	5509
826.904	5452
827.044	5212
827.183	5189
827.323	5124
827.462	5223
827.601	5155
827.741	5178
827.88	5239
828.02	5113
828.159	5181
828.298	5292
828.437	5360
828.577	5250
828.716	5471
828.855	5322
828.994	5208
829.134	5166
829.273	5140
829.412	5178
829.551	5117
829.69	5086
829.829	5265
829.968	5395
830.107	5273
830.246	5318
830.385	5178
830.524	5204
830.663	5075
830.802	5033
830.941	4881
831.08	4885
831.219	4976
831.357	4980
831.496	5140
831.635	4972
831.774	4892
831.913	4797
832.051	4725
832.19	4736
832.329	4847
832.467	4717
832.606	4645
832.744	4714
832.883	4702
833.022	4729
833.16	4778
833.299	4839
833.437	4801
833.576	4793
833.714	4881
833.852	4877
833.991	4923
834.129	4980
834.267	4904
834.406	4892
834.544	4930
834.682	4965
834.821	4961
834.959	5140
835.097	4984
835.235	5174
835.373	5067
835.511	5121
835.65	5075
835.788	5029
835.926	4885
836.064	4858
836.202	4889
836.34	5162
836.478	5178
836.615	5170
836.753	5147
836.891	5277
837.029	5250
837.167	5227
837.305	5189
837.443	5143
837.58	5045
837.718	5254
837.856	5235
837.993	5178
838.131	5288
838.269	5178
838.406	5220
838.544	5242
838.681	5052
838.819	4987
838.956	4862
839.094	4934
839.231	5018
839.369	5090
839.506	5421
839.643	5269
839.781	5022
839.918	5025
840.055	5128
840.193	5090
840.33	5113
840.467	5113
840.604	5189
840.742	5421
840.879	5071
841.016	5071
841.153	5132
841.29	5345
841.427	5360
841.564	5376
841.701	5311
841.838	5250
841.975	5216
842.112	5223
842.249	5162
842.385	5170
842.522	5337
842.659	5174
842.796	5151
842.933	5140
843.069	5181
843.206	5181
843.343	5288
843.479	5212
843.616	5254
843.752	5010
843.889	5010
844.025	5201
844.162	5041
844.298	5204
844.435	5124
844.571	5075
844.708	5197
844.844	5330
844.98	5372
845.117	5273
845.253	5102
845.389	5056
845.525	5128
845.661	5113
845.798	5025
845.934	5102
846.07	5029
846.206	5189
846.342	5265
846.478	5151
846.614	5025
846.75	4942
846.886	4972
847.022	5155
847.158	4972
847.294	5060
847.429	5132
847.565	5045
847.701	5326
847.837	4862
847.972	4782
848.108	4938
848.244	4930
848.379	4763
848.515	4736
848.65	4694
848.786	4736
848.921	4736
849.057	4896
849.192	4938
849.328	4790
849.463	4862
849.598	4778
849.734	4736
849.869	4698
850.004	4630
850.14	4634
850.275	4588
850.41	4561
850.545	4546
850.68	4626
850.815	4668
850.95	4637
851.085	4843
851.22	4725
851.355	4615
851.49	4660
851.625	4592
851.76	4588
851.895	4607
852.03	4500
852.165	4630
852.299	4698
852.434	4771
852.569	4702
852.703	4786
852.838	4847
852.973	4911
853.107	4889
853.242	4733
853.376	4649
853.511	4607
853.645	4618
853.78	4790
853.914	4664
854.048	4687
854.183	4634
854.317	4733
854.451	4843
854.585	4683
854.72	4607
854.854	4774
854.988	4637
855.122	4603
855.256	4527
855.39	4649
855.524	4744
855.658	4725
855.792	4725
855.926	4755
856.06	4759
856.194	4797
856.327	4687
856.461	4588
856.595	4656
856.729	4596
856.862	4763
856.996	4679
857.13	4740
857.263	4767
857.397	4828
857.53	4641
857.664	4748
857.797	4782
857.931	4744
858.064	4721
858.197	4714
858.331	4634
858.464	4622
858.597	4546
858.731	4653
858.864	4668
858.997	4611
859.13	4645
859.263	4645
859.396	4687
859.529	4637
859.662	4561
859.795	4516
859.928	4607
860.061	4759
860.194	4801
860.327	4630
860.46	4550
860.592	4675
860.725	4660
860.858	4675
860.99	4588
861.123	4516
861.256	4554
861.388	4626
861.521	5368
861.653	4519
861.786	4451
861.918	4455
862.05	4512
862.183	4519
862.315	4596
862.447	4603
862.58	4573
862.712	4402
862.844	4325
862.976	4481
863.108	4413
863.24	4927
863.372	4360
863.504	4409
863.636	4367
863.768	4535
863.9	4455
864.032	4344
864.164	4379
864.296	4459
864.428	4527
864.559	4527
864.691	4542
864.823	4512
864.954	4500
865.086	4500
865.217	4474
865.349	4367
865.48	4447
865.612	4436
865.743	4622
865.875	4462
866.006	4436
866.137	4497
866.269	4447
866.4	4398
866.531	4409
866.662	4390
866.793	4386
866.924	4459
867.055	4519
867.186	4443
867.317	4379
867.448	4386
867.579	4413
867.71	4409
867.841	4379
867.972	4451
868.103	4447
868.233	4470
868.364	4474
868.495	4516
868.625	4702
868.756	4748
868.886	4577
869.017	4634
869.147	4805
869.278	4797
869.408	4660
869.539	4668
869.669	4679
869.799	4668
869.929	4763
870.06	4725
870.19	4927
870.32	4892
870.45	4965
870.58	4987
870.71	5075
870.84	5056
870.97	4930
871.1	4904
871.23	5159
871.36	5086
871.489	5045
871.619	5098
871.749	5079
871.879	5090
872.008	5185
872.138	5014
872.267	4957
872.397	4847
872.526	4828
872.656	4774
872.785	4820
872.915	4934
873.044	4980
873.173	4938
873.303	5010
873.432	4968
873.561	4927
873.69	4881
873.819	4831
873.948	4908
874.077	4820
874.206	4706
874.335	4812
874.464	4938
874.593	5067
874.722	4968
874.851	5067
874.979	5105
875.108	4995
875.237	4930
875.365	4904
875.494	4862
875.623	4972
875.751	4862
875.88	4866
876.008	4980
876.136	5075
876.265	5166
876.393	5318
876.521	5250
876.65	5227
876.778	5189
876.906	5105
877.034	5014
877.162	5025
877.29	4938
877.418	5045
877.546	5029
877.674	5067
877.802	5025
877.93	5064
878.058	4961
878.185	4866
878.313	4968
878.441	4961
878.568	4862
878.696	4904
878.824	4972
878.951	5045
879.079	5143
879.206	5246
879.333	5128
879.461	5003
879.588	5033
879.715	5189
879.842	5239
879.97	5045
880.097	4801
880.224	4752
880.351	4835
880.478	4877
880.605	4839
880.732	4824
880.859	5117
880.986	4949
881.112	4930
881.239	4858
881.366	4706
881.493	4649
881.619	4603
881.746	4634
881.872	4744
881.999	4736
882.125	4706
882.252	4904
882.378	4835
882.505	4976
882.631	4873
882.757	4714
882.883	4763
883.01	4809
883.136	4710
883.262	4656
883.388	4694
883.514	4862
883.64	4881
883.766	4847
883.892	4710
884.018	4721
884.143	4930
884.269	5006
884.395	4675
884.52	4615
884.646	4691
884.772	4653
884.897	4630
885.023	4774
885.148	4782
885.274	4942
885.399	4820
885.524	4786
885.65	4729
885.775	4801
885.9	4790
886.025	4885
886.15	4793
886.275	4767
886.4	4698
886.525	4740
886.65	4736
886.775	4702
886.9	4942
887.025	5086
887.149	4866
887.274	4698
887.399	4626
887.523	4615
887.648	4668
887.773	4653
887.897	4790
888.021	4812
888.146	4706
888.27	4831
888.395	4942
888.519	4812
888.643	4835
888.767	4900
888.891	4759
889.015	4596
889.139	4736
889.263	4641
889.387	4835
889.511	4949
889.635	4790
889.759	4687
889.883	4664
890.006	4782
890.13	4797
890.254	4653
890.377	4706
890.501	4622
890.624	4550
890.748	4675
890.871	4558
890.995	4474
891.118	4424
891.241	4527
891.364	4554
891.488	4679
891.611	4508
891.734	4603
891.857	4611
891.98	4554
892.103	4725
892.226	4592
892.349	4542
892.471	4478
892.594	4565
892.717	4637
892.839	4603
892.962	4653
893.085	4691
893.207	4622
893.33	4493
893.452	4535
893.575	4660
893.697	4592
893.819	4843
893.941	4873
894.064	4809
894.186	4615
894.308	4634
894.43	4809
894.552	4854
894.674	4778
894.796	4615
894.918	4618
895.04	4641
895.161	4752
895.283	4774
895.405	4580
895.526	4660
895.648	4706
895.769	4763
895.891	4733
896.012	4786
896.134	4725
896.255	4771
896.376	4656
896.498	4603
896.619	4710
896.74	4694
896.861	4645
896.982	4976
897.103	5117
897.224	4862
897.345	4782
897.466	4694
897.587	4782
897.708	4923
897.828	4824
897.949	4714
898.07	4615
898.19	4694
898.311	4866
898.431	4683
898.552	4763
898.672	4835
898.792	4858
898.913	4812
899.033	4656
899.153	4569
899.273	4504
899.393	4531
899.513	4561
899.633	4618
899.753	4634
899.873	4523
899.993	4565
900.113	4577
900.232	4630
900.352	4577
900.472	4531
900.591	4436
900.711	4512
900.83	4493
900.95	4611
901.069	4717
901.189	4630
901.308	4432
901.427	4375
901.546	4417
901.665	4504
901.784	4550
901.904	4421
902.023	4352
902.141	4249
902.26	4204
902.379	4348
902.498	4268
902.617	4261
902.735	4474
902.854	4436
902.973	4371
903.091	4219
903.21	4287
903.328	4352
903.446	4299
903.565	4310
903.683	4398
903.801	4337
903.919	4462
904.038	4493
904.156	4337
904.274	4462
904.392	4405
904.51	4481
904.627	4504
904.745	4615
904.863	4653
904.981	4428
905.098	4356
905.216	4352
905.334	4432
905.451	4451
905.569	4485
905.686	4603
905.803	4603
905.921	4459
906.038	4538
906.155	4493
906.272	4451
906.389	4519
906.506	4413
906.623	4436
906.74	4459
906.857	4325
906.974	4428
907.091	4561
907.208	4687
907.324	4599
907.441	4535
907.557	4383
907.674	4329
907.79	4344
907.907	4481
908.023	4542
908.139	4455
908.256	4485
908.372	4493
908.488	4485
908.604	4417
908.72	4356
908.836	4451
908.952	4436
909.068	4493
909.184	4607
909.3	4497
909.415	4618
909.531	4588
909.647	4394
909.762	4451
909.878	4394
909.993	4459
910.108	4474
910.224	4504
910.339	4527
910.454	4459
910.57	4390
910.685	4303
910.8	4710
910.915	4679
911.03	4588
911.145	4344
911.259	4356
911.374	4390
911.489	4344
911.604	4295
911.718	4223
911.833	4211
911.947	4139
912.062	4048
912.176	4253
912.291	4295
912.405	4318
912.519	4474
912.633	4519
912.748	4447
912.862	4299
912.976	4272
913.09	4131
913.204	4246
913.318	4272
913.431	4417
913.545	4344
913.659	4443
913.772	4394
913.886	4230
914	4265
914.113	4402
914.226	4500
914.34	4421
914.453	4284
914.566	4523
914.68	4348
914.793	4337
914.906	4185
915.019	4135
915.132	4109
915.245	4223
915.358	4200
915.47	4257
915.583	4299
915.696	4348
915.809	4459
915.921	4462
916.034	4272
916.146	4234
916.259	4257
916.371	4375
916.483	4371
916.595	4291
916.708	4363
916.82	4356
916.932	4341
917.044	4390
917.156	4344
917.268	4291
917.38	4287
917.491	4295
917.603	4432
917.715	4432
917.826	4489
917.938	4421
918.049	4261
918.161	4436
918.272	4565
918.384	4588
918.495	4455
918.606	4325
918.717	4333
918.828	4333
918.939	4402
919.05	4272
919.161	4333
919.272	4124
919.383	4215
919.494	4478
919.604	4672
919.715	4440
919.826	4405
919.936	4455
920.047	4592
920.157	4565
920.267	4721
920.378	4577
920.488	4527
920.598	4736
920.708	4896
920.818	4782
920.928	4778
921.038	4987
921.148	4965
921.258	4664
921.368	4561
921.477	4535
921.587	4497
921.697	4424
921.806	4607
921.916	4485
922.025	4341
922.134	4284
922.244	4276
922.353	4352
922.462	4181
922.571	4166
922.68	4044
922.789	4021
922.898	4040
923.007	4002
923.116	4116
923.224	4071
923.333	4116
923.442	3987
923.55	3994
923.659	4055
923.767	4116
923.876	4010
923.984	4150
924.092	3983
924.201	4101
924.309	4116
924.417	4097
924.525	4063
924.633	4200
924.741	4881
924.849	3972
924.956	4166
925.064	4025
925.172	3899
925.279	3968
925.387	4090
925.494	4051
925.602	4272
925.709	4215
925.816	4051
925.924	4158
926.031	4265
926.138	4249
926.245	4242
926.352	4135
926.459	4230
926.566	4318
926.673	4131
926.779	4101
926.886	4143
926.993	4010
927.099	3994
927.206	3972
927.312	3972
927.419	4059
927.525	4055
927.631	4097
927.737	3972
927.843	3945
927.95	3857
928.056	3975
928.162	3998
928.267	4067
928.373	4733
928.479	4139
928.585	3884
928.69	4025
928.796	4082
928.901	3930
929.007	3907
929.112	4013
929.218	3991
929.323	3953
929.428	3960
929.533	4112
929.638	3922
929.743	3987
929.848	4055
929.953	3998
930.058	3937
930.163	3804
930.267	3819
930.372	4044
930.477	3823
930.581	4097
930.685	3975
930.79	3850
930.894	3869
930.998	3903
931.103	4086
931.207	3724
931.311	3682
931.415	3694
931.519	3557
931.623	3618
