Data from test_V78500241_645.txt Node
Date: Fri Mar 25 16:53:29 CST 2022
User: usil
Spectrometer: V785-0024
Trigger mode: 0
Integration Time (sec): 4.000000E-1
Scans to average: 1
Nonlinearity correction enabled: false
Boxcar width: 0
Storing dark spectrum: false
XAxis mode: Wavelengths
Number of Pixels in Spectrum: 1024
>>>>>Begin Spectral Data<<<<<
801.071	7993
801.214	8043
801.356	7917
801.499	7879
801.641	7799
801.783	7845
801.926	7993
802.068	7951
802.211	8008
802.353	8005
802.496	7868
802.638	7944
802.78	7868
802.923	7913
803.065	7769
803.208	7814
803.35	7986
803.492	8183
803.635	8233
803.777	7997
803.919	8084
804.061	8339
804.204	8077
804.346	8024
804.488	7906
804.63	8115
804.773	7986
804.915	8100
805.057	8259
805.199	8172
805.341	8214
805.483	8301
805.626	8244
805.768	8081
805.91	8206
806.052	8161
806.194	8126
806.336	8286
806.478	8115
806.62	7989
806.762	8126
806.904	8263
807.046	8480
807.188	8313
807.33	8279
807.472	8290
807.614	8210
807.756	8142
807.898	7921
808.04	7814
808.182	7902
808.324	7902
808.465	7871
808.607	8039
808.749	8073
808.891	8214
809.033	8298
809.174	8168
809.316	8050
809.458	8088
809.6	8005
809.741	8039
809.883	8005
810.025	8065
810.166	8088
810.308	8050
810.45	7989
810.591	7909
810.733	7738
810.875	7723
811.016	7544
811.158	7483
811.299	7559
811.441	7693
811.582	7674
811.724	7529
811.865	7529
812.007	7575
812.148	7594
812.29	7578
812.431	7734
812.573	7792
812.714	7967
812.855	8069
812.997	8221
813.138	8301
813.279	8256
813.421	8149
813.562	8031
813.703	7909
813.845	7772
813.986	7540
814.127	7316
814.268	7285
814.41	7209
814.551	7156
814.692	7137
814.833	7065
814.974	7080
815.115	7065
815.256	6916
815.397	6947
815.539	6939
815.68	6863
815.821	6814
815.962	6947
816.103	6837
816.244	6707
816.385	6677
816.526	6536
816.666	6513
816.807	6315
816.948	6464
817.089	6475
817.23	6422
817.371	6369
817.512	6395
817.653	6338
817.793	6407
817.934	6410
818.075	6460
818.216	6407
818.356	6388
818.497	6232
818.638	6064
818.778	6209
818.919	6159
819.06	6182
819.2	6327
819.341	6311
819.481	6304
819.622	6479
819.762	6662
819.903	6715
820.043	6612
820.184	6551
820.324	6540
820.465	6673
820.605	6555
820.746	6631
820.886	6456
821.026	6639
821.167	6707
821.307	6730
821.447	6764
821.588	6627
821.728	6525
821.868	6467
822.008	6289
822.149	6304
822.289	6311
822.429	6159
822.569	6060
822.709	6083
822.849	5863
822.99	5840
823.13	5863
823.27	5908
823.41	5802
823.55	5798
823.69	5722
823.83	5760
823.97	5691
824.11	5493
824.25	5570
824.389	5547
824.529	5520
824.669	5539
824.809	5596
824.949	5680
825.089	5608
825.228	5581
825.368	5376
825.508	5360
825.648	5303
825.787	5368
825.927	5326
826.067	5280
826.206	5307
826.346	5414
826.485	5440
826.625	5383
826.765	5543
826.904	5471
827.044	5311
827.183	5220
827.323	5098
827.462	5273
827.601	5159
827.741	5147
827.88	5204
828.02	5121
828.159	5235
828.298	5326
828.437	5372
828.577	5223
828.716	5440
828.855	5288
828.994	5174
829.134	5147
829.273	5178
829.412	5147
829.551	5121
829.69	5117
829.829	5269
829.968	5349
830.107	5265
830.246	5246
830.385	5147
830.524	5151
830.663	5045
830.802	4984
830.941	4854
831.08	4877
831.219	4934
831.357	4930
831.496	5140
831.635	4930
831.774	4885
831.913	4870
832.051	4759
832.19	4744
832.329	4866
832.467	4668
832.606	4615
832.744	4748
832.883	4717
833.022	4721
833.16	4782
833.299	4820
833.437	4820
833.576	4786
833.714	4816
833.852	4854
833.991	4866
834.129	4892
834.267	4953
834.406	4919
834.544	4980
834.682	5018
834.821	4972
834.959	5147
835.097	4991
835.235	5102
835.373	5128
835.511	5098
835.65	5010
835.788	5022
835.926	4911
836.064	4843
836.202	4858
836.34	5128
836.478	5227
836.615	5128
836.753	5204
836.891	5250
837.029	5223
837.167	5197
837.305	5151
837.443	5128
837.58	5064
837.718	5273
837.856	5170
837.993	5201
838.131	5235
838.269	5303
838.406	5208
838.544	5162
838.681	5018
838.819	4995
838.956	4946
839.094	4881
839.231	5010
839.369	5025
839.506	5379
839.643	5220
839.781	5067
839.918	4980
840.055	5067
840.193	5056
840.33	5090
840.467	5132
840.604	5189
840.742	5372
840.879	5052
841.016	5090
841.153	5170
841.29	5330
841.427	5368
841.564	5337
841.701	5368
841.838	5265
841.975	5265
842.112	5246
842.249	5105
842.385	5048
842.522	5277
842.659	5117
842.796	5162
842.933	5140
843.069	5136
843.206	5162
843.343	5303
843.479	5201
843.616	5265
843.752	5014
843.889	5056
844.025	5185
844.162	4987
844.298	5197
844.435	5067
844.571	5010
844.708	5174
844.844	5284
844.98	5353
845.117	5299
845.253	5079
845.389	5083
845.525	5181
845.661	5181
845.798	5071
845.934	5128
846.07	5045
846.206	5174
846.342	5292
846.478	5170
846.614	4995
846.75	4946
846.886	4934
847.022	5132
847.158	5029
847.294	5090
847.429	5109
847.565	5094
847.701	5299
847.837	4847
847.972	4801
848.108	4946
848.244	4919
848.379	4755
848.515	4733
848.65	4729
848.786	4752
848.921	4767
849.057	4835
849.192	4911
849.328	4835
849.463	4831
849.598	4790
849.734	4771
849.869	4706
850.004	4649
850.14	4653
850.275	4580
850.41	4523
850.545	4573
850.68	4596
850.815	4607
850.95	4637
851.085	4805
851.22	4748
851.355	4641
851.49	4656
851.625	4592
851.76	4645
851.895	4550
852.03	4558
852.165	4618
852.299	4691
852.434	4721
852.569	4774
852.703	4767
852.838	4847
852.973	4934
853.107	4946
853.242	4717
853.376	4637
853.511	4538
853.645	4561
853.78	4824
853.914	4702
854.048	4675
854.183	4630
854.317	4725
854.451	4847
854.585	4634
854.72	4596
854.854	4801
854.988	4630
855.122	4653
855.256	4466
855.39	4675
855.524	4748
855.658	4675
855.792	4687
855.926	4763
856.06	4748
856.194	4786
856.327	4664
856.461	4641
856.595	4664
856.729	4607
856.862	4672
856.996	4683
857.13	4755
857.263	4740
857.397	4816
857.53	4687
857.664	4729
857.797	4801
857.931	4782
858.064	4668
858.197	4725
858.331	4622
858.464	4611
858.597	4542
858.731	4626
858.864	4664
858.997	4599
859.13	4645
859.263	4634
859.396	4702
859.529	4565
859.662	4542
859.795	4538
859.928	4630
860.061	4752
860.194	4752
860.327	4596
860.46	4538
860.592	4691
860.725	4733
860.858	4736
860.99	4561
861.123	4519
861.256	4512
861.388	4626
861.521	5326
861.653	4481
861.786	4421
861.918	4436
862.05	4474
862.183	4546
862.315	4645
862.447	4660
862.58	4569
862.712	4341
862.844	4310
862.976	4432
863.108	4455
863.24	4824
863.372	4341
863.504	4424
863.636	4428
863.768	4474
863.9	4424
864.032	4413
864.164	4424
864.296	4474
864.428	4519
864.559	4558
864.691	4546
864.823	4474
864.954	4519
865.086	4512
865.217	4428
865.349	4451
865.48	4500
865.612	4497
865.743	4637
865.875	4497
866.006	4432
866.137	4504
866.269	4451
866.4	4409
866.531	4417
866.662	4367
866.793	4409
866.924	4409
867.055	4478
867.186	4443
867.317	4417
867.448	4417
867.579	4383
867.71	4402
867.841	4390
867.972	4489
868.103	4462
868.233	4436
868.364	4413
868.495	4497
868.625	4645
868.756	4755
868.886	4558
869.017	4596
869.147	4759
869.278	4748
869.408	4672
869.539	4649
869.669	4706
869.799	4615
869.929	4771
870.06	4714
870.19	5003
870.32	4892
870.45	4942
870.58	4984
870.71	5090
870.84	5113
870.97	4946
871.1	4908
871.23	5151
871.36	5162
871.489	5022
871.619	5025
871.749	5071
871.879	5143
872.008	5109
872.138	5010
872.267	4976
872.397	4873
872.526	4793
872.656	4748
872.785	4790
872.915	4957
873.044	5071
873.173	4999
873.303	4927
873.432	4904
873.561	4980
873.69	4889
873.819	4839
873.948	4900
874.077	4843
874.206	4740
874.335	4839
874.464	4908
874.593	5010
874.722	4972
874.851	5067
874.979	5018
875.108	5056
875.237	4862
875.365	4816
875.494	4923
875.623	5006
875.751	4812
875.88	4900
876.008	4987
876.136	5056
876.265	5155
876.393	5318
876.521	5220
876.65	5208
876.778	5155
876.906	5033
877.034	5010
877.162	5075
877.29	4999
877.418	5060
877.546	5010
877.674	5083
877.802	5048
877.93	4987
878.058	4923
878.185	4828
878.313	4911
878.441	4923
878.568	4790
878.696	4889
878.824	4946
878.951	4961
879.079	5155
879.206	5292
879.333	5128
879.461	4961
879.588	5018
879.715	5143
879.842	5212
879.97	5045
880.097	4786
880.224	4729
880.351	4843
880.478	4786
880.605	4786
880.732	4805
880.859	5086
880.986	4923
881.112	4938
881.239	4740
881.366	4755
881.493	4592
881.619	4580
881.746	4656
881.872	4615
881.999	4611
882.125	4691
882.252	4782
882.378	4805
882.505	4934
882.631	4801
882.757	4675
882.883	4691
883.01	4714
883.136	4672
883.262	4630
883.388	4584
883.514	4831
883.64	4824
883.766	4763
883.892	4721
884.018	4755
884.143	4889
884.269	4980
884.395	4694
884.52	4607
884.646	4588
884.772	4569
884.897	4588
885.023	4675
885.148	4702
885.274	4908
885.399	4824
885.524	4714
885.65	4702
885.775	4721
885.9	4721
886.025	4820
886.15	4778
886.275	4706
886.4	4660
886.525	4744
886.65	4687
886.775	4672
886.9	4881
887.025	5003
887.149	4771
887.274	4615
887.399	4607
887.523	4664
887.648	4550
887.773	4573
887.897	4812
888.021	4778
888.146	4679
888.27	4805
888.395	4854
888.519	4755
888.643	4790
888.767	4816
888.891	4672
889.015	4565
889.139	4675
889.263	4561
889.387	4744
889.511	4812
889.635	4771
889.759	4637
889.883	4634
890.006	4679
890.13	4847
890.254	4626
890.377	4702
890.501	4565
890.624	4504
890.748	4626
890.871	4531
890.995	4409
891.118	4390
891.241	4519
891.364	4523
891.488	4626
891.611	4485
891.734	4508
891.857	4607
891.98	4561
892.103	4615
892.226	4603
892.349	4523
892.471	4455
892.594	4573
892.717	4596
892.839	4497
892.962	4592
893.085	4721
893.207	4558
893.33	4485
893.452	4512
893.575	4694
893.697	4519
893.819	4828
893.941	4816
894.064	4767
894.186	4618
894.308	4592
894.43	4721
894.552	4847
894.674	4721
894.796	4577
894.918	4634
895.04	4584
895.161	4687
895.283	4656
895.405	4546
895.526	4653
895.648	4740
895.769	4691
895.891	4694
896.012	4733
896.134	4733
896.255	4687
896.376	4641
896.498	4641
896.619	4637
896.74	4622
896.861	4618
896.982	4908
897.103	5075
897.224	4839
897.345	4763
897.466	4649
897.587	4759
897.708	4847
897.828	4809
897.949	4645
898.07	4580
898.19	4607
898.311	4881
898.431	4664
898.552	4755
898.672	4771
898.792	4782
898.913	4763
899.033	4603
899.153	4542
899.273	4409
899.393	4493
899.513	4493
899.633	4542
899.753	4550
899.873	4519
899.993	4588
900.113	4542
900.232	4603
900.352	4535
900.472	4523
900.591	4398
900.711	4481
900.83	4424
900.95	4596
901.069	4759
901.189	4516
901.308	4363
901.427	4284
901.546	4428
901.665	4405
901.784	4504
901.904	4386
902.023	4265
902.141	4185
902.26	4154
902.379	4314
902.498	4261
902.617	4230
902.735	4284
902.854	4371
902.973	4322
903.091	4154
903.21	4204
903.328	4280
903.446	4310
903.565	4227
903.683	4344
903.801	4276
903.919	4383
904.038	4459
904.156	4325
904.274	4462
904.392	4352
904.51	4478
904.627	4466
904.745	4580
904.863	4668
904.981	4386
905.098	4272
905.216	4375
905.334	4394
905.451	4462
905.569	4432
905.686	4573
905.803	4573
905.921	4394
906.038	4615
906.155	4466
906.272	4398
906.389	4440
906.506	4383
906.623	4402
906.74	4428
906.857	4291
906.974	4352
907.091	4538
907.208	4694
907.324	4569
907.441	4485
907.557	4390
907.674	4371
907.79	4337
907.907	4390
908.023	4508
908.139	4466
908.256	4432
908.372	4451
908.488	4432
908.604	4322
908.72	4360
908.836	4394
908.952	4337
909.068	4409
909.184	4577
909.3	4493
909.415	4554
909.531	4527
909.647	4398
909.762	4360
909.878	4344
909.993	4451
910.108	4375
910.224	4394
910.339	4508
910.454	4402
910.57	4367
910.685	4295
910.8	4618
910.915	4573
911.03	4504
911.145	4310
911.259	4341
911.374	4348
911.489	4268
911.604	4287
911.718	4143
911.833	4253
911.947	4090
912.062	3994
912.176	4219
912.291	4211
912.405	4295
912.519	4447
912.633	4523
912.748	4417
912.862	4322
912.976	4211
913.09	4131
913.204	4173
913.318	4253
913.431	4390
913.545	4363
913.659	4447
913.772	4337
913.886	4246
914	4253
914.113	4402
914.226	4413
914.34	4371
914.453	4238
914.566	4424
914.68	4299
914.793	4295
914.906	4166
915.019	4105
915.132	4059
915.245	4181
915.358	4238
915.47	4265
915.583	4291
915.696	4303
915.809	4402
915.921	4428
916.034	4253
916.146	4242
916.259	4177
916.371	4405
916.483	4348
916.595	4204
916.708	4291
916.82	4329
916.932	4310
917.044	4280
917.156	4318
917.268	4246
917.38	4280
917.491	4242
917.603	4390
917.715	4405
917.826	4413
917.938	4344
918.049	4265
918.161	4405
918.272	4550
918.384	4538
918.495	4413
918.606	4322
918.717	4234
918.828	4291
918.939	4363
919.05	4223
919.161	4363
919.272	4158
919.383	4238
919.494	4485
919.604	4615
919.715	4417
919.826	4337
919.936	4436
920.047	4561
920.157	4485
920.267	4748
920.378	4519
920.488	4481
920.598	4702
920.708	4873
920.818	4767
920.928	4767
921.038	4980
921.148	4889
921.258	4618
921.368	4554
921.477	4516
921.587	4462
921.697	4360
921.806	4535
921.916	4451
922.025	4246
922.134	4215
922.244	4196
922.353	4295
922.462	4166
922.571	4147
922.68	4032
922.789	3972
922.898	4013
923.007	4010
923.116	4055
923.224	4097
923.333	4067
923.442	4006
923.55	3979
923.659	4010
923.767	4162
923.876	3991
923.984	4147
924.092	4002
924.201	4097
924.309	4093
924.417	4082
924.525	4086
924.633	4055
924.741	5060
924.849	3907
924.956	4150
925.064	3983
925.172	3934
925.279	3945
925.387	4055
925.494	4036
925.602	4207
925.709	4139
925.816	4017
925.924	4101
926.031	4192
926.138	4188
926.245	4200
926.352	4090
926.459	4227
926.566	4303
926.673	4147
926.779	4044
926.886	4128
926.993	4002
927.099	3979
927.206	3945
927.312	3934
927.419	4090
927.525	4032
927.631	4071
927.737	3979
927.843	3930
927.95	3812
928.056	3945
928.162	4006
928.267	4051
928.373	4653
928.479	4162
928.585	3850
928.69	4006
928.796	4086
928.901	3937
929.007	3861
929.112	4029
929.218	3972
929.323	3968
929.428	3949
929.533	4109
929.638	3918
929.743	3930
929.848	3972
929.953	3979
930.058	3926
930.163	3770
930.267	3793
930.372	3941
930.477	3823
930.581	4112
930.685	3953
930.79	3831
930.894	3869
930.998	3857
931.103	4002
931.207	3701
931.311	3732
931.415	3671
931.519	3515
931.623	3557
