Data from test_V78500241_1336.txt Node
Date: Fri Mar 25 16:58:17 CST 2022
User: usil
Spectrometer: V785-0024
Trigger mode: 0
Integration Time (sec): 4.000000E-1
Scans to average: 1
Nonlinearity correction enabled: false
Boxcar width: 0
Storing dark spectrum: false
XAxis mode: Wavelengths
Number of Pixels in Spectrum: 1024
>>>>>Begin Spectral Data<<<<<
801.071	8001
801.214	8050
801.356	7875
801.499	7830
801.641	7784
801.783	7784
801.926	7902
802.068	7982
802.211	7936
802.353	7967
802.496	7769
802.638	7852
802.78	7845
802.923	7917
803.065	7864
803.208	7795
803.35	7940
803.492	8119
803.635	8161
803.777	8081
803.919	8130
804.061	8427
804.204	8172
804.346	8081
804.488	7967
804.63	8024
804.773	7974
804.915	8107
805.057	8290
805.199	8191
805.341	8240
805.483	8199
805.626	8191
805.768	8077
805.91	8195
806.052	8252
806.194	8103
806.336	8309
806.478	8065
806.62	7989
806.762	8164
806.904	8218
807.046	8450
807.188	8309
807.33	8259
807.472	8305
807.614	8168
807.756	8111
807.898	7963
808.04	7925
808.182	7936
808.324	7871
808.465	7906
808.607	8001
808.749	8111
808.891	8161
809.033	8240
809.174	8195
809.316	8016
809.458	8069
809.6	7986
809.741	8088
809.883	8016
810.025	8103
810.166	8050
810.308	8016
810.45	8016
810.591	7868
810.733	7708
810.875	7712
811.016	7468
811.158	7510
811.299	7571
811.441	7666
811.582	7658
811.724	7571
811.865	7491
812.007	7552
812.148	7563
812.29	7548
812.431	7769
812.573	7807
812.714	7963
812.855	8096
812.997	8210
813.138	8343
813.279	8218
813.421	8123
813.562	7883
813.703	7887
813.845	7742
813.986	7339
814.127	7228
814.268	7278
814.41	7213
814.551	7126
814.692	7217
814.833	7103
814.974	7095
815.115	7095
815.256	6947
815.397	6905
815.539	6920
815.68	6833
815.821	6760
815.962	6837
816.103	6837
816.244	6658
816.385	6589
816.526	6627
816.666	6437
816.807	6292
816.948	6361
817.089	6445
817.23	6380
817.371	6308
817.512	6346
817.653	6357
817.793	6342
817.934	6376
818.075	6403
818.216	6467
818.356	6365
818.497	6197
818.638	6125
818.778	6136
818.919	6098
819.06	6159
819.2	6311
819.341	6334
819.481	6365
819.622	6536
819.762	6700
819.903	6654
820.043	6589
820.184	6467
820.324	6570
820.465	6654
820.605	6665
820.746	6574
820.886	6437
821.026	6665
821.167	6707
821.307	6795
821.447	6719
821.588	6658
821.728	6502
821.868	6498
822.008	6342
822.149	6353
822.289	6350
822.429	6182
822.569	6095
822.709	6121
822.849	5916
822.99	5866
823.13	5912
823.27	5904
823.41	5748
823.55	5794
823.69	5745
823.83	5764
823.97	5630
824.11	5520
824.25	5501
824.389	5551
824.529	5619
824.669	5478
824.809	5623
824.949	5672
825.089	5562
825.228	5528
825.368	5383
825.508	5376
825.648	5353
825.787	5334
825.927	5410
826.067	5288
826.206	5277
826.346	5368
826.485	5379
826.625	5414
826.765	5497
826.904	5467
827.044	5223
827.183	5185
827.323	5121
827.462	5288
827.601	5220
827.741	5170
827.88	5227
828.02	5045
828.159	5178
828.298	5231
828.437	5414
828.577	5269
828.716	5448
828.855	5299
828.994	5193
829.134	5128
829.273	5170
829.412	5143
829.551	5162
829.69	5124
829.829	5216
829.968	5334
830.107	5185
830.246	5231
830.385	5181
830.524	5117
830.663	5105
830.802	4984
830.941	4877
831.08	4824
831.219	4965
831.357	4953
831.496	5147
831.635	4972
831.774	4824
831.913	4850
832.051	4744
832.19	4740
832.329	4824
832.467	4717
832.606	4649
832.744	4710
832.883	4694
833.022	4717
833.16	4736
833.299	4816
833.437	4812
833.576	4854
833.714	4858
833.852	4858
833.991	4904
834.129	4934
834.267	4927
834.406	4923
834.544	4987
834.682	4923
834.821	4927
834.959	5143
835.097	4972
835.235	5151
835.373	5086
835.511	5102
835.65	5022
835.788	4991
835.926	4885
836.064	4877
836.202	4900
836.34	5136
836.478	5197
836.615	5086
836.753	5162
836.891	5288
837.029	5265
837.167	5189
837.305	5151
837.443	5185
837.58	5025
837.718	5185
837.856	5140
837.993	5113
838.131	5212
838.269	5201
838.406	5204
838.544	5201
838.681	5067
838.819	5003
838.956	4927
839.094	4892
839.231	5033
839.369	5098
839.506	5406
839.643	5292
839.781	5056
839.918	4991
840.055	5075
840.193	5121
840.33	5102
840.467	5132
840.604	5204
840.742	5433
840.879	5010
841.016	5045
841.153	5143
841.29	5360
841.427	5326
841.564	5334
841.701	5318
841.838	5246
841.975	5261
842.112	5284
842.249	5094
842.385	5045
842.522	5334
842.659	5155
842.796	5067
842.933	5193
843.069	5113
843.206	5155
843.343	5353
843.479	5242
843.616	5265
843.752	5006
843.889	4949
844.025	5216
844.162	5037
844.298	5208
844.435	5048
844.571	5022
844.708	5212
844.844	5318
844.98	5318
845.117	5288
845.253	5132
845.389	5037
845.525	5117
845.661	5136
845.798	4999
845.934	5159
846.07	4987
846.206	5178
846.342	5296
846.478	5140
846.614	5022
846.75	4972
846.886	4938
847.022	5170
847.158	5014
847.294	5075
847.429	5033
847.565	5067
847.701	5284
847.837	4816
847.972	4786
848.108	4938
848.244	4900
848.379	4786
848.515	4736
848.65	4672
848.786	4706
848.921	4782
849.057	4850
849.192	4862
849.328	4816
849.463	4801
849.598	4740
849.734	4774
849.869	4729
850.004	4622
850.14	4664
850.275	4592
850.41	4493
850.545	4588
850.68	4653
850.815	4630
850.95	4653
851.085	4824
851.22	4672
851.355	4641
851.49	4645
851.625	4618
851.76	4599
851.895	4573
852.03	4504
852.165	4603
852.299	4733
852.434	4831
852.569	4710
852.703	4721
852.838	4763
852.973	4919
853.107	4889
853.242	4714
853.376	4649
853.511	4558
853.645	4554
853.78	4782
853.914	4691
854.048	4660
854.183	4634
854.317	4706
854.451	4820
854.585	4668
854.72	4607
854.854	4759
854.988	4550
855.122	4637
855.256	4523
855.39	4679
855.524	4805
855.658	4710
855.792	4714
855.926	4698
856.06	4771
856.194	4854
856.327	4714
856.461	4588
856.595	4561
856.729	4611
856.862	4759
856.996	4637
857.13	4721
857.263	4710
857.397	4748
857.53	4672
857.664	4702
857.797	4740
857.931	4721
858.064	4660
858.197	4702
858.331	4615
858.464	4599
858.597	4531
858.731	4656
858.864	4656
858.997	4611
859.13	4660
859.263	4626
859.396	4656
859.529	4599
859.662	4554
859.795	4535
859.928	4558
860.061	4774
860.194	4763
860.327	4615
860.46	4592
860.592	4679
860.725	4694
860.858	4725
860.99	4542
861.123	4523
861.256	4497
861.388	4615
861.521	5239
861.653	4508
861.786	4417
861.918	4500
862.05	4516
862.183	4550
862.315	4565
862.447	4630
862.58	4554
862.712	4344
862.844	4329
862.976	4443
863.108	4466
863.24	4877
863.372	4356
863.504	4394
863.636	4409
863.768	4455
863.9	4394
864.032	4363
864.164	4432
864.296	4459
864.428	4535
864.559	4554
864.691	4523
864.823	4573
864.954	4512
865.086	4462
865.217	4455
865.349	4432
865.48	4447
865.612	4474
865.743	4641
865.875	4409
866.006	4417
866.137	4424
866.269	4447
866.4	4417
866.531	4402
866.662	4333
866.793	4383
866.924	4451
867.055	4519
867.186	4436
867.317	4409
867.448	4367
867.579	4356
867.71	4371
867.841	4356
867.972	4417
868.103	4466
868.233	4474
868.364	4462
868.495	4466
868.625	4660
868.756	4721
868.886	4550
869.017	4569
869.147	4812
869.278	4763
869.408	4710
869.539	4694
869.669	4679
869.799	4637
869.929	4774
870.06	4702
870.19	4919
870.32	4877
870.45	4896
870.58	4991
870.71	5098
870.84	5083
870.97	4965
871.1	4911
871.23	5102
871.36	5098
871.489	5006
871.619	5025
871.749	5048
871.879	5128
872.008	5140
872.138	5071
872.267	4965
872.397	4820
872.526	4824
872.656	4679
872.785	4809
872.915	4984
873.044	4995
873.173	4942
873.303	4900
873.432	4949
873.561	4957
873.69	4866
873.819	4873
873.948	4870
874.077	4862
874.206	4740
874.335	4786
874.464	4904
874.593	5052
874.722	4949
874.851	5045
874.979	5098
875.108	5025
875.237	4930
875.365	4828
875.494	4885
875.623	4987
875.751	4812
875.88	4877
876.008	4968
876.136	5041
876.265	5208
876.393	5337
876.521	5250
876.65	5204
876.778	5147
876.906	5041
877.034	5079
877.162	5006
877.29	4961
877.418	5060
877.546	5045
877.674	5048
877.802	5006
877.93	5018
878.058	4911
878.185	4862
878.313	4965
878.441	4927
878.568	4797
878.696	4862
878.824	4961
878.951	4949
879.079	5151
879.206	5288
879.333	5083
879.461	4999
879.588	5033
879.715	5136
879.842	5235
879.97	4961
880.097	4755
880.224	4805
880.351	4774
880.478	4847
880.605	4778
880.732	4782
880.859	5052
880.986	4881
881.112	4881
881.239	4786
881.366	4687
881.493	4592
881.619	4592
881.746	4573
881.872	4611
881.999	4611
882.125	4641
882.252	4831
882.378	4793
882.505	4961
882.631	4805
882.757	4706
882.883	4706
883.01	4763
883.136	4664
883.262	4611
883.388	4622
883.514	4812
883.64	4854
883.766	4755
883.892	4687
884.018	4717
884.143	4835
884.269	4968
884.395	4668
884.52	4554
884.646	4664
884.772	4577
884.897	4588
885.023	4668
885.148	4790
885.274	4847
885.399	4767
885.524	4675
885.65	4672
885.775	4755
885.9	4729
886.025	4816
886.15	4729
886.275	4687
886.4	4637
886.525	4767
886.65	4679
886.775	4630
886.9	4862
887.025	5045
887.149	4752
887.274	4668
887.399	4550
887.523	4618
887.648	4546
887.773	4607
887.897	4744
888.021	4767
888.146	4649
888.27	4812
888.395	4980
888.519	4778
888.643	4873
888.767	4828
888.891	4683
889.015	4565
889.139	4672
889.263	4565
889.387	4736
889.511	4831
889.635	4786
889.759	4645
889.883	4675
890.006	4710
890.13	4881
890.254	4607
890.377	4634
890.501	4531
890.624	4443
890.748	4618
890.871	4493
890.995	4443
891.118	4402
891.241	4470
891.364	4527
891.488	4641
891.611	4512
891.734	4565
891.857	4584
891.98	4523
892.103	4611
892.226	4584
892.349	4516
892.471	4443
892.594	4538
892.717	4561
892.839	4584
892.962	4588
893.085	4641
893.207	4596
893.33	4462
893.452	4531
893.575	4672
893.697	4558
893.819	4752
893.941	4835
894.064	4729
894.186	4573
894.308	4561
894.43	4721
894.552	4752
894.674	4710
894.796	4554
894.918	4599
895.04	4618
895.161	4702
895.283	4603
895.405	4580
895.526	4641
895.648	4599
895.769	4687
895.891	4702
896.012	4687
896.134	4740
896.255	4694
896.376	4592
896.498	4580
896.619	4672
896.74	4599
896.861	4592
896.982	4915
897.103	5102
897.224	4828
897.345	4774
897.466	4694
897.587	4710
897.708	4782
897.828	4774
897.949	4672
898.07	4546
898.19	4630
898.311	4805
898.431	4679
898.552	4771
898.672	4809
898.792	4778
898.913	4752
899.033	4656
899.153	4478
899.273	4424
899.393	4481
899.513	4485
899.633	4542
899.753	4527
899.873	4462
899.993	4542
900.113	4447
900.232	4561
900.352	4443
900.472	4474
900.591	4386
900.711	4474
900.83	4447
900.95	4561
901.069	4622
901.189	4519
901.308	4390
901.427	4337
901.546	4329
901.665	4485
901.784	4462
901.904	4398
902.023	4341
902.141	4147
902.26	4177
902.379	4276
902.498	4215
902.617	4200
902.735	4344
902.854	4371
902.973	4386
903.091	4173
903.21	4215
903.328	4261
903.446	4268
903.565	4253
903.683	4322
903.801	4284
903.919	4428
904.038	4413
904.156	4329
904.274	4436
904.392	4371
904.51	4470
904.627	4451
904.745	4622
904.863	4607
904.981	4325
905.098	4295
905.216	4352
905.334	4390
905.451	4398
905.569	4443
905.686	4519
905.803	4603
905.921	4371
906.038	4493
906.155	4459
906.272	4383
906.389	4417
906.506	4398
906.623	4421
906.74	4360
906.857	4276
906.974	4306
907.091	4569
907.208	4679
907.324	4611
907.441	4497
907.557	4360
907.674	4318
907.79	4352
907.907	4379
908.023	4481
908.139	4436
908.256	4436
908.372	4451
908.488	4440
908.604	4371
908.72	4280
908.836	4383
908.952	4375
909.068	4394
909.184	4573
909.3	4485
909.415	4538
909.531	4588
909.647	4337
909.762	4344
909.878	4344
909.993	4421
910.108	4428
910.224	4447
910.339	4459
910.454	4394
910.57	4367
910.685	4253
910.8	4649
910.915	4599
911.03	4497
911.145	4265
911.259	4352
911.374	4375
911.489	4306
911.604	4249
911.718	4188
911.833	4192
911.947	4059
912.062	4021
912.176	4192
912.291	4215
912.405	4223
912.519	4497
912.633	4497
912.748	4356
912.862	4318
912.976	4207
913.09	4067
913.204	4158
913.318	4265
913.431	4371
913.545	4379
913.659	4371
913.772	4383
913.886	4230
914	4268
914.113	4386
914.226	4402
914.34	4398
914.453	4219
914.566	4417
914.68	4344
914.793	4314
914.906	4135
915.019	4135
915.132	4040
915.245	4200
915.358	4215
915.47	4219
915.583	4257
915.696	4333
915.809	4409
915.921	4405
916.034	4265
916.146	4234
916.259	4177
916.371	4352
916.483	4405
916.595	4276
916.708	4257
916.82	4356
916.932	4322
917.044	4276
917.156	4299
917.268	4246
917.38	4299
917.491	4257
917.603	4337
917.715	4466
917.826	4413
917.938	4348
918.049	4223
918.161	4356
918.272	4527
918.384	4504
918.495	4402
918.606	4299
918.717	4249
918.828	4337
918.939	4394
919.05	4287
919.161	4299
919.272	4097
919.383	4257
919.494	4470
919.604	4584
919.715	4417
919.826	4337
919.936	4436
920.047	4527
920.157	4432
920.267	4675
920.378	4485
920.488	4500
920.598	4694
920.708	4934
920.818	4748
920.928	4759
921.038	4938
921.148	4877
921.258	4630
921.368	4607
921.477	4481
921.587	4409
921.697	4386
921.806	4519
921.916	4462
922.025	4295
922.134	4265
922.244	4238
922.353	4284
922.462	4147
922.571	4120
922.68	3987
922.789	3972
922.898	4048
923.007	4002
923.116	4059
923.224	4082
923.333	4063
923.442	4006
923.55	4002
923.659	4036
923.767	4101
923.876	4040
923.984	4090
924.092	3968
924.201	4143
924.309	4067
924.417	4135
924.525	4090
924.633	4078
924.741	5060
924.849	3964
924.956	4112
925.064	3972
925.172	3915
925.279	3987
925.387	4067
925.494	4071
925.602	4196
925.709	4192
925.816	4055
925.924	4101
926.031	4234
926.138	4150
926.245	4215
926.352	4097
926.459	4261
926.566	4284
926.673	4135
926.779	4109
926.886	4074
926.993	3953
927.099	3953
927.206	3911
927.312	3968
927.419	4093
927.525	4006
927.631	4051
927.737	3960
927.843	3953
927.95	3854
928.056	3953
928.162	3994
928.267	4051
928.373	4691
928.479	4078
928.585	3884
928.69	4021
928.796	4067
928.901	3956
929.007	3857
929.112	3975
929.218	3953
929.323	3896
929.428	3949
929.533	4051
929.638	3857
929.743	3968
929.848	4044
929.953	3960
930.058	3953
930.163	3766
930.267	3797
930.372	3930
930.477	3842
930.581	4078
930.685	3937
930.79	3800
930.894	3876
930.998	3880
931.103	4071
931.207	3682
931.311	3682
931.415	3690
931.519	3519
931.623	3538
