Data from test_V78500241_200.txt Node
Date: Fri Mar 25 16:50:23 CST 2022
User: usil
Spectrometer: V785-0024
Trigger mode: 0
Integration Time (sec): 4.000000E-1
Scans to average: 1
Nonlinearity correction enabled: false
Boxcar width: 0
Storing dark spectrum: false
XAxis mode: Wavelengths
Number of Pixels in Spectrum: 1024
>>>>>Begin Spectral Data<<<<<
801.071	8069
801.214	8008
801.356	7833
801.499	7868
801.641	7814
801.783	7883
801.926	7986
802.068	7947
802.211	8005
802.353	8008
802.496	7890
802.638	7928
802.78	7909
802.923	7906
803.065	7830
803.208	7906
803.35	8050
803.492	8115
803.635	8256
803.777	8046
803.919	8107
804.061	8408
804.204	8168
804.346	7963
804.488	7959
804.63	8073
804.773	7997
804.915	8077
805.057	8248
805.199	8073
805.341	8153
805.483	8218
805.626	8225
805.768	8084
805.91	8126
806.052	8115
806.194	8050
806.336	8298
806.478	8119
806.62	8062
806.762	8145
806.904	8237
807.046	8362
807.188	8351
807.33	8229
807.472	8229
807.614	8180
807.756	8126
807.898	7967
808.04	7898
808.182	7906
808.324	7936
808.465	7951
808.607	8027
808.749	8149
808.891	8206
809.033	8317
809.174	8210
809.316	8054
809.458	8008
809.6	7955
809.741	8050
809.883	8058
810.025	8073
810.166	8130
810.308	8043
810.45	8012
810.591	7871
810.733	7776
810.875	7746
811.016	7506
811.158	7540
811.299	7582
811.441	7746
811.582	7685
811.724	7582
811.865	7563
812.007	7700
812.148	7616
812.29	7632
812.431	7807
812.573	7925
812.714	7986
812.855	8172
812.997	8328
813.138	8313
813.279	8145
813.421	8123
813.562	8058
813.703	7852
813.845	7715
813.986	7487
814.127	7266
814.268	7251
814.41	7263
814.551	7202
814.692	7209
814.833	7129
814.974	7088
815.115	7118
815.256	6947
815.397	6916
815.539	6993
815.68	6825
815.821	6776
815.962	6894
816.103	6818
816.244	6700
816.385	6665
816.526	6604
816.666	6604
816.807	6350
816.948	6494
817.089	6467
817.23	6426
817.371	6376
817.512	6357
817.653	6376
817.793	6346
817.934	6418
818.075	6483
818.216	6452
818.356	6433
818.497	6262
818.638	6106
818.778	6102
818.919	6110
819.06	6175
819.2	6247
819.341	6270
819.481	6350
819.622	6536
819.762	6768
819.903	6623
820.043	6612
820.184	6555
820.324	6589
820.465	6688
820.605	6604
820.746	6646
820.886	6563
821.026	6654
821.167	6681
821.307	6738
821.447	6791
821.588	6650
821.728	6604
821.868	6486
822.008	6323
822.149	6331
822.289	6357
822.429	6159
822.569	6083
822.709	6091
822.849	5908
822.99	5916
823.13	5885
823.27	5950
823.41	5798
823.55	5794
823.69	5767
823.83	5817
823.97	5699
824.11	5573
824.25	5512
824.389	5596
824.529	5581
824.669	5524
824.809	5592
824.949	5688
825.089	5604
825.228	5589
825.368	5433
825.508	5307
825.648	5353
825.787	5387
825.927	5410
826.067	5292
826.206	5288
826.346	5379
826.485	5383
826.625	5406
826.765	5528
826.904	5459
827.044	5269
827.183	5162
827.323	5094
827.462	5242
827.601	5204
827.741	5181
827.88	5204
828.02	5159
828.159	5273
828.298	5284
828.437	5383
828.577	5273
828.716	5452
828.855	5322
828.994	5220
829.134	5155
829.273	5193
829.412	5136
829.551	5124
829.69	5143
829.829	5246
829.968	5307
830.107	5307
830.246	5288
830.385	5117
830.524	5102
830.663	5048
830.802	4980
830.941	4862
831.08	4858
831.219	4961
831.357	4991
831.496	5117
831.635	4900
831.774	4828
831.913	4824
832.051	4782
832.19	4694
832.329	4797
832.467	4668
832.606	4626
832.744	4733
832.883	4755
833.022	4729
833.16	4767
833.299	4782
833.437	4843
833.576	4843
833.714	4824
833.852	4839
833.991	4850
834.129	4923
834.267	4949
834.406	4877
834.544	4919
834.682	4923
834.821	4968
834.959	5159
835.097	5006
835.235	5162
835.373	5079
835.511	5086
835.65	4999
835.788	5006
835.926	4904
836.064	4881
836.202	4949
836.34	5174
836.478	5174
836.615	5151
836.753	5166
836.891	5242
837.029	5246
837.167	5193
837.305	5197
837.443	5204
837.58	5048
837.718	5277
837.856	5261
837.993	5098
838.131	5250
838.269	5212
838.406	5227
838.544	5208
838.681	5033
838.819	5041
838.956	4881
839.094	4911
839.231	5014
839.369	5105
839.506	5391
839.643	5273
839.781	5071
839.918	5022
840.055	5174
840.193	5094
840.33	5109
840.467	5128
840.604	5170
840.742	5459
840.879	5090
841.016	5060
841.153	5181
841.29	5341
841.427	5368
841.564	5307
841.701	5372
841.838	5292
841.975	5235
842.112	5303
842.249	5113
842.385	5094
842.522	5337
842.659	5143
842.796	5155
842.933	5197
843.069	5132
843.206	5151
843.343	5349
843.479	5223
843.616	5250
843.752	5064
843.889	4972
844.025	5216
844.162	4976
844.298	5223
844.435	5083
844.571	5018
844.708	5235
844.844	5277
844.98	5303
845.117	5269
845.253	5109
845.389	5128
845.525	5155
845.661	5174
845.798	5075
845.934	5098
846.07	5098
846.206	5193
846.342	5322
846.478	5140
846.614	5003
846.75	5025
846.886	4957
847.022	5166
847.158	5018
847.294	5067
847.429	5105
847.565	5109
847.701	5337
847.837	4877
847.972	4839
848.108	4953
848.244	4927
848.379	4744
848.515	4710
848.65	4755
848.786	4771
848.921	4812
849.057	4889
849.192	4919
849.328	4870
849.463	4892
849.598	4797
849.734	4710
849.869	4679
850.004	4634
850.14	4683
850.275	4599
850.41	4558
850.545	4554
850.68	4565
850.815	4637
850.95	4607
851.085	4843
851.22	4767
851.355	4698
851.49	4603
851.625	4664
851.76	4645
851.895	4554
852.03	4538
852.165	4694
852.299	4736
852.434	4786
852.569	4767
852.703	4797
852.838	4862
852.973	4934
853.107	4915
853.242	4752
853.376	4679
853.511	4554
853.645	4618
853.78	4793
853.914	4687
854.048	4660
854.183	4679
854.317	4694
854.451	4892
854.585	4691
854.72	4656
854.854	4736
854.988	4626
855.122	4630
855.256	4519
855.39	4698
855.524	4740
855.658	4748
855.792	4725
855.926	4721
856.06	4793
856.194	4763
856.327	4725
856.461	4645
856.595	4656
856.729	4668
856.862	4752
856.996	4721
857.13	4740
857.263	4748
857.397	4820
857.53	4641
857.664	4683
857.797	4786
857.931	4797
858.064	4721
858.197	4786
858.331	4653
858.464	4618
858.597	4523
858.731	4577
858.864	4565
858.997	4603
859.13	4679
859.263	4683
859.396	4725
859.529	4577
859.662	4565
859.795	4550
859.928	4618
860.061	4778
860.194	4778
860.327	4527
860.46	4561
860.592	4721
860.725	4714
860.858	4733
860.99	4618
861.123	4550
861.256	4561
861.388	4580
861.521	5284
861.653	4485
861.786	4447
861.918	4428
862.05	4542
862.183	4531
862.315	4615
862.447	4683
862.58	4538
862.712	4383
862.844	4371
862.976	4466
863.108	4451
863.24	4870
863.372	4272
863.504	4409
863.636	4402
863.768	4489
863.9	4428
864.032	4390
864.164	4405
864.296	4523
864.428	4538
864.559	4523
864.691	4573
864.823	4569
864.954	4542
865.086	4497
865.217	4451
865.349	4436
865.48	4481
865.612	4497
865.743	4649
865.875	4462
866.006	4379
866.137	4436
866.269	4421
866.4	4440
866.531	4436
866.662	4394
866.793	4405
866.924	4432
867.055	4459
867.186	4440
867.317	4386
867.448	4428
867.579	4428
867.71	4390
867.841	4409
867.972	4447
868.103	4436
868.233	4489
868.364	4500
868.495	4485
868.625	4672
868.756	4752
868.886	4584
869.017	4630
869.147	4801
869.278	4786
869.408	4694
869.539	4691
869.669	4729
869.799	4698
869.929	4831
870.06	4774
870.19	4896
870.32	4873
870.45	4942
870.58	5029
870.71	5132
870.84	5067
870.97	4980
871.1	4889
871.23	5170
871.36	5201
871.489	5045
871.619	5025
871.749	5052
871.879	5132
872.008	5201
872.138	5102
872.267	4984
872.397	4809
872.526	4824
872.656	4744
872.785	4839
872.915	4923
873.044	5014
873.173	4908
873.303	4949
873.432	4984
873.561	4961
873.69	4858
873.819	4850
873.948	4961
874.077	4816
874.206	4805
874.335	4782
874.464	4923
874.593	5071
874.722	4980
874.851	5121
874.979	5079
875.108	4976
875.237	4889
875.365	4850
875.494	4934
875.623	4965
875.751	4812
875.88	4850
876.008	4965
876.136	5045
876.265	5223
876.393	5318
876.521	5254
876.65	5288
876.778	5159
876.906	5083
877.034	5022
877.162	5033
877.29	5010
877.418	5018
877.546	5048
877.674	5086
877.802	5048
877.93	5018
878.058	4927
878.185	4881
878.313	4927
878.441	4972
878.568	4786
878.696	4911
878.824	4957
878.951	4991
879.079	5124
879.206	5292
879.333	5094
879.461	4987
879.588	5010
879.715	5105
879.842	5231
879.97	4999
880.097	4790
880.224	4767
880.351	4824
880.478	4793
880.605	4793
880.732	4805
880.859	5102
880.986	4896
881.112	4946
881.239	4771
881.366	4679
881.493	4592
881.619	4607
881.746	4645
881.872	4668
881.999	4698
882.125	4710
882.252	4839
882.378	4812
882.505	4968
882.631	4828
882.757	4664
882.883	4694
883.01	4714
883.136	4649
883.262	4618
883.388	4641
883.514	4820
883.64	4892
883.766	4843
883.892	4683
884.018	4733
884.143	4877
884.269	4976
884.395	4668
884.52	4626
884.646	4660
884.772	4637
884.897	4626
885.023	4691
885.148	4771
885.274	4858
885.399	4812
885.524	4717
885.65	4691
885.775	4702
885.9	4733
886.025	4854
886.15	4782
886.275	4725
886.4	4675
886.525	4729
886.65	4771
886.775	4687
886.9	4934
887.025	5006
887.149	4854
887.274	4672
887.399	4558
887.523	4618
887.648	4584
887.773	4611
887.897	4828
888.021	4763
888.146	4687
888.27	4778
888.395	4930
888.519	4820
888.643	4786
888.767	4850
888.891	4668
889.015	4672
889.139	4634
889.263	4634
889.387	4790
889.511	4831
889.635	4824
889.759	4656
889.883	4660
890.006	4698
890.13	4793
890.254	4668
890.377	4683
890.501	4500
890.624	4519
890.748	4687
890.871	4531
890.995	4440
891.118	4394
891.241	4527
891.364	4538
891.488	4637
891.611	4504
891.734	4558
891.857	4596
891.98	4607
892.103	4630
892.226	4603
892.349	4538
892.471	4455
892.594	4531
892.717	4596
892.839	4561
892.962	4618
893.085	4649
893.207	4615
893.33	4504
893.452	4508
893.575	4683
893.697	4565
893.819	4812
893.941	4850
894.064	4748
894.186	4538
894.308	4607
894.43	4782
894.552	4801
894.674	4714
894.796	4569
894.918	4630
895.04	4588
895.161	4710
895.283	4679
895.405	4626
895.526	4687
895.648	4664
895.769	4656
895.891	4717
896.012	4759
896.134	4733
896.255	4653
896.376	4626
896.498	4637
896.619	4729
896.74	4618
896.861	4645
896.982	4968
897.103	5117
897.224	4870
897.345	4740
897.466	4645
897.587	4729
897.708	4889
897.828	4778
897.949	4641
898.07	4573
898.19	4634
898.311	4816
898.431	4683
898.552	4725
898.672	4835
898.792	4793
898.913	4782
899.033	4622
899.153	4554
899.273	4398
899.393	4538
899.513	4538
899.633	4497
899.753	4546
899.873	4508
899.993	4607
900.113	4573
900.232	4611
900.352	4592
900.472	4470
900.591	4363
900.711	4508
900.83	4432
900.95	4622
901.069	4740
901.189	4580
901.308	4356
901.427	4386
901.546	4398
901.665	4447
901.784	4485
901.904	4417
902.023	4322
902.141	4185
902.26	4166
902.379	4348
902.498	4257
902.617	4268
902.735	4398
902.854	4421
902.973	4341
903.091	4238
903.21	4219
903.328	4333
903.446	4238
903.565	4280
903.683	4417
903.801	4333
903.919	4383
904.038	4497
904.156	4329
904.274	4470
904.392	4356
904.51	4451
904.627	4436
904.745	4588
904.863	4634
904.981	4386
905.098	4318
905.216	4390
905.334	4443
905.451	4485
905.569	4451
905.686	4577
905.803	4508
905.921	4390
906.038	4588
906.155	4466
906.272	4348
906.389	4474
906.506	4348
906.623	4348
906.74	4421
906.857	4325
906.974	4360
907.091	4546
907.208	4653
907.324	4580
907.441	4474
907.557	4413
907.674	4375
907.79	4310
907.907	4421
908.023	4512
908.139	4459
908.256	4451
908.372	4443
908.488	4417
908.604	4386
908.72	4337
908.836	4402
908.952	4402
909.068	4451
909.184	4519
909.3	4455
909.415	4561
909.531	4558
909.647	4386
909.762	4360
909.878	4303
909.993	4459
910.108	4447
910.224	4443
910.339	4470
910.454	4417
910.57	4348
910.685	4314
910.8	4588
910.915	4603
911.03	4500
911.145	4306
911.259	4322
911.374	4383
911.489	4303
911.604	4325
911.718	4177
911.833	4242
911.947	4063
912.062	4029
912.176	4169
912.291	4284
912.405	4227
912.519	4451
912.633	4512
912.748	4386
912.862	4295
912.976	4196
913.09	4101
913.204	4204
913.318	4261
913.431	4356
913.545	4367
913.659	4424
913.772	4383
913.886	4246
914	4276
914.113	4360
914.226	4409
914.34	4436
914.453	4249
914.566	4398
914.68	4337
914.793	4367
914.906	4227
915.019	4154
915.132	4135
915.245	4188
915.358	4223
915.47	4238
915.583	4306
915.696	4295
915.809	4383
915.921	4447
916.034	4261
916.146	4230
916.259	4234
916.371	4405
916.483	4352
916.595	4238
916.708	4276
916.82	4379
916.932	4325
917.044	4337
917.156	4325
917.268	4204
917.38	4280
917.491	4272
917.603	4337
917.715	4409
917.826	4405
917.938	4428
918.049	4246
918.161	4402
918.272	4580
918.384	4527
918.495	4485
918.606	4280
918.717	4257
918.828	4322
918.939	4386
919.05	4257
919.161	4280
919.272	4192
919.383	4230
919.494	4443
919.604	4656
919.715	4394
919.826	4356
919.936	4402
920.047	4542
920.157	4523
920.267	4706
920.378	4542
920.488	4531
920.598	4744
920.708	4942
920.818	4782
920.928	4801
921.038	4934
921.148	4972
921.258	4645
921.368	4584
921.477	4519
921.587	4466
921.697	4375
921.806	4558
921.916	4443
922.025	4303
922.134	4310
922.244	4246
922.353	4363
922.462	4169
922.571	4105
922.68	4036
922.789	3994
922.898	4036
923.007	3998
923.116	4112
923.224	4059
923.333	4086
923.442	3994
923.55	3972
923.659	4055
923.767	4097
923.876	4048
923.984	4150
924.092	3994
924.201	4059
924.309	4109
924.417	4101
924.525	4044
924.633	4124
924.741	5045
924.849	3911
924.956	4177
925.064	3983
925.172	3876
925.279	3941
925.387	4013
925.494	4048
925.602	4261
925.709	4177
925.816	4048
925.924	4131
926.031	4181
926.138	4204
926.245	4211
926.352	4097
926.459	4261
926.566	4314
926.673	4150
926.779	4116
926.886	4074
926.993	3991
927.099	3960
927.206	3968
927.312	3918
927.419	4071
927.525	4044
927.631	4097
927.737	3941
927.843	3949
927.95	3850
928.056	3937
928.162	3975
928.267	4074
928.373	4748
928.479	4090
928.585	3873
928.69	4010
928.796	4124
928.901	3975
929.007	3873
929.112	4021
929.218	3983
929.323	4010
929.428	3941
929.533	4131
929.638	3896
929.743	3941
929.848	4040
929.953	4017
930.058	3945
930.163	3812
930.267	3823
930.372	3987
930.477	3816
930.581	4090
930.685	3964
930.79	3823
930.894	3922
930.998	3888
931.103	4048
931.207	3709
931.311	3694
931.415	3644
931.519	3519
931.623	3534
