Data from test_V78500241_972.txt Node
Date: Fri Mar 25 16:55:45 CST 2022
User: usil
Spectrometer: V785-0024
Trigger mode: 0
Integration Time (sec): 4.000000E-1
Scans to average: 1
Nonlinearity correction enabled: false
Boxcar width: 0
Storing dark spectrum: false
XAxis mode: Wavelengths
Number of Pixels in Spectrum: 1024
>>>>>Begin Spectral Data<<<<<
801.071	8039
801.214	7974
801.356	7811
801.499	7795
801.641	7761
801.783	7742
801.926	7913
802.068	7955
802.211	7951
802.353	7898
802.496	7780
802.638	7864
802.78	7868
802.923	7894
803.065	7852
803.208	7845
803.35	7978
803.492	8115
803.635	8115
803.777	8027
803.919	8153
804.061	8404
804.204	8039
804.346	7982
804.488	7955
804.63	8088
804.773	7967
804.915	8031
805.057	8206
805.199	8138
805.341	8191
805.483	8221
805.626	8168
805.768	8050
805.91	8199
806.052	8210
806.194	7989
806.336	8267
806.478	8039
806.62	8016
806.762	8111
806.904	8191
807.046	8438
807.188	8305
807.33	8305
807.472	8332
807.614	8081
807.756	8153
807.898	7986
808.04	7894
808.182	7906
808.324	7849
808.465	7970
808.607	8062
808.749	8134
808.891	8229
809.033	8294
809.174	8286
809.316	8134
809.458	8054
809.6	8020
809.741	8077
809.883	8100
810.025	8084
810.166	8054
810.308	8012
810.45	7993
810.591	7894
810.733	7715
810.875	7696
811.016	7563
811.158	7518
811.299	7647
811.441	7738
811.582	7677
811.724	7586
811.865	7590
812.007	7586
812.148	7597
812.29	7689
812.431	7750
812.573	7928
812.714	7955
812.855	8138
812.997	8195
813.138	8317
813.279	8164
813.421	8119
813.562	7989
813.703	7940
813.845	7792
813.986	7499
814.127	7285
814.268	7225
814.41	7175
814.551	7050
814.692	7225
814.833	7107
814.974	7129
815.115	7072
815.256	6966
815.397	6897
815.539	6989
815.68	6871
815.821	6882
815.962	6890
816.103	6859
816.244	6760
816.385	6684
816.526	6684
816.666	6513
816.807	6338
816.948	6391
817.089	6521
817.23	6418
817.371	6422
817.512	6391
817.653	6452
817.793	6399
817.934	6422
818.075	6467
818.216	6433
818.356	6452
818.497	6235
818.638	6079
818.778	6201
818.919	6148
819.06	6197
819.2	6327
819.341	6304
819.481	6380
819.622	6570
819.762	6715
819.903	6738
820.043	6623
820.184	6620
820.324	6559
820.465	6745
820.605	6696
820.746	6726
820.886	6498
821.026	6650
821.167	6783
821.307	6802
821.447	6768
821.588	6700
821.728	6521
821.868	6551
822.008	6388
822.149	6418
822.289	6395
822.429	6110
822.569	6053
822.709	6159
822.849	5992
822.99	5942
823.13	5965
823.27	5992
823.41	5790
823.55	5790
823.69	5779
823.83	5771
823.97	5661
824.11	5589
824.25	5562
824.389	5543
824.529	5630
824.669	5554
824.809	5619
824.949	5615
825.089	5547
825.228	5604
825.368	5429
825.508	5364
825.648	5334
825.787	5410
825.927	5395
826.067	5330
826.206	5273
826.346	5433
826.485	5429
826.625	5391
826.765	5558
826.904	5520
827.044	5269
827.183	5197
827.323	5128
827.462	5265
827.601	5166
827.741	5181
827.88	5239
828.02	5124
828.159	5242
828.298	5303
828.437	5368
828.577	5254
828.716	5467
828.855	5345
828.994	5170
829.134	5159
829.273	5185
829.412	5174
829.551	5124
829.69	5201
829.829	5242
829.968	5360
830.107	5273
830.246	5284
830.385	5143
830.524	5166
830.663	5090
830.802	5022
830.941	4908
831.08	4892
831.219	5045
831.357	4946
831.496	5170
831.635	4919
831.774	4946
831.913	4873
832.051	4774
832.19	4706
832.329	4873
832.467	4687
832.606	4645
832.744	4759
832.883	4748
833.022	4729
833.16	4793
833.299	4873
833.437	4858
833.576	4805
833.714	4915
833.852	4854
833.991	4881
834.129	4961
834.267	4953
834.406	4923
834.544	4987
834.682	4984
834.821	4938
834.959	5201
835.097	5003
835.235	5147
835.373	5071
835.511	5105
835.65	5048
835.788	5025
835.926	4847
836.064	4900
836.202	4896
836.34	5181
836.478	5212
836.615	5117
836.753	5178
836.891	5269
837.029	5277
837.167	5181
837.305	5155
837.443	5151
837.58	5060
837.718	5246
837.856	5239
837.993	5136
838.131	5273
838.269	5189
838.406	5140
838.544	5220
838.681	5041
838.819	4984
838.956	4885
839.094	4938
839.231	4961
839.369	5109
839.506	5410
839.643	5277
839.781	5079
839.918	5003
840.055	5124
840.193	5086
840.33	5143
840.467	5170
840.604	5155
840.742	5425
840.879	5121
841.016	5121
841.153	5170
841.29	5368
841.427	5349
841.564	5315
841.701	5322
841.838	5311
841.975	5239
842.112	5227
842.249	5140
842.385	5105
842.522	5341
842.659	5220
842.796	5162
842.933	5162
843.069	5147
843.206	5174
843.343	5296
843.479	5254
843.616	5307
843.752	5048
843.889	4980
844.025	5223
844.162	5006
844.298	5208
844.435	5166
844.571	5060
844.708	5220
844.844	5307
844.98	5292
845.117	5307
845.253	5178
845.389	5098
845.525	5121
845.661	5193
845.798	5045
845.934	5113
846.07	5052
846.206	5140
846.342	5277
846.478	5197
846.614	5025
846.75	5010
846.886	4965
847.022	5151
847.158	5018
847.294	5060
847.429	5109
847.565	5064
847.701	5353
847.837	4923
847.972	4847
848.108	4965
848.244	4900
848.379	4797
848.515	4759
848.65	4736
848.786	4691
848.921	4797
849.057	4847
849.192	4972
849.328	4778
849.463	4873
849.598	4778
849.734	4755
849.869	4675
850.004	4649
850.14	4672
850.275	4588
850.41	4554
850.545	4546
850.68	4588
850.815	4596
850.95	4664
851.085	4828
851.22	4771
851.355	4679
851.49	4634
851.625	4626
851.76	4653
851.895	4542
852.03	4504
852.165	4653
852.299	4729
852.434	4805
852.569	4706
852.703	4790
852.838	4797
852.973	4923
853.107	4923
853.242	4721
853.376	4710
853.511	4596
853.645	4630
853.78	4782
853.914	4687
854.048	4649
854.183	4634
854.317	4706
854.451	4904
854.585	4698
854.72	4694
854.854	4755
854.988	4584
855.122	4660
855.256	4535
855.39	4687
855.524	4801
855.658	4710
855.792	4691
855.926	4725
856.06	4786
856.194	4790
856.327	4668
856.461	4634
856.595	4645
856.729	4618
856.862	4752
856.996	4717
857.13	4755
857.263	4759
857.397	4835
857.53	4645
857.664	4729
857.797	4752
857.931	4790
858.064	4694
858.197	4740
858.331	4702
858.464	4634
858.597	4497
858.731	4603
858.864	4687
858.997	4622
859.13	4656
859.263	4714
859.396	4668
859.529	4596
859.662	4558
859.795	4527
859.928	4649
860.061	4740
860.194	4767
860.327	4622
860.46	4565
860.592	4748
860.725	4721
860.858	4752
860.99	4607
861.123	4519
861.256	4546
861.388	4679
861.521	5288
861.653	4466
861.786	4466
861.918	4417
862.05	4516
862.183	4527
862.315	4618
862.447	4653
862.58	4558
862.712	4462
862.844	4333
862.976	4462
863.108	4485
863.24	4870
863.372	4352
863.504	4440
863.636	4398
863.768	4504
863.9	4470
864.032	4371
864.164	4398
864.296	4493
864.428	4573
864.559	4554
864.691	4561
864.823	4504
864.954	4512
865.086	4519
865.217	4504
865.349	4421
865.48	4497
865.612	4516
865.743	4649
865.875	4512
866.006	4447
866.137	4455
866.269	4474
866.4	4440
866.531	4417
866.662	4405
866.793	4398
866.924	4443
867.055	4474
867.186	4451
867.317	4443
867.448	4341
867.579	4402
867.71	4356
867.841	4363
867.972	4455
868.103	4481
868.233	4455
868.364	4474
868.495	4440
868.625	4668
868.756	4778
868.886	4580
869.017	4660
869.147	4717
869.278	4797
869.408	4641
869.539	4607
869.669	4744
869.799	4645
869.929	4744
870.06	4729
870.19	4965
870.32	4904
870.45	4953
870.58	4991
870.71	5079
870.84	5071
870.97	4942
871.1	4961
871.23	5121
871.36	5121
871.489	5056
871.619	5025
871.749	5102
871.879	5109
872.008	5151
872.138	5098
872.267	4957
872.397	4820
872.526	4801
872.656	4729
872.785	4835
872.915	4892
873.044	4991
873.173	4911
873.303	4995
873.432	4987
873.561	4949
873.69	4892
873.819	4843
873.948	4927
874.077	4790
874.206	4683
874.335	4805
874.464	4889
874.593	5083
874.722	4938
874.851	5124
874.979	5067
875.108	5037
875.237	4934
875.365	4900
875.494	4919
875.623	4946
875.751	4774
875.88	4915
876.008	4976
876.136	5071
876.265	5208
876.393	5353
876.521	5250
876.65	5208
876.778	5147
876.906	5052
877.034	5006
877.162	5045
877.29	4949
877.418	5060
877.546	5029
877.674	5075
877.802	5003
877.93	5037
878.058	4915
878.185	4866
878.313	4961
878.441	4942
878.568	4801
878.696	4885
878.824	4968
878.951	5006
879.079	5128
879.206	5269
879.333	5140
879.461	4987
879.588	5037
879.715	5083
879.842	5216
879.97	5045
880.097	4805
880.224	4755
880.351	4850
880.478	4809
880.605	4801
880.732	4824
880.859	5090
880.986	4908
881.112	4889
881.239	4767
881.366	4698
881.493	4592
881.619	4596
881.746	4645
881.872	4660
881.999	4626
882.125	4649
882.252	4816
882.378	4812
882.505	4972
882.631	4767
882.757	4679
882.883	4733
883.01	4793
883.136	4675
883.262	4622
883.388	4645
883.514	4805
883.64	4862
883.766	4767
883.892	4668
884.018	4702
884.143	4870
884.269	4995
884.395	4660
884.52	4603
884.646	4630
884.772	4577
884.897	4588
885.023	4683
885.148	4782
885.274	4923
885.399	4801
885.524	4729
885.65	4729
885.775	4755
885.9	4706
886.025	4881
886.15	4839
886.275	4717
886.4	4664
886.525	4702
886.65	4687
886.775	4687
886.9	4892
887.025	5025
887.149	4778
887.274	4656
887.399	4550
887.523	4561
887.648	4561
887.773	4596
887.897	4752
888.021	4786
888.146	4687
888.27	4820
888.395	4881
888.519	4797
888.643	4790
888.767	4843
888.891	4687
889.015	4637
889.139	4694
889.263	4615
889.387	4820
889.511	4858
889.635	4843
889.759	4691
889.883	4637
890.006	4706
890.13	4801
890.254	4611
890.377	4664
890.501	4527
890.624	4558
890.748	4599
890.871	4527
890.995	4436
891.118	4383
891.241	4497
891.364	4531
891.488	4660
891.611	4485
891.734	4554
891.857	4622
891.98	4542
892.103	4588
892.226	4649
892.349	4523
892.471	4436
892.594	4561
892.717	4641
892.839	4561
892.962	4618
893.085	4641
893.207	4618
893.33	4432
893.452	4447
893.575	4687
893.697	4618
893.819	4759
893.941	4854
894.064	4786
894.186	4577
894.308	4584
894.43	4778
894.552	4820
894.674	4752
894.796	4554
894.918	4687
895.04	4546
895.161	4744
895.283	4641
895.405	4599
895.526	4649
895.648	4675
895.769	4691
895.891	4736
896.012	4733
896.134	4706
896.255	4694
896.376	4645
896.498	4603
896.619	4702
896.74	4615
896.861	4656
896.982	4911
897.103	5048
897.224	4820
897.345	4691
897.466	4615
897.587	4725
897.708	4862
897.828	4786
897.949	4641
898.07	4573
898.19	4622
898.311	4809
898.431	4653
898.552	4725
898.672	4767
898.792	4797
898.913	4748
899.033	4622
899.153	4470
899.273	4447
899.393	4531
899.513	4546
899.633	4474
899.753	4565
899.873	4485
899.993	4558
900.113	4569
900.232	4611
900.352	4497
900.472	4497
900.591	4398
900.711	4508
900.83	4485
900.95	4596
901.069	4717
901.189	4535
901.308	4394
901.427	4318
901.546	4360
901.665	4474
901.784	4489
901.904	4383
902.023	4344
902.141	4181
902.26	4120
902.379	4295
902.498	4223
902.617	4177
902.735	4383
902.854	4386
902.973	4314
903.091	4185
903.21	4227
903.328	4306
903.446	4268
903.565	4246
903.683	4344
903.801	4249
903.919	4424
904.038	4413
904.156	4375
904.274	4386
904.392	4383
904.51	4375
904.627	4455
904.745	4630
904.863	4645
904.981	4405
905.098	4299
905.216	4379
905.334	4398
905.451	4428
905.569	4432
905.686	4512
905.803	4565
905.921	4413
906.038	4519
906.155	4440
906.272	4383
906.389	4436
906.506	4348
906.623	4375
906.74	4405
906.857	4291
906.974	4371
907.091	4527
907.208	4672
907.324	4558
907.441	4440
907.557	4325
907.674	4337
907.79	4310
907.907	4356
908.023	4504
908.139	4462
908.256	4390
908.372	4443
908.488	4470
908.604	4310
908.72	4303
908.836	4405
908.952	4367
909.068	4402
909.184	4565
909.3	4443
909.415	4554
909.531	4584
909.647	4344
909.762	4383
909.878	4360
909.993	4428
910.108	4424
910.224	4424
910.339	4451
910.454	4409
910.57	4371
910.685	4333
910.8	4653
910.915	4561
911.03	4459
911.145	4318
911.259	4363
911.374	4352
911.489	4306
911.604	4284
911.718	4173
911.833	4204
911.947	4067
912.062	4048
912.176	4223
912.291	4223
912.405	4257
912.519	4497
912.633	4569
912.748	4390
912.862	4325
912.976	4158
913.09	4059
913.204	4162
913.318	4219
913.431	4352
913.545	4310
913.659	4447
913.772	4356
913.886	4211
914	4227
914.113	4367
914.226	4409
914.34	4341
914.453	4261
914.566	4394
914.68	4322
914.793	4337
914.906	4143
915.019	4158
915.132	4082
915.245	4135
915.358	4188
915.47	4196
915.583	4268
915.696	4295
915.809	4398
915.921	4417
916.034	4272
916.146	4215
916.259	4246
916.371	4333
916.483	4306
916.595	4280
916.708	4322
916.82	4318
916.932	4284
917.044	4303
917.156	4314
917.268	4246
917.38	4287
917.491	4227
917.603	4303
917.715	4371
917.826	4451
917.938	4360
918.049	4242
918.161	4375
918.272	4512
918.384	4523
918.495	4428
918.606	4314
918.717	4219
918.828	4314
918.939	4325
919.05	4261
919.161	4314
919.272	4154
919.383	4207
919.494	4424
919.604	4569
919.715	4424
919.826	4329
919.936	4398
920.047	4512
920.157	4478
920.267	4710
920.378	4580
920.488	4474
920.598	4725
920.708	4854
920.818	4759
920.928	4755
921.038	4904
921.148	4904
921.258	4656
921.368	4550
921.477	4478
921.587	4447
921.697	4310
921.806	4554
921.916	4424
922.025	4291
922.134	4265
922.244	4211
922.353	4306
922.462	4124
922.571	4116
922.68	3979
922.789	3960
922.898	4017
923.007	4032
923.116	4074
923.224	4025
923.333	4078
923.442	3964
923.55	3968
923.659	4048
923.767	4032
923.876	4048
923.984	4097
924.092	3983
924.201	4059
924.309	4051
924.417	4112
924.525	4071
924.633	4112
924.741	4984
924.849	3907
924.956	4101
925.064	3930
925.172	3934
925.279	3983
925.387	4051
925.494	4017
925.602	4215
925.709	4162
925.816	4063
925.924	4158
926.031	4188
926.138	4116
926.245	4196
926.352	4112
926.459	4223
926.566	4287
926.673	4150
926.779	4055
926.886	4059
926.993	3975
927.099	3937
927.206	3915
927.312	3896
927.419	4036
927.525	4048
927.631	4093
927.737	3968
927.843	3922
927.95	3823
928.056	3937
928.162	3983
928.267	4082
928.373	4607
928.479	4097
928.585	3812
928.69	3975
928.796	4055
928.901	4006
929.007	3865
929.112	4013
929.218	3964
929.323	3934
929.428	3899
929.533	4101
929.638	3926
929.743	4017
929.848	4048
929.953	3945
930.058	3899
930.163	3781
930.267	3827
930.372	3975
930.477	3808
930.581	4097
930.685	3888
930.79	3800
930.894	3880
930.998	3873
931.103	3998
931.207	3698
931.311	3694
931.415	3671
931.519	3545
931.623	3553
