Data from test_V78500241_2654.txt Node
Date: Fri Mar 25 17:07:27 CST 2022
User: usil
Spectrometer: V785-0024
Trigger mode: 0
Integration Time (sec): 4.000000E-1
Scans to average: 1
Nonlinearity correction enabled: false
Boxcar width: 0
Storing dark spectrum: false
XAxis mode: Wavelengths
Number of Pixels in Spectrum: 1024
>>>>>Begin Spectral Data<<<<<
801.071	8073
801.214	7989
801.356	7887
801.499	7913
801.641	7826
801.783	7845
801.926	7955
802.068	8005
802.211	8001
802.353	7944
802.496	7906
802.638	7830
802.78	7951
802.923	7947
803.065	7906
803.208	7925
803.35	8043
803.492	8084
803.635	8191
803.777	8016
803.919	8092
804.061	8454
804.204	8149
804.346	8084
804.488	7951
804.63	8123
804.773	8065
804.915	8153
805.057	8347
805.199	8199
805.341	8240
805.483	8317
805.626	8210
805.768	8153
805.91	8183
806.052	8161
806.194	8115
806.336	8290
806.478	8107
806.62	8130
806.762	8138
806.904	8256
807.046	8446
807.188	8305
807.33	8294
807.472	8267
807.614	8142
807.756	8161
807.898	7970
808.04	7932
808.182	7917
808.324	7890
808.465	7944
808.607	8103
808.749	8107
808.891	8142
809.033	8290
809.174	8290
809.316	8043
809.458	8008
809.6	7932
809.741	8008
809.883	7978
810.025	8100
810.166	8062
810.308	7997
810.45	8058
810.591	7799
810.733	7769
810.875	7651
811.016	7472
811.158	7426
811.299	7590
811.441	7738
811.582	7685
811.724	7563
811.865	7556
812.007	7632
812.148	7582
812.29	7613
812.431	7742
812.573	7849
812.714	7894
812.855	8126
812.997	8187
813.138	8313
813.279	8256
813.421	8142
813.562	7940
813.703	7921
813.845	7822
813.986	7453
814.127	7331
814.268	7221
814.41	7209
814.551	7168
814.692	7213
814.833	7091
814.974	7088
815.115	7133
815.256	6966
815.397	6928
815.539	7008
815.68	6810
815.821	6810
815.962	6897
816.103	6852
816.244	6734
816.385	6540
816.526	6631
816.666	6509
816.807	6304
816.948	6418
817.089	6494
817.23	6486
817.371	6429
817.512	6403
817.653	6433
817.793	6399
817.934	6433
818.075	6441
818.216	6407
818.356	6380
818.497	6285
818.638	6087
818.778	6167
818.919	6133
819.06	6197
819.2	6388
819.341	6273
819.481	6346
819.622	6525
819.762	6745
819.903	6726
820.043	6635
820.184	6585
820.324	6597
820.465	6730
820.605	6673
820.746	6642
820.886	6547
821.026	6707
821.167	6707
821.307	6821
821.447	6722
821.588	6715
821.728	6589
821.868	6525
822.008	6300
822.149	6376
822.289	6407
822.429	6182
822.569	6175
822.709	6148
822.849	5942
822.99	5931
823.13	5950
823.27	5935
823.41	5824
823.55	5771
823.69	5783
823.83	5836
823.97	5710
824.11	5577
824.25	5551
824.389	5589
824.529	5634
824.669	5528
824.809	5642
824.949	5657
825.089	5577
825.228	5551
825.368	5440
825.508	5345
825.648	5337
825.787	5372
825.927	5383
826.067	5284
826.206	5265
826.346	5433
826.485	5379
826.625	5345
826.765	5566
826.904	5512
827.044	5246
827.183	5124
827.323	5162
827.462	5246
827.601	5185
827.741	5235
827.88	5151
828.02	5170
828.159	5212
828.298	5273
828.437	5383
828.577	5303
828.716	5493
828.855	5345
828.994	5159
829.134	5128
829.273	5227
829.412	5140
829.551	5174
829.69	5170
829.829	5212
829.968	5417
830.107	5227
830.246	5216
830.385	5162
830.524	5159
830.663	5102
830.802	4938
830.941	4847
831.08	4885
831.219	4980
831.357	4942
831.496	5128
831.635	4915
831.774	4839
831.913	4816
832.051	4744
832.19	4740
832.329	4809
832.467	4702
832.606	4603
832.744	4782
832.883	4733
833.022	4717
833.16	4812
833.299	4839
833.437	4824
833.576	4881
833.714	4854
833.852	4919
833.991	4908
834.129	4938
834.267	4961
834.406	4892
834.544	4984
834.682	4968
834.821	4942
834.959	5181
835.097	4987
835.235	5121
835.373	5071
835.511	5075
835.65	5037
835.788	5029
835.926	4877
836.064	4854
836.202	4953
836.34	5174
836.478	5239
836.615	5140
836.753	5201
836.891	5292
837.029	5231
837.167	5162
837.305	5132
837.443	5147
837.58	5060
837.718	5269
837.856	5216
837.993	5151
838.131	5235
838.269	5193
838.406	5181
838.544	5140
838.681	5022
838.819	5048
838.956	4889
839.094	4873
839.231	4987
839.369	5113
839.506	5474
839.643	5231
839.781	5045
839.918	4976
840.055	5045
840.193	5056
840.33	5140
840.467	5083
840.604	5155
840.742	5395
840.879	5128
841.016	5113
841.153	5174
841.29	5357
841.427	5307
841.564	5280
841.701	5292
841.838	5261
841.975	5273
842.112	5277
842.249	5117
842.385	5102
842.522	5296
842.659	5170
842.796	5159
842.933	5227
843.069	5174
843.206	5174
843.343	5288
843.479	5288
843.616	5280
843.752	5079
843.889	5045
844.025	5147
844.162	5033
844.298	5246
844.435	5102
844.571	5067
844.708	5178
844.844	5261
844.98	5341
845.117	5292
845.253	5204
845.389	5113
845.525	5174
845.661	5109
845.798	5037
845.934	5155
846.07	5045
846.206	5220
846.342	5254
846.478	5132
846.614	5014
846.75	4953
846.886	4953
847.022	5124
847.158	5006
847.294	5128
847.429	5128
847.565	5086
847.701	5296
847.837	4831
847.972	4778
848.108	4984
848.244	4919
848.379	4763
848.515	4797
848.65	4694
848.786	4717
848.921	4793
849.057	4839
849.192	4892
849.328	4793
849.463	4847
849.598	4771
849.734	4736
849.869	4694
850.004	4630
850.14	4637
850.275	4653
850.41	4550
850.545	4565
850.68	4584
850.815	4588
850.95	4622
851.085	4816
851.22	4771
851.355	4672
851.49	4641
851.625	4603
851.76	4603
851.895	4512
852.03	4489
852.165	4641
852.299	4710
852.434	4771
852.569	4759
852.703	4790
852.838	4847
852.973	4934
853.107	4919
853.242	4717
853.376	4668
853.511	4561
853.645	4626
853.78	4816
853.914	4683
854.048	4622
854.183	4660
854.317	4782
854.451	4915
854.585	4679
854.72	4618
854.854	4733
854.988	4611
855.122	4649
855.256	4554
855.39	4637
855.524	4778
855.658	4698
855.792	4740
855.926	4698
856.06	4755
856.194	4774
856.327	4679
856.461	4622
856.595	4634
856.729	4603
856.862	4767
856.996	4683
857.13	4687
857.263	4809
857.397	4786
857.53	4656
857.664	4706
857.797	4824
857.931	4801
858.064	4683
858.197	4771
858.331	4607
858.464	4588
858.597	4558
858.731	4611
858.864	4630
858.997	4607
859.13	4634
859.263	4656
859.396	4710
859.529	4596
859.662	4527
859.795	4519
859.928	4664
860.061	4748
860.194	4752
860.327	4626
860.46	4558
860.592	4744
860.725	4664
860.858	4687
860.99	4531
861.123	4512
861.256	4546
861.388	4596
861.521	5421
861.653	4527
861.786	4455
861.918	4466
862.05	4550
862.183	4519
862.315	4607
862.447	4611
862.58	4550
862.712	4386
862.844	4303
862.976	4436
863.108	4500
863.24	4797
863.372	4318
863.504	4428
863.636	4356
863.768	4500
863.9	4428
864.032	4421
864.164	4398
864.296	4451
864.428	4561
864.559	4611
864.691	4504
864.823	4519
864.954	4455
865.086	4504
865.217	4432
865.349	4421
865.48	4447
865.612	4531
865.743	4577
865.875	4443
866.006	4417
866.137	4485
866.269	4421
866.4	4466
866.531	4421
866.662	4398
866.793	4421
866.924	4409
867.055	4481
867.186	4466
867.317	4428
867.448	4344
867.579	4367
867.71	4409
867.841	4375
867.972	4504
868.103	4417
868.233	4440
868.364	4443
868.495	4489
868.625	4714
868.756	4771
868.886	4542
869.017	4615
869.147	4820
869.278	4790
869.408	4687
869.539	4714
869.669	4729
869.799	4649
869.929	4759
870.06	4767
870.19	4984
870.32	4938
870.45	4942
870.58	5003
870.71	5086
870.84	5105
870.97	4972
871.1	4908
871.23	5155
871.36	5067
871.489	5010
871.619	5079
871.749	5098
871.879	5113
872.008	5197
872.138	5071
872.267	4961
872.397	4847
872.526	4843
872.656	4714
872.785	4801
872.915	4934
873.044	4980
873.173	4961
873.303	4957
873.432	4946
873.561	4976
873.69	4908
873.819	4908
873.948	4900
874.077	4797
874.206	4778
874.335	4793
874.464	4919
874.593	5052
874.722	4965
874.851	5105
874.979	5033
875.108	5018
875.237	4915
875.365	4885
875.494	4892
875.623	5014
875.751	4877
875.88	4885
876.008	4995
876.136	5014
876.265	5216
876.393	5326
876.521	5258
876.65	5235
876.778	5178
876.906	5071
877.034	4995
877.162	5037
877.29	4999
877.418	5041
877.546	5056
877.674	5060
877.802	5022
877.93	5083
878.058	4938
878.185	4911
878.313	4995
878.441	4972
878.568	4793
878.696	4885
878.824	4987
878.951	4999
879.079	5113
879.206	5299
879.333	5159
879.461	5003
879.588	4995
879.715	5140
879.842	5201
879.97	5010
880.097	4778
880.224	4763
880.351	4790
880.478	4786
880.605	4786
880.732	4797
880.859	5090
880.986	4881
881.112	4835
881.239	4858
881.366	4683
881.493	4645
881.619	4607
881.746	4656
881.872	4679
881.999	4641
882.125	4714
882.252	4790
882.378	4835
882.505	5006
882.631	4778
882.757	4641
882.883	4748
883.01	4717
883.136	4668
883.262	4596
883.388	4626
883.514	4835
883.64	4919
883.766	4820
883.892	4649
884.018	4755
884.143	4915
884.269	5003
884.395	4668
884.52	4637
884.646	4637
884.772	4527
884.897	4580
885.023	4675
885.148	4831
885.274	4828
885.399	4767
885.524	4725
885.65	4702
885.775	4736
885.9	4725
886.025	4889
886.15	4805
886.275	4748
886.4	4653
886.525	4721
886.65	4656
886.775	4694
886.9	4900
887.025	5003
887.149	4793
887.274	4668
887.399	4546
887.523	4577
887.648	4584
887.773	4622
887.897	4736
888.021	4786
888.146	4710
888.27	4812
888.395	4934
888.519	4790
888.643	4858
888.767	4828
888.891	4637
889.015	4615
889.139	4698
889.263	4622
889.387	4733
889.511	4870
889.635	4736
889.759	4599
889.883	4618
890.006	4733
890.13	4809
890.254	4615
890.377	4694
890.501	4542
890.624	4565
890.748	4626
890.871	4523
890.995	4459
891.118	4379
891.241	4485
891.364	4538
891.488	4596
891.611	4485
891.734	4546
891.857	4573
891.98	4558
892.103	4645
892.226	4596
892.349	4546
892.471	4432
892.594	4561
892.717	4584
892.839	4546
892.962	4599
893.085	4622
893.207	4622
893.33	4462
893.452	4508
893.575	4672
893.697	4569
893.819	4763
893.941	4854
894.064	4790
894.186	4592
894.308	4607
894.43	4736
894.552	4782
894.674	4782
894.796	4599
894.918	4596
895.04	4588
895.161	4702
895.283	4649
895.405	4584
895.526	4626
895.648	4675
895.769	4649
895.891	4698
896.012	4710
896.134	4729
896.255	4626
896.376	4599
896.498	4649
896.619	4672
896.74	4656
896.861	4672
896.982	4919
897.103	5083
897.224	4793
897.345	4748
897.466	4660
897.587	4725
897.708	4812
897.828	4793
897.949	4656
898.07	4538
898.19	4634
898.311	4854
898.431	4710
898.552	4729
898.672	4805
898.792	4835
898.913	4714
899.033	4618
899.153	4497
899.273	4409
899.393	4516
899.513	4569
899.633	4558
899.753	4519
899.873	4531
899.993	4561
900.113	4546
900.232	4573
900.352	4538
900.472	4504
900.591	4462
900.711	4519
900.83	4519
900.95	4523
901.069	4645
901.189	4546
901.308	4390
901.427	4314
901.546	4356
901.665	4519
901.784	4516
901.904	4363
902.023	4348
902.141	4204
902.26	4131
902.379	4268
902.498	4227
902.617	4246
902.735	4367
902.854	4348
902.973	4363
903.091	4211
903.21	4196
903.328	4306
903.446	4265
903.565	4215
903.683	4337
903.801	4272
903.919	4413
904.038	4421
904.156	4314
904.274	4443
904.392	4386
904.51	4398
904.627	4516
904.745	4592
904.863	4630
904.981	4424
905.098	4299
905.216	4375
905.334	4462
905.451	4383
905.569	4443
905.686	4558
905.803	4565
905.921	4432
906.038	4542
906.155	4417
906.272	4432
906.389	4493
906.506	4337
906.623	4363
906.74	4398
906.857	4325
906.974	4337
907.091	4569
907.208	4729
907.324	4584
907.441	4504
907.557	4310
907.674	4363
907.79	4303
907.907	4398
908.023	4447
908.139	4489
908.256	4459
908.372	4481
908.488	4443
908.604	4371
908.72	4341
908.836	4402
908.952	4356
909.068	4424
909.184	4596
909.3	4466
909.415	4607
909.531	4489
909.647	4402
909.762	4383
909.878	4360
909.993	4421
910.108	4371
910.224	4436
910.339	4531
910.454	4379
910.57	4379
910.685	4322
910.8	4664
910.915	4577
911.03	4478
911.145	4318
911.259	4325
911.374	4405
911.489	4318
911.604	4261
911.718	4192
911.833	4196
911.947	4128
912.062	3998
912.176	4227
912.291	4188
912.405	4211
912.519	4519
912.633	4493
912.748	4379
912.862	4325
912.976	4215
913.09	4105
913.204	4181
913.318	4230
913.431	4398
913.545	4367
913.659	4398
913.772	4363
913.886	4261
914	4219
914.113	4390
914.226	4459
914.34	4363
914.453	4257
914.566	4413
914.68	4318
914.793	4352
914.906	4200
915.019	4116
915.132	4067
915.245	4162
915.358	4169
915.47	4204
915.583	4265
915.696	4291
915.809	4428
915.921	4451
916.034	4242
916.146	4261
916.259	4230
916.371	4337
916.483	4337
916.595	4234
916.708	4310
916.82	4360
916.932	4344
917.044	4329
917.156	4341
917.268	4230
917.38	4253
917.491	4261
917.603	4329
917.715	4379
917.826	4428
917.938	4367
918.049	4230
918.161	4402
918.272	4481
918.384	4558
918.495	4405
918.606	4291
918.717	4249
918.828	4379
918.939	4322
919.05	4246
919.161	4322
919.272	4116
919.383	4207
919.494	4451
919.604	4630
919.715	4409
919.826	4314
919.936	4383
920.047	4542
920.157	4497
920.267	4668
920.378	4527
920.488	4489
920.598	4706
920.708	4889
920.818	4714
920.928	4736
921.038	4938
921.148	4877
921.258	4599
921.368	4561
921.477	4489
921.587	4428
921.697	4409
921.806	4550
921.916	4436
922.025	4295
922.134	4234
922.244	4261
922.353	4352
922.462	4181
922.571	4154
922.68	4021
922.789	4010
922.898	4025
923.007	3956
923.116	4147
923.224	4082
923.333	4059
923.442	3968
923.55	4002
923.659	4048
923.767	4112
923.876	4051
923.984	4093
924.092	4013
924.201	4082
924.309	4101
924.417	4105
924.525	4040
924.633	4074
924.741	5045
924.849	3922
924.956	4124
925.064	3964
925.172	3880
925.279	3991
925.387	4051
925.494	4078
925.602	4196
925.709	4185
925.816	4105
925.924	4112
926.031	4227
926.138	4124
926.245	4227
926.352	4074
926.459	4284
926.566	4356
926.673	4112
926.779	4135
926.886	4124
926.993	3998
927.099	3987
927.206	3937
927.312	3918
927.419	4036
927.525	4017
927.631	4086
927.737	3987
927.843	3926
927.95	3850
928.056	3956
928.162	3991
928.267	4051
928.373	4558
928.479	4143
928.585	3884
928.69	4036
928.796	4040
928.901	3949
929.007	3842
929.112	3998
929.218	3956
929.323	3941
929.428	3930
929.533	4143
929.638	3835
929.743	3922
929.848	4048
929.953	4029
930.058	3949
930.163	3797
930.267	3857
930.372	4036
930.477	3812
930.581	4074
930.685	3968
930.79	3846
930.894	3884
930.998	3850
931.103	4017
931.207	3724
931.311	3675
931.415	3675
931.519	3572
931.623	3561
