Data from test_V78500241_2221.txt Node
Date: Fri Mar 25 17:04:26 CST 2022
User: usil
Spectrometer: V785-0024
Trigger mode: 0
Integration Time (sec): 4.000000E-1
Scans to average: 1
Nonlinearity correction enabled: false
Boxcar width: 0
Storing dark spectrum: false
XAxis mode: Wavelengths
Number of Pixels in Spectrum: 1024
>>>>>Begin Spectral Data<<<<<
801.071	7989
801.214	7955
801.356	7807
801.499	7792
801.641	7803
801.783	7799
801.926	7955
802.068	7986
802.211	7917
802.353	7936
802.496	7818
802.638	7811
802.78	7826
802.923	7826
803.065	7852
803.208	7860
803.35	7970
803.492	8119
803.635	8126
803.777	8039
803.919	8100
804.061	8358
804.204	8164
804.346	8054
804.488	7982
804.63	8088
804.773	8001
804.915	8069
805.057	8317
805.199	8153
805.341	8183
805.483	8252
805.626	8172
805.768	8111
805.91	8225
806.052	8187
806.194	8062
806.336	8195
806.478	8088
806.62	8058
806.762	8096
806.904	8294
807.046	8473
807.188	8351
807.33	8279
807.472	8328
807.614	8115
807.756	8164
807.898	8001
808.04	7849
808.182	7898
808.324	7871
808.465	7902
808.607	8024
808.749	8043
808.891	8244
809.033	8267
809.174	8199
809.316	8054
809.458	8092
809.6	7955
809.741	8035
809.883	7986
810.025	8062
810.166	8054
810.308	7967
810.45	7921
810.591	7868
810.733	7708
810.875	7594
811.016	7491
811.158	7460
811.299	7537
811.441	7719
811.582	7643
811.724	7533
811.865	7616
812.007	7567
812.148	7636
812.29	7616
812.431	7727
812.573	7883
812.714	7989
812.855	8130
812.997	8233
813.138	8298
813.279	8183
813.421	8054
813.562	7951
813.703	7822
813.845	7670
813.986	7434
814.127	7289
814.268	7171
814.41	7122
814.551	7179
814.692	7171
814.833	7069
814.974	7057
815.115	7114
815.256	6928
815.397	6905
815.539	6897
815.68	6825
815.821	6783
815.962	6875
816.103	6787
816.244	6696
816.385	6566
816.526	6559
816.666	6525
816.807	6311
816.948	6483
817.089	6399
817.23	6422
817.371	6380
817.512	6372
817.653	6422
817.793	6315
817.934	6350
818.075	6433
818.216	6399
818.356	6410
818.497	6232
818.638	6083
818.778	6140
818.919	6110
819.06	6117
819.2	6311
819.341	6338
819.481	6346
819.622	6506
819.762	6715
819.903	6715
820.043	6547
820.184	6551
820.324	6547
820.465	6646
820.605	6692
820.746	6654
820.886	6525
821.026	6650
821.167	6730
821.307	6787
821.447	6745
821.588	6673
821.728	6578
821.868	6426
822.008	6327
822.149	6319
822.289	6353
822.429	6121
822.569	6098
822.709	6117
822.849	5912
822.99	5920
823.13	5901
823.27	5916
823.41	5798
823.55	5764
823.69	5771
823.83	5764
823.97	5653
824.11	5539
824.25	5535
824.389	5581
824.529	5604
824.669	5585
824.809	5623
824.949	5649
825.089	5638
825.228	5585
825.368	5372
825.508	5341
825.648	5357
825.787	5353
825.927	5398
826.067	5288
826.206	5273
826.346	5433
826.485	5357
826.625	5414
826.765	5535
826.904	5452
827.044	5254
827.183	5159
827.323	5121
827.462	5235
827.601	5174
827.741	5212
827.88	5250
828.02	5079
828.159	5181
828.298	5284
828.437	5345
828.577	5235
828.716	5482
828.855	5379
828.994	5181
829.134	5117
829.273	5197
829.412	5140
829.551	5117
829.69	5208
829.829	5178
829.968	5376
830.107	5265
830.246	5246
830.385	5159
830.524	5128
830.663	5128
830.802	4946
830.941	4896
831.08	4904
831.219	4923
831.357	4930
831.496	5197
831.635	4904
831.774	4820
831.913	4850
832.051	4725
832.19	4740
832.329	4835
832.467	4668
832.606	4607
832.744	4691
832.883	4683
833.022	4717
833.16	4778
833.299	4839
833.437	4820
833.576	4824
833.714	4858
833.852	4870
833.991	4911
834.129	4972
834.267	4896
834.406	4934
834.544	4942
834.682	4968
834.821	4968
834.959	5128
835.097	4987
835.235	5140
835.373	5048
835.511	5105
835.65	5048
835.788	4995
835.926	4908
836.064	4862
836.202	4873
836.34	5132
836.478	5246
836.615	5109
836.753	5197
836.891	5292
837.029	5288
837.167	5212
837.305	5166
837.443	5143
837.58	5075
837.718	5227
837.856	5223
837.993	5140
838.131	5239
838.269	5189
838.406	5201
838.544	5185
838.681	4999
838.819	5010
838.956	4858
839.094	4923
839.231	4946
839.369	5029
839.506	5421
839.643	5284
839.781	5056
839.918	4930
840.055	5117
840.193	5033
840.33	5140
840.467	5136
840.604	5208
840.742	5410
840.879	5052
841.016	5071
841.153	5140
841.29	5387
841.427	5322
841.564	5307
841.701	5391
841.838	5235
841.975	5155
842.112	5258
842.249	5109
842.385	5086
842.522	5322
842.659	5193
842.796	5132
842.933	5204
843.069	5201
843.206	5178
843.343	5273
843.479	5193
843.616	5185
843.752	5037
843.889	5025
844.025	5280
844.162	5033
844.298	5239
844.435	5060
844.571	5048
844.708	5189
844.844	5284
844.98	5364
845.117	5280
845.253	5140
845.389	5075
845.525	5143
845.661	5128
845.798	5037
845.934	5128
846.07	5083
846.206	5197
846.342	5265
846.478	5212
846.614	5022
846.75	4999
846.886	4927
847.022	5086
847.158	5033
847.294	5033
847.429	5151
847.565	5048
847.701	5280
847.837	4866
847.972	4812
848.108	4915
848.244	4919
848.379	4691
848.515	4714
848.65	4691
848.786	4771
848.921	4782
849.057	4866
849.192	4923
849.328	4790
849.463	4866
849.598	4812
849.734	4774
849.869	4683
850.004	4649
850.14	4668
850.275	4584
850.41	4535
850.545	4542
850.68	4580
850.815	4634
850.95	4634
851.085	4854
851.22	4748
851.355	4626
851.49	4588
851.625	4653
851.76	4599
851.895	4603
852.03	4523
852.165	4577
852.299	4687
852.434	4786
852.569	4755
852.703	4759
852.838	4847
852.973	4938
853.107	4930
853.242	4752
853.376	4641
853.511	4512
853.645	4603
853.78	4786
853.914	4645
854.048	4717
854.183	4675
854.317	4729
854.451	4839
854.585	4717
854.72	4664
854.854	4706
854.988	4588
855.122	4618
855.256	4531
855.39	4691
855.524	4771
855.658	4736
855.792	4740
855.926	4729
856.06	4805
856.194	4778
856.327	4679
856.461	4592
856.595	4622
856.729	4607
856.862	4698
856.996	4694
857.13	4771
857.263	4778
857.397	4790
857.53	4630
857.664	4717
857.797	4740
857.931	4778
858.064	4687
858.197	4721
858.331	4622
858.464	4599
858.597	4546
858.731	4637
858.864	4664
858.997	4596
859.13	4656
859.263	4683
859.396	4740
859.529	4615
859.662	4535
859.795	4584
859.928	4634
860.061	4752
860.194	4725
860.327	4573
860.46	4558
860.592	4710
860.725	4729
860.858	4733
860.99	4561
861.123	4504
861.256	4481
861.388	4622
861.521	5315
861.653	4481
861.786	4455
861.918	4462
862.05	4508
862.183	4561
862.315	4580
862.447	4634
862.58	4565
862.712	4402
862.844	4287
862.976	4413
863.108	4470
863.24	4892
863.372	4329
863.504	4440
863.636	4394
863.768	4474
863.9	4409
864.032	4325
864.164	4367
864.296	4481
864.428	4561
864.559	4554
864.691	4546
864.823	4470
864.954	4474
865.086	4497
865.217	4421
865.349	4424
865.48	4489
865.612	4443
865.743	4618
865.875	4451
866.006	4390
866.137	4466
866.269	4436
866.4	4447
866.531	4413
866.662	4443
866.793	4398
866.924	4447
867.055	4470
867.186	4462
867.317	4402
867.448	4421
867.579	4375
867.71	4344
867.841	4394
867.972	4462
868.103	4447
868.233	4470
868.364	4436
868.495	4470
868.625	4698
868.756	4790
868.886	4516
869.017	4596
869.147	4786
869.278	4763
869.408	4637
869.539	4584
869.669	4733
869.799	4702
869.929	4694
870.06	4733
870.19	4968
870.32	4965
870.45	4953
870.58	4991
870.71	5090
870.84	5117
870.97	4965
871.1	4870
871.23	5159
871.36	5109
871.489	5022
871.619	5140
871.749	5041
871.879	5090
872.008	5170
872.138	5029
872.267	4942
872.397	4850
872.526	4793
872.656	4687
872.785	4812
872.915	4946
873.044	5006
873.173	4949
873.303	4915
873.432	4961
873.561	4927
873.69	4847
873.819	4847
873.948	4938
874.077	4862
874.206	4755
874.335	4812
874.464	4915
874.593	5056
874.722	4968
874.851	5048
874.979	5067
875.108	5033
875.237	4923
875.365	4896
875.494	4889
875.623	4980
875.751	4835
875.88	4892
876.008	4972
876.136	5033
876.265	5181
876.393	5364
876.521	5250
876.65	5178
876.778	5208
876.906	5025
877.034	5003
877.162	5045
877.29	4972
877.418	5029
877.546	5037
877.674	5018
877.802	5079
877.93	5052
878.058	4900
878.185	4870
878.313	4949
878.441	4957
878.568	4767
878.696	4877
878.824	4957
878.951	5018
879.079	5151
879.206	5258
879.333	5090
879.461	4965
879.588	5018
879.715	5121
879.842	5231
879.97	5018
880.097	4782
880.224	4721
880.351	4778
880.478	4854
880.605	4801
880.732	4774
880.859	5041
880.986	4919
881.112	4881
881.239	4786
881.366	4637
881.493	4615
881.619	4588
881.746	4649
881.872	4637
881.999	4668
882.125	4668
882.252	4778
882.378	4797
882.505	4987
882.631	4790
882.757	4702
882.883	4733
883.01	4725
883.136	4611
883.262	4596
883.388	4603
883.514	4828
883.64	4870
883.766	4771
883.892	4645
884.018	4698
884.143	4911
884.269	4957
884.395	4653
884.52	4622
884.646	4637
884.772	4561
884.897	4546
885.023	4656
885.148	4809
885.274	4828
885.399	4774
885.524	4687
885.65	4710
885.775	4714
885.9	4729
886.025	4824
886.15	4862
886.275	4740
886.4	4668
886.525	4748
886.65	4675
886.775	4706
886.9	4919
887.025	4953
887.149	4759
887.274	4630
887.399	4565
887.523	4561
887.648	4596
887.773	4565
887.897	4812
888.021	4740
888.146	4691
888.27	4793
888.395	4896
888.519	4767
888.643	4793
888.767	4812
888.891	4710
889.015	4626
889.139	4637
889.263	4577
889.387	4714
889.511	4889
889.635	4778
889.759	4668
889.883	4645
890.006	4710
890.13	4801
890.254	4618
890.377	4668
890.501	4538
890.624	4554
890.748	4653
890.871	4535
890.995	4436
891.118	4379
891.241	4489
891.364	4546
891.488	4615
891.611	4558
891.734	4527
891.857	4615
891.98	4577
892.103	4653
892.226	4630
892.349	4554
892.471	4417
892.594	4493
892.717	4580
892.839	4558
892.962	4592
893.085	4664
893.207	4599
893.33	4417
893.452	4516
893.575	4603
893.697	4596
893.819	4759
893.941	4820
894.064	4778
894.186	4573
894.308	4546
894.43	4736
894.552	4831
894.674	4706
894.796	4538
894.918	4656
895.04	4592
895.161	4694
895.283	4672
895.405	4577
895.526	4630
895.648	4721
895.769	4672
895.891	4656
896.012	4725
896.134	4744
896.255	4668
896.376	4637
896.498	4592
896.619	4675
896.74	4599
896.861	4656
896.982	4938
897.103	5083
897.224	4805
897.345	4725
897.466	4641
897.587	4744
897.708	4850
897.828	4752
897.949	4645
898.07	4561
898.19	4641
898.311	4790
898.431	4641
898.552	4717
898.672	4816
898.792	4816
898.913	4725
899.033	4641
899.153	4470
899.273	4417
899.393	4497
899.513	4558
899.633	4554
899.753	4565
899.873	4535
899.993	4580
900.113	4512
900.232	4577
900.352	4542
900.472	4470
900.591	4417
900.711	4481
900.83	4447
900.95	4592
901.069	4668
901.189	4523
901.308	4352
901.427	4337
901.546	4360
901.665	4474
901.784	4489
901.904	4386
902.023	4291
902.141	4230
902.26	4185
902.379	4303
902.498	4188
902.617	4234
902.735	4375
902.854	4402
902.973	4352
903.091	4230
903.21	4238
903.328	4299
903.446	4318
903.565	4280
903.683	4337
903.801	4303
903.919	4367
904.038	4443
904.156	4272
904.274	4493
904.392	4402
904.51	4421
904.627	4459
904.745	4538
904.863	4592
904.981	4383
905.098	4280
905.216	4379
905.334	4379
905.451	4432
905.569	4455
905.686	4565
905.803	4588
905.921	4421
906.038	4558
906.155	4508
906.272	4371
906.389	4447
906.506	4348
906.623	4375
906.74	4447
906.857	4246
906.974	4386
907.091	4542
907.208	4694
907.324	4569
907.441	4474
907.557	4318
907.674	4356
907.79	4303
907.907	4371
908.023	4485
908.139	4455
908.256	4424
908.372	4421
908.488	4504
908.604	4363
908.72	4306
908.836	4360
908.952	4356
909.068	4447
909.184	4542
909.3	4462
909.415	4592
909.531	4596
909.647	4363
909.762	4386
909.878	4363
909.993	4375
910.108	4459
910.224	4398
910.339	4462
910.454	4428
910.57	4348
910.685	4356
910.8	4634
910.915	4561
911.03	4485
911.145	4306
911.259	4333
911.374	4383
911.489	4284
911.604	4310
911.718	4211
911.833	4227
911.947	4090
912.062	4013
912.176	4158
912.291	4211
912.405	4215
912.519	4440
912.633	4516
912.748	4375
912.862	4306
912.976	4181
913.09	4150
913.204	4143
913.318	4223
913.431	4363
913.545	4344
913.659	4428
913.772	4375
913.886	4272
914	4227
914.113	4329
914.226	4432
914.34	4390
914.453	4257
914.566	4375
914.68	4299
914.793	4306
914.906	4154
915.019	4116
915.132	4105
915.245	4196
915.358	4249
915.47	4223
915.583	4246
915.696	4295
915.809	4421
915.921	4432
916.034	4249
916.146	4253
916.259	4204
916.371	4363
916.483	4360
916.595	4257
916.708	4325
916.82	4272
916.932	4325
917.044	4348
917.156	4303
917.268	4242
917.38	4253
917.491	4291
917.603	4341
917.715	4436
917.826	4424
917.938	4375
918.049	4162
918.161	4390
918.272	4535
918.384	4588
918.495	4413
918.606	4265
918.717	4219
918.828	4295
918.939	4367
919.05	4230
919.161	4299
919.272	4124
919.383	4280
919.494	4413
919.604	4599
919.715	4440
919.826	4360
919.936	4405
920.047	4519
920.157	4508
920.267	4698
920.378	4561
920.488	4489
920.598	4717
920.708	4892
920.818	4778
920.928	4752
921.038	4892
921.148	4919
921.258	4649
921.368	4569
921.477	4497
921.587	4493
921.697	4386
921.806	4546
921.916	4451
922.025	4306
922.134	4242
922.244	4215
922.353	4329
922.462	4131
922.571	4131
922.68	4013
922.789	3945
922.898	4002
923.007	3991
923.116	4112
923.224	4036
923.333	4078
923.442	4006
923.55	3960
923.659	4006
923.767	4109
923.876	4025
923.984	4101
924.092	3975
924.201	4086
924.309	4101
924.417	4128
924.525	4071
924.633	4093
924.741	5018
924.849	3888
924.956	4112
925.064	3983
925.172	3907
925.279	3934
925.387	4029
925.494	3987
925.602	4215
925.709	4158
925.816	4044
925.924	4139
926.031	4200
926.138	4158
926.245	4196
926.352	4093
926.459	4234
926.566	4291
926.673	4204
926.779	4071
926.886	4112
926.993	3949
927.099	3930
927.206	3960
927.312	3915
927.419	4059
927.525	4044
927.631	4101
927.737	3983
927.843	3926
927.95	3842
928.056	3922
928.162	3972
928.267	4059
928.373	4694
928.479	4124
928.585	3880
928.69	4036
928.796	4048
928.901	3987
929.007	3850
929.112	3991
929.218	3960
929.323	3960
929.428	3941
929.533	4120
929.638	3884
929.743	3994
929.848	4021
929.953	4021
930.058	3937
930.163	3793
930.267	3865
930.372	3960
930.477	3831
930.581	4048
930.685	3964
930.79	3781
930.894	3857
930.998	3857
931.103	3994
931.207	3701
931.311	3679
931.415	3675
931.519	3507
931.623	3511
