Data from test_V78500241_866.txt Node
Date: Fri Mar 25 16:55:01 CST 2022
User: usil
Spectrometer: V785-0024
Trigger mode: 0
Integration Time (sec): 4.000000E-1
Scans to average: 1
Nonlinearity correction enabled: false
Boxcar width: 0
Storing dark spectrum: false
XAxis mode: Wavelengths
Number of Pixels in Spectrum: 1024
>>>>>Begin Spectral Data<<<<<
801.071	7978
801.214	8062
801.356	7894
801.499	7879
801.641	7792
801.783	7837
801.926	7947
802.068	7955
802.211	7906
802.353	7947
802.496	7852
802.638	7909
802.78	7921
802.923	7936
803.065	7906
803.208	7849
803.35	8062
803.492	8157
803.635	8187
803.777	8001
803.919	8161
804.061	8423
804.204	8119
804.346	8073
804.488	7894
804.63	8126
804.773	8039
804.915	8069
805.057	8233
805.199	8138
805.341	8240
805.483	8206
805.626	8191
805.768	8130
805.91	8180
806.052	8191
806.194	8081
806.336	8275
806.478	8058
806.62	8069
806.762	8065
806.904	8180
807.046	8419
807.188	8347
807.33	8317
807.472	8339
807.614	8145
807.756	8168
807.898	7993
808.04	7875
808.182	7883
808.324	7875
808.465	7871
808.607	8062
808.749	8115
808.891	8183
809.033	8248
809.174	8229
809.316	8065
809.458	8050
809.6	7982
809.741	7959
809.883	7925
810.025	8046
810.166	8050
810.308	7997
810.45	8058
810.591	7947
810.733	7681
810.875	7727
811.016	7529
811.158	7476
811.299	7597
811.441	7753
811.582	7643
811.724	7597
811.865	7495
812.007	7586
812.148	7647
812.29	7666
812.431	7723
812.573	7830
812.714	7917
812.855	8123
812.997	8221
813.138	8320
813.279	8176
813.421	8062
813.562	7959
813.703	7852
813.845	7738
813.986	7422
814.127	7305
814.268	7259
814.41	7183
814.551	7122
814.692	7145
814.833	7012
814.974	7080
815.115	7038
815.256	6901
815.397	6916
815.539	6977
815.68	6814
815.821	6787
815.962	6814
816.103	6753
816.244	6692
816.385	6612
816.526	6658
816.666	6525
816.807	6247
816.948	6452
817.089	6437
817.23	6426
817.371	6338
817.512	6388
817.653	6384
817.793	6361
817.934	6380
818.075	6471
818.216	6418
818.356	6353
818.497	6232
818.638	6125
818.778	6117
818.919	6175
819.06	6186
819.2	6254
819.341	6266
819.481	6323
819.622	6483
819.762	6768
819.903	6711
820.043	6589
820.184	6604
820.324	6525
820.465	6639
820.605	6684
820.746	6616
820.886	6494
821.026	6578
821.167	6673
821.307	6795
821.447	6734
821.588	6627
821.728	6612
821.868	6441
822.008	6281
822.149	6334
822.289	6331
822.429	6155
822.569	6144
822.709	6083
822.849	5931
822.99	5916
823.13	5980
823.27	5885
823.41	5741
823.55	5752
823.69	5775
823.83	5805
823.97	5646
824.11	5554
824.25	5516
824.389	5524
824.529	5551
824.669	5497
824.809	5608
824.949	5688
825.089	5562
825.228	5554
825.368	5387
825.508	5303
825.648	5326
825.787	5402
825.927	5360
826.067	5284
826.206	5250
826.346	5383
826.485	5402
826.625	5368
826.765	5539
826.904	5455
827.044	5280
827.183	5170
827.323	5094
827.462	5227
827.601	5204
827.741	5155
827.88	5204
828.02	5105
828.159	5235
828.298	5273
828.437	5326
828.577	5269
828.716	5429
828.855	5353
828.994	5109
829.134	5162
829.273	5174
829.412	5083
829.551	5113
829.69	5105
829.829	5265
829.968	5364
830.107	5242
830.246	5269
830.385	5136
830.524	5124
830.663	5045
830.802	4995
830.941	4850
831.08	4870
831.219	5006
831.357	4995
831.496	5136
831.635	4877
831.774	4782
831.913	4828
832.051	4714
832.19	4694
832.329	4812
832.467	4717
832.606	4630
832.744	4744
832.883	4706
833.022	4721
833.16	4774
833.299	4812
833.437	4805
833.576	4854
833.714	4839
833.852	4870
833.991	4896
834.129	4908
834.267	4923
834.406	4877
834.544	4949
834.682	4965
834.821	4984
834.959	5113
835.097	4987
835.235	5166
835.373	5052
835.511	5071
835.65	4991
835.788	5022
835.926	4911
836.064	4824
836.202	4900
836.34	5159
836.478	5220
836.615	5113
836.753	5189
836.891	5273
837.029	5223
837.167	5170
837.305	5098
837.443	5151
837.58	5128
837.718	5212
837.856	5147
837.993	5208
838.131	5166
838.269	5121
838.406	5197
838.544	5166
838.681	5075
838.819	4938
838.956	4885
839.094	4942
839.231	4961
839.369	5083
839.506	5414
839.643	5220
839.781	5056
839.918	5022
840.055	5098
840.193	5052
840.33	5098
840.467	5124
840.604	5162
840.742	5379
840.879	5060
841.016	5067
841.153	5147
841.29	5364
841.427	5292
841.564	5273
841.701	5326
841.838	5246
841.975	5227
842.112	5246
842.249	5124
842.385	5102
842.522	5315
842.659	5170
842.796	5151
842.933	5212
843.069	5185
843.206	5105
843.343	5284
843.479	5220
843.616	5239
843.752	5010
843.889	4991
844.025	5162
844.162	5029
844.298	5212
844.435	5086
844.571	5094
844.708	5174
844.844	5246
844.98	5277
845.117	5246
845.253	5071
845.389	5037
845.525	5174
845.661	5147
845.798	5041
845.934	5113
846.07	5025
846.206	5174
846.342	5261
846.478	5147
846.614	5029
846.75	4927
846.886	4919
847.022	5136
847.158	5033
847.294	5094
847.429	5056
847.565	5025
847.701	5239
847.837	4824
847.972	4736
848.108	4949
848.244	4908
848.379	4763
848.515	4702
848.65	4725
848.786	4736
848.921	4714
849.057	4873
849.192	4911
849.328	4805
849.463	4843
849.598	4801
849.734	4740
849.869	4668
850.004	4573
850.14	4596
850.275	4550
850.41	4535
850.545	4523
850.68	4584
850.815	4672
850.95	4622
851.085	4805
851.22	4782
851.355	4664
851.49	4599
851.625	4641
851.76	4630
851.895	4500
852.03	4565
852.165	4637
852.299	4721
852.434	4767
852.569	4740
852.703	4710
852.838	4835
852.973	4904
853.107	4854
853.242	4698
853.376	4622
853.511	4538
853.645	4649
853.78	4809
853.914	4694
854.048	4634
854.183	4630
854.317	4714
854.451	4812
854.585	4694
854.72	4630
854.854	4790
854.988	4542
855.122	4626
855.256	4516
855.39	4664
855.524	4740
855.658	4656
855.792	4714
855.926	4698
856.06	4691
856.194	4740
856.327	4725
856.461	4584
856.595	4618
856.729	4611
856.862	4763
856.996	4698
857.13	4714
857.263	4759
857.397	4755
857.53	4664
857.664	4672
857.797	4740
857.931	4714
858.064	4675
858.197	4679
858.331	4622
858.464	4569
858.597	4508
858.731	4622
858.864	4649
858.997	4558
859.13	4660
859.263	4603
859.396	4721
859.529	4550
859.662	4580
859.795	4535
859.928	4649
860.061	4774
860.194	4774
860.327	4584
860.46	4573
860.592	4645
860.725	4740
860.858	4740
860.99	4523
861.123	4493
861.256	4527
861.388	4615
861.521	5303
861.653	4478
861.786	4485
861.918	4478
862.05	4489
862.183	4538
862.315	4599
862.447	4660
862.58	4558
862.712	4390
862.844	4322
862.976	4432
863.108	4440
863.24	4748
863.372	4284
863.504	4386
863.636	4322
863.768	4459
863.9	4451
864.032	4352
864.164	4348
864.296	4481
864.428	4519
864.559	4561
864.691	4535
864.823	4519
864.954	4466
865.086	4516
865.217	4470
865.349	4363
865.48	4394
865.612	4470
865.743	4615
865.875	4493
866.006	4424
866.137	4405
866.269	4402
866.4	4436
866.531	4421
866.662	4383
866.793	4356
866.924	4367
867.055	4485
867.186	4462
867.317	4402
867.448	4322
867.579	4348
867.71	4375
867.841	4379
867.972	4443
868.103	4470
868.233	4356
868.364	4432
868.495	4462
868.625	4691
868.756	4729
868.886	4550
869.017	4599
869.147	4744
869.278	4736
869.408	4691
869.539	4603
869.669	4691
869.799	4634
869.929	4702
870.06	4702
870.19	4946
870.32	4900
870.45	4934
870.58	4961
870.71	5056
870.84	5098
870.97	4923
871.1	4892
871.23	5117
871.36	5117
871.489	4942
871.619	5056
871.749	5090
871.879	5083
872.008	5162
872.138	5018
872.267	5006
872.397	4812
872.526	4748
872.656	4698
872.785	4790
872.915	4946
873.044	4991
873.173	4889
873.303	4991
873.432	4942
873.561	5006
873.69	4835
873.819	4843
873.948	4904
874.077	4839
874.206	4740
874.335	4816
874.464	4915
874.593	5083
874.722	4938
874.851	5056
874.979	5029
875.108	4968
875.237	4919
875.365	4866
875.494	4870
875.623	4942
875.751	4809
875.88	4877
876.008	4968
876.136	5033
876.265	5132
876.393	5284
876.521	5208
876.65	5185
876.778	5151
876.906	5029
877.034	5025
877.162	4991
877.29	4915
877.418	4995
877.546	5022
877.674	5064
877.802	5045
877.93	5010
878.058	4934
878.185	4847
878.313	4927
878.441	4923
878.568	4767
878.696	4854
878.824	4938
878.951	5022
879.079	5071
879.206	5322
879.333	5067
879.461	4957
879.588	4961
879.715	5071
879.842	5174
879.97	4953
880.097	4740
880.224	4763
880.351	4801
880.478	4793
880.605	4809
880.732	4782
880.859	5041
880.986	4873
881.112	4915
881.239	4755
881.366	4691
881.493	4618
881.619	4569
881.746	4653
881.872	4656
881.999	4618
882.125	4683
882.252	4786
882.378	4790
882.505	4942
882.631	4748
882.757	4599
882.883	4706
883.01	4744
883.136	4630
883.262	4596
883.388	4565
883.514	4839
883.64	4801
883.766	4748
883.892	4653
884.018	4744
884.143	4908
884.269	5022
884.395	4641
884.52	4584
884.646	4615
884.772	4584
884.897	4519
885.023	4626
885.148	4752
885.274	4831
885.399	4778
885.524	4691
885.65	4641
885.775	4717
885.9	4694
886.025	4870
886.15	4752
886.275	4698
886.4	4645
886.525	4687
886.65	4641
886.775	4675
886.9	4881
887.025	5006
887.149	4809
887.274	4626
887.399	4554
887.523	4592
887.648	4588
887.773	4645
887.897	4763
888.021	4736
888.146	4645
888.27	4801
888.395	4908
888.519	4831
888.643	4812
888.767	4831
888.891	4634
889.015	4634
889.139	4649
889.263	4588
889.387	4763
889.511	4843
889.635	4809
889.759	4615
889.883	4641
890.006	4702
890.13	4797
890.254	4596
890.377	4672
890.501	4569
890.624	4546
890.748	4653
890.871	4485
890.995	4409
891.118	4436
891.241	4531
891.364	4558
891.488	4607
891.611	4531
891.734	4561
891.857	4653
891.98	4546
892.103	4656
892.226	4580
892.349	4558
892.471	4478
892.594	4538
892.717	4672
892.839	4626
892.962	4573
893.085	4702
893.207	4599
893.33	4500
893.452	4538
893.575	4717
893.697	4630
893.819	4774
893.941	4889
894.064	4801
894.186	4615
894.308	4603
894.43	4782
894.552	4839
894.674	4778
894.796	4611
894.918	4691
895.04	4634
895.161	4729
895.283	4694
895.405	4599
895.526	4706
895.648	4748
895.769	4717
895.891	4767
896.012	4786
896.134	4786
896.255	4706
896.376	4653
896.498	4675
896.619	4698
896.74	4656
896.861	4668
896.982	4904
897.103	5113
897.224	4862
897.345	4786
897.466	4725
897.587	4763
897.708	4873
897.828	4839
897.949	4687
898.07	4630
898.19	4634
898.311	4831
898.431	4714
898.552	4733
898.672	4889
898.792	4831
898.913	4790
899.033	4603
899.153	4531
899.273	4447
899.393	4535
899.513	4558
899.633	4516
899.753	4580
899.873	4535
899.993	4637
900.113	4580
900.232	4656
900.352	4584
900.472	4485
900.591	4451
900.711	4523
900.83	4447
900.95	4622
901.069	4759
901.189	4523
901.308	4421
901.427	4363
901.546	4394
901.665	4519
901.784	4527
901.904	4405
902.023	4337
902.141	4253
902.26	4215
902.379	4310
902.498	4280
902.617	4280
902.735	4432
902.854	4428
902.973	4352
903.091	4211
903.21	4246
903.328	4341
903.446	4246
903.565	4261
903.683	4363
903.801	4306
903.919	4447
904.038	4508
904.156	4303
904.274	4443
904.392	4447
904.51	4459
904.627	4523
904.745	4565
904.863	4622
904.981	4402
905.098	4333
905.216	4379
905.334	4440
905.451	4424
905.569	4455
905.686	4599
905.803	4584
905.921	4409
906.038	4592
906.155	4519
906.272	4489
906.389	4504
906.506	4341
906.623	4383
906.74	4413
906.857	4344
906.974	4394
907.091	4519
907.208	4717
907.324	4615
907.441	4508
907.557	4329
907.674	4352
907.79	4341
907.907	4386
908.023	4531
908.139	4493
908.256	4443
908.372	4451
908.488	4443
908.604	4375
908.72	4341
908.836	4402
908.952	4462
909.068	4417
909.184	4554
909.3	4485
909.415	4618
909.531	4573
909.647	4424
909.762	4352
909.878	4375
909.993	4470
910.108	4443
910.224	4436
910.339	4497
910.454	4455
910.57	4417
910.685	4337
910.8	4683
910.915	4615
911.03	4493
911.145	4329
911.259	4379
911.374	4409
911.489	4337
911.604	4310
911.718	4173
911.833	4227
911.947	4139
912.062	4036
912.176	4287
912.291	4242
912.405	4265
912.519	4478
912.633	4481
912.748	4363
912.862	4314
912.976	4246
913.09	4139
913.204	4188
913.318	4272
913.431	4413
913.545	4421
913.659	4455
913.772	4413
913.886	4268
914	4280
914.113	4413
914.226	4466
914.34	4371
914.453	4230
914.566	4417
914.68	4348
914.793	4363
914.906	4177
915.019	4196
915.132	4055
915.245	4177
915.358	4272
915.47	4223
915.583	4272
915.696	4352
915.809	4432
915.921	4462
916.034	4265
916.146	4295
916.259	4272
916.371	4383
916.483	4367
916.595	4253
916.708	4303
916.82	4295
916.932	4379
917.044	4348
917.156	4325
917.268	4249
917.38	4268
917.491	4329
917.603	4348
917.715	4474
917.826	4481
917.938	4344
918.049	4272
918.161	4424
918.272	4519
918.384	4554
918.495	4489
918.606	4284
918.717	4268
918.828	4375
918.939	4360
919.05	4268
919.161	4352
919.272	4150
919.383	4242
919.494	4447
919.604	4615
919.715	4436
919.826	4386
919.936	4421
920.047	4538
920.157	4512
920.267	4714
920.378	4569
920.488	4485
920.598	4752
920.708	4881
920.818	4805
920.928	4786
921.038	4942
921.148	4938
921.258	4645
921.368	4550
921.477	4542
921.587	4466
921.697	4394
921.806	4607
921.916	4459
922.025	4284
922.134	4318
922.244	4223
922.353	4344
922.462	4143
922.571	4207
922.68	4063
922.789	3983
922.898	4063
923.007	4010
923.116	4082
923.224	4063
923.333	4120
923.442	3964
923.55	3991
923.659	4032
923.767	4112
923.876	4021
923.984	4109
924.092	4002
924.201	4074
924.309	4112
924.417	4101
924.525	4059
924.633	4097
924.741	4946
924.849	3899
924.956	4181
925.064	4017
925.172	3876
925.279	3983
925.387	4044
925.494	4086
925.602	4219
925.709	4223
925.816	4086
925.924	4158
926.031	4253
926.138	4177
926.245	4204
926.352	4135
926.459	4310
926.566	4299
926.673	4158
926.779	4116
926.886	4105
926.993	3994
927.099	3979
927.206	3926
927.312	3983
927.419	4078
927.525	4032
927.631	4131
927.737	3975
927.843	3975
927.95	3869
928.056	3956
928.162	3979
928.267	4067
928.373	4603
928.479	4147
928.585	3903
928.69	4055
928.796	4093
928.901	4025
929.007	3846
929.112	3983
929.218	3949
929.323	3945
929.428	3953
929.533	4150
929.638	3907
929.743	3983
929.848	4040
929.953	4010
930.058	3983
930.163	3781
930.267	3854
930.372	4010
930.477	3819
930.581	4124
930.685	3945
930.79	3873
930.894	3896
930.998	3873
931.103	4055
931.207	3701
931.311	3709
931.415	3652
931.519	3599
931.623	3538
