Data from test_V78500241_2820.txt Node
Date: Fri Mar 25 17:08:36 CST 2022
User: usil
Spectrometer: V785-0024
Trigger mode: 0
Integration Time (sec): 4.000000E-1
Scans to average: 1
Nonlinearity correction enabled: false
Boxcar width: 0
Storing dark spectrum: false
XAxis mode: Wavelengths
Number of Pixels in Spectrum: 1024
>>>>>Begin Spectral Data<<<<<
801.071	7978
801.214	8039
801.356	7909
801.499	7803
801.641	7811
801.783	7845
801.926	7925
802.068	7902
802.211	7947
802.353	7959
802.496	7906
802.638	7932
802.78	7906
802.923	7871
803.065	7932
803.208	7883
803.35	7978
803.492	8035
803.635	8237
803.777	8054
803.919	8134
804.061	8469
804.204	8134
804.346	8020
804.488	7951
804.63	8130
804.773	7940
804.915	8138
805.057	8256
805.199	8123
805.341	8210
805.483	8328
805.626	8244
805.768	8168
805.91	8259
806.052	8161
806.194	8092
806.336	8336
806.478	8153
806.62	7993
806.762	8126
806.904	8168
807.046	8461
807.188	8389
807.33	8263
807.472	8309
807.614	8176
807.756	8183
807.898	8073
808.04	7860
808.182	7883
808.324	7974
808.465	8008
808.607	8062
808.749	8130
808.891	8210
809.033	8259
809.174	8138
809.316	8054
809.458	8084
809.6	8035
809.741	8115
809.883	8054
810.025	8088
810.166	8039
810.308	7974
810.45	7989
810.591	7887
810.733	7738
810.875	7674
811.016	7571
811.158	7472
811.299	7616
811.441	7757
811.582	7731
811.724	7628
811.865	7563
812.007	7521
812.148	7590
812.29	7693
812.431	7799
812.573	7871
812.714	7989
812.855	8164
812.997	8225
813.138	8301
813.279	8180
813.421	8103
813.562	8046
813.703	7868
813.845	7803
813.986	7502
814.127	7316
814.268	7171
814.41	7209
814.551	7206
814.692	7255
814.833	7057
814.974	7038
815.115	7084
815.256	6916
815.397	6939
815.539	6913
815.68	6848
815.821	6829
815.962	6852
816.103	6795
816.244	6764
816.385	6669
816.526	6650
816.666	6517
816.807	6308
816.948	6410
817.089	6483
817.23	6441
817.371	6361
817.512	6410
817.653	6384
817.793	6376
817.934	6380
818.075	6426
818.216	6448
818.356	6445
818.497	6247
818.638	6148
818.778	6224
818.919	6163
819.06	6167
819.2	6380
819.341	6296
819.481	6384
819.622	6525
819.762	6760
819.903	6677
820.043	6616
820.184	6612
820.324	6555
820.465	6662
820.605	6700
820.746	6650
820.886	6540
821.026	6692
821.167	6696
821.307	6829
821.447	6722
821.588	6669
821.728	6536
821.868	6441
822.008	6300
822.149	6361
822.289	6327
822.429	6171
822.569	6114
822.709	6114
822.849	5969
822.99	5904
823.13	5901
823.27	5897
823.41	5756
823.55	5790
823.69	5790
823.83	5798
823.97	5710
824.11	5573
824.25	5471
824.389	5539
824.529	5551
824.669	5497
824.809	5646
824.949	5741
825.089	5684
825.228	5566
825.368	5406
825.508	5357
825.648	5337
825.787	5322
825.927	5364
826.067	5315
826.206	5273
826.346	5395
826.485	5433
826.625	5368
826.765	5547
826.904	5478
827.044	5227
827.183	5197
827.323	5102
827.462	5265
827.601	5143
827.741	5193
827.88	5296
828.02	5117
828.159	5254
828.298	5353
828.437	5368
828.577	5303
828.716	5490
828.855	5341
828.994	5155
829.134	5162
829.273	5136
829.412	5147
829.551	5124
829.69	5109
829.829	5246
829.968	5360
830.107	5216
830.246	5303
830.385	5147
830.524	5132
830.663	5094
830.802	4999
830.941	4900
831.08	4854
831.219	4999
831.357	4984
831.496	5143
831.635	4957
831.774	4866
831.913	4858
832.051	4710
832.19	4736
832.329	4831
832.467	4679
832.606	4630
832.744	4714
832.883	4672
833.022	4767
833.16	4774
833.299	4801
833.437	4793
833.576	4862
833.714	4915
833.852	4892
833.991	4889
834.129	4987
834.267	4961
834.406	4889
834.544	4972
834.682	4980
834.821	4987
834.959	5151
835.097	4927
835.235	5121
835.373	5064
835.511	5098
835.65	5010
835.788	5029
835.926	4911
836.064	4824
836.202	4976
836.34	5166
836.478	5201
836.615	5166
836.753	5185
836.891	5296
837.029	5261
837.167	5166
837.305	5121
837.443	5105
837.58	5140
837.718	5235
837.856	5159
837.993	5174
838.131	5261
838.269	5220
838.406	5174
838.544	5193
838.681	4991
838.819	4999
838.956	4877
839.094	4873
839.231	4942
839.369	5113
839.506	5360
839.643	5280
839.781	5071
839.918	4965
840.055	5102
840.193	5056
840.33	5151
840.467	5086
840.604	5223
840.742	5391
840.879	5064
841.016	5075
841.153	5140
841.29	5387
841.427	5345
841.564	5284
841.701	5353
841.838	5292
841.975	5223
842.112	5269
842.249	5132
842.385	5117
842.522	5280
842.659	5155
842.796	5124
842.933	5159
843.069	5143
843.206	5166
843.343	5345
843.479	5277
843.616	5258
843.752	5086
843.889	5006
844.025	5216
844.162	5067
844.298	5174
844.435	5086
844.571	5014
844.708	5197
844.844	5273
844.98	5379
845.117	5246
845.253	5162
845.389	5083
845.525	5136
845.661	5113
845.798	5029
845.934	5216
846.07	5052
846.206	5193
846.342	5299
846.478	5147
846.614	5037
846.75	4949
846.886	4892
847.022	5140
847.158	5025
847.294	5086
847.429	5033
847.565	5064
847.701	5296
847.837	4866
847.972	4786
848.108	4919
848.244	4949
848.379	4771
848.515	4744
848.65	4714
848.786	4706
848.921	4763
849.057	4854
849.192	4938
849.328	4820
849.463	4828
849.598	4782
849.734	4782
849.869	4694
850.004	4630
850.14	4664
850.275	4611
850.41	4535
850.545	4497
850.68	4615
850.815	4630
850.95	4592
851.085	4847
851.22	4733
851.355	4645
851.49	4637
851.625	4649
851.76	4641
851.895	4577
852.03	4535
852.165	4618
852.299	4744
852.434	4793
852.569	4710
852.703	4797
852.838	4854
852.973	4934
853.107	4942
853.242	4744
853.376	4672
853.511	4561
853.645	4656
853.78	4812
853.914	4702
854.048	4649
854.183	4672
854.317	4687
854.451	4866
854.585	4664
854.72	4637
854.854	4729
854.988	4599
855.122	4607
855.256	4565
855.39	4660
855.524	4740
855.658	4698
855.792	4679
855.926	4714
856.06	4733
856.194	4778
856.327	4679
856.461	4626
856.595	4630
856.729	4592
856.862	4752
856.996	4698
857.13	4717
857.263	4767
857.397	4805
857.53	4634
857.664	4729
857.797	4801
857.931	4793
858.064	4656
858.197	4729
858.331	4691
858.464	4607
858.597	4516
858.731	4622
858.864	4683
858.997	4561
859.13	4630
859.263	4675
859.396	4656
859.529	4577
859.662	4592
859.795	4527
859.928	4634
860.061	4748
860.194	4786
860.327	4592
860.46	4577
860.592	4706
860.725	4702
860.858	4748
860.99	4588
861.123	4504
861.256	4504
861.388	4622
861.521	5303
861.653	4500
861.786	4470
861.918	4489
862.05	4546
862.183	4538
862.315	4607
862.447	4615
862.58	4561
862.712	4436
862.844	4348
862.976	4481
863.108	4421
863.24	4759
863.372	4333
863.504	4402
863.636	4394
863.768	4489
863.9	4424
864.032	4390
864.164	4409
864.296	4474
864.428	4584
864.559	4599
864.691	4569
864.823	4519
864.954	4535
865.086	4497
865.217	4481
865.349	4405
865.48	4478
865.612	4474
865.743	4630
865.875	4508
866.006	4405
866.137	4485
866.269	4424
866.4	4447
866.531	4436
866.662	4398
866.793	4413
866.924	4451
867.055	4497
867.186	4497
867.317	4417
867.448	4379
867.579	4390
867.71	4367
867.841	4363
867.972	4504
868.103	4432
868.233	4440
868.364	4481
868.495	4485
868.625	4637
868.756	4774
868.886	4611
869.017	4615
869.147	4774
869.278	4774
869.408	4637
869.539	4660
869.669	4729
869.799	4615
869.929	4710
870.06	4702
870.19	4900
870.32	4949
870.45	4911
870.58	5003
870.71	5060
870.84	5098
870.97	4965
871.1	4915
871.23	5064
871.36	5121
871.489	5060
871.619	5098
871.749	5098
871.879	5128
872.008	5147
872.138	5060
872.267	4961
872.397	4839
872.526	4793
872.656	4744
872.785	4805
872.915	4980
873.044	4999
873.173	4900
873.303	4911
873.432	4923
873.561	4949
873.69	4892
873.819	4877
873.948	4923
874.077	4809
874.206	4748
874.335	4797
874.464	4923
874.593	5064
874.722	4930
874.851	5056
874.979	5014
875.108	5041
875.237	4980
875.365	4896
875.494	4870
875.623	4991
875.751	4866
875.88	4889
876.008	5006
876.136	5041
876.265	5242
876.393	5296
876.521	5242
876.65	5254
876.778	5140
876.906	5067
877.034	5071
877.162	5033
877.29	5003
877.418	5075
877.546	5045
877.674	5060
877.802	5048
877.93	4987
878.058	4953
878.185	4896
878.313	4953
878.441	4919
878.568	4831
878.696	4847
878.824	4953
878.951	4991
879.079	5140
879.206	5254
879.333	5136
879.461	4980
879.588	4984
879.715	5151
879.842	5220
879.97	5052
880.097	4778
880.224	4786
880.351	4820
880.478	4835
880.605	4774
880.732	4824
880.859	5060
880.986	4896
881.112	4908
881.239	4786
881.366	4725
881.493	4607
881.619	4592
881.746	4637
881.872	4660
881.999	4687
882.125	4740
882.252	4782
882.378	4835
882.505	4968
882.631	4820
882.757	4717
882.883	4710
883.01	4729
883.136	4710
883.262	4569
883.388	4615
883.514	4809
883.64	4873
883.766	4839
883.892	4706
884.018	4729
884.143	4915
884.269	5033
884.395	4698
884.52	4649
884.646	4607
884.772	4580
884.897	4519
885.023	4672
885.148	4812
885.274	4900
885.399	4816
885.524	4725
885.65	4740
885.775	4755
885.9	4744
886.025	4812
886.15	4774
886.275	4736
886.4	4630
886.525	4717
886.65	4748
886.775	4653
886.9	4942
887.025	5010
887.149	4786
887.274	4687
887.399	4626
887.523	4592
887.648	4618
887.773	4584
887.897	4771
888.021	4744
888.146	4664
888.27	4839
888.395	4946
888.519	4820
888.643	4816
888.767	4801
888.891	4626
889.015	4611
889.139	4702
889.263	4592
889.387	4748
889.511	4854
889.635	4843
889.759	4656
889.883	4615
890.006	4706
890.13	4843
890.254	4626
890.377	4675
890.501	4550
890.624	4504
890.748	4630
890.871	4466
890.995	4428
891.118	4405
891.241	4500
891.364	4542
891.488	4694
891.611	4519
891.734	4516
891.857	4592
891.98	4588
892.103	4618
892.226	4573
892.349	4516
892.471	4386
892.594	4584
892.717	4611
892.839	4577
892.962	4607
893.085	4637
893.207	4630
893.33	4443
893.452	4512
893.575	4729
893.697	4550
893.819	4790
893.941	4847
894.064	4805
894.186	4558
894.308	4580
894.43	4771
894.552	4790
894.674	4763
894.796	4538
894.918	4622
895.04	4599
895.161	4675
895.283	4687
895.405	4641
895.526	4668
895.648	4717
895.769	4679
895.891	4691
896.012	4755
896.134	4729
896.255	4664
896.376	4603
896.498	4599
896.619	4694
896.74	4569
896.861	4645
896.982	4927
897.103	5124
897.224	4843
897.345	4721
897.466	4683
897.587	4740
897.708	4908
897.828	4793
897.949	4615
898.07	4565
898.19	4672
898.311	4843
898.431	4710
898.552	4763
898.672	4824
898.792	4771
898.913	4691
899.033	4645
899.153	4474
899.273	4417
899.393	4519
899.513	4519
899.633	4527
899.753	4550
899.873	4519
899.993	4588
900.113	4561
900.232	4588
900.352	4538
900.472	4497
900.591	4424
900.711	4485
900.83	4455
900.95	4611
901.069	4656
901.189	4588
901.308	4333
901.427	4310
901.546	4375
901.665	4500
901.784	4493
901.904	4360
902.023	4348
902.141	4166
902.26	4162
902.379	4280
902.498	4211
902.617	4272
902.735	4398
902.854	4356
902.973	4356
903.091	4166
903.21	4192
903.328	4291
903.446	4268
903.565	4272
903.683	4367
903.801	4352
903.919	4409
904.038	4409
904.156	4367
904.274	4443
904.392	4398
904.51	4428
904.627	4455
904.745	4546
904.863	4630
904.981	4383
905.098	4306
905.216	4375
905.334	4417
905.451	4451
905.569	4428
905.686	4565
905.803	4573
905.921	4424
906.038	4554
906.155	4500
906.272	4360
906.389	4447
906.506	4356
906.623	4386
906.74	4352
906.857	4291
906.974	4390
907.091	4573
907.208	4656
907.324	4561
907.441	4531
907.557	4405
907.674	4325
907.79	4276
907.907	4390
908.023	4474
908.139	4443
908.256	4402
908.372	4436
908.488	4440
908.604	4325
908.72	4268
908.836	4352
908.952	4379
909.068	4424
909.184	4573
909.3	4489
909.415	4569
909.531	4565
909.647	4337
909.762	4402
909.878	4367
909.993	4466
910.108	4440
910.224	4413
910.339	4485
910.454	4367
910.57	4363
910.685	4295
910.8	4721
910.915	4618
911.03	4474
911.145	4344
911.259	4348
911.374	4409
911.489	4291
911.604	4284
911.718	4166
911.833	4181
911.947	4109
912.062	4032
912.176	4219
912.291	4268
912.405	4268
912.519	4478
912.633	4542
912.748	4363
912.862	4303
912.976	4196
913.09	4147
913.204	4162
913.318	4287
913.431	4413
913.545	4424
913.659	4459
913.772	4337
913.886	4314
914	4257
914.113	4379
914.226	4466
914.34	4394
914.453	4234
914.566	4455
914.68	4306
914.793	4287
914.906	4139
915.019	4109
915.132	4101
915.245	4215
915.358	4230
915.47	4234
915.583	4284
915.696	4322
915.809	4424
915.921	4451
916.034	4192
916.146	4265
916.259	4211
916.371	4375
916.483	4360
916.595	4310
916.708	4325
916.82	4325
916.932	4303
917.044	4322
917.156	4318
917.268	4257
917.38	4291
917.491	4310
917.603	4363
917.715	4398
917.826	4466
917.938	4363
918.049	4223
918.161	4379
918.272	4554
918.384	4546
918.495	4436
918.606	4314
918.717	4246
918.828	4310
918.939	4379
919.05	4310
919.161	4322
919.272	4124
919.383	4230
919.494	4440
919.604	4660
919.715	4432
919.826	4344
919.936	4409
920.047	4561
920.157	4489
920.267	4706
920.378	4478
920.488	4508
920.598	4733
920.708	4870
920.818	4725
920.928	4771
921.038	4942
921.148	4896
921.258	4592
921.368	4546
921.477	4485
921.587	4493
921.697	4424
921.806	4577
921.916	4432
922.025	4265
922.134	4322
922.244	4219
922.353	4367
922.462	4154
922.571	4147
922.68	3998
922.789	4017
922.898	4051
923.007	3964
923.116	4059
923.224	4074
923.333	4112
923.442	3975
923.55	4006
923.659	4010
923.767	4105
923.876	4051
923.984	4120
924.092	3975
924.201	4051
924.309	4093
924.417	4120
924.525	4086
924.633	4090
924.741	4881
924.849	3930
924.956	4120
925.064	3960
925.172	3896
925.279	3964
925.387	4048
925.494	4059
925.602	4204
925.709	4230
925.816	4017
925.924	4192
926.031	4215
926.138	4166
926.245	4200
926.352	4071
926.459	4211
926.566	4272
926.673	4162
926.779	4154
926.886	4040
926.993	3964
927.099	3949
927.206	3953
927.312	3964
927.419	4071
927.525	4086
927.631	4090
927.737	3949
927.843	3983
927.95	3835
928.056	3956
928.162	3941
928.267	4051
928.373	4622
928.479	4124
928.585	3884
928.69	4032
928.796	4055
928.901	3968
929.007	3850
929.112	3998
929.218	4010
929.323	3934
929.428	3941
929.533	4154
929.638	3941
929.743	3949
929.848	4097
929.953	3979
930.058	3937
930.163	3808
930.267	3846
930.372	4006
930.477	3842
930.581	4124
930.685	3941
930.79	3797
930.894	3865
930.998	3888
931.103	4078
931.207	3740
931.311	3709
931.415	3667
931.519	3504
931.623	3534
