Data from test_V78500241_190.txt Node
Date: Fri Mar 25 16:50:19 CST 2022
User: usil
Spectrometer: V785-0024
Trigger mode: 0
Integration Time (sec): 4.000000E-1
Scans to average: 1
Nonlinearity correction enabled: false
Boxcar width: 0
Storing dark spectrum: false
XAxis mode: Wavelengths
Number of Pixels in Spectrum: 1024
>>>>>Begin Spectral Data<<<<<
801.071	7993
801.214	8058
801.356	7837
801.499	7913
801.641	7845
801.783	7822
801.926	8054
802.068	7928
802.211	8012
802.353	8073
802.496	7890
802.638	7875
802.78	7940
802.923	7993
803.065	7807
803.208	7887
803.35	7970
803.492	8081
803.635	8168
803.777	7944
803.919	8073
804.061	8473
804.204	8119
804.346	7978
804.488	7982
804.63	7993
804.773	7913
804.915	8043
805.057	8233
805.199	8081
805.341	8187
805.483	8244
805.626	8199
805.768	8039
805.91	8157
806.052	8221
806.194	8092
806.336	8279
806.478	8092
806.62	8050
806.762	8256
806.904	8187
807.046	8377
807.188	8317
807.33	8294
807.472	8320
807.614	8138
807.756	8115
807.898	8012
808.04	7921
808.182	7894
808.324	7887
808.465	7967
808.607	8035
808.749	8035
808.891	8180
809.033	8298
809.174	8218
809.316	8092
809.458	8084
809.6	8008
809.741	7982
809.883	8012
810.025	8096
810.166	8107
810.308	8031
810.45	8008
810.591	7898
810.733	7734
810.875	7670
811.016	7590
811.158	7487
811.299	7597
811.441	7795
811.582	7689
811.724	7578
811.865	7616
812.007	7681
812.148	7632
812.29	7685
812.431	7769
812.573	7902
812.714	8027
812.855	8111
812.997	8229
813.138	8320
813.279	8172
813.421	8149
813.562	8027
813.703	7909
813.845	7761
813.986	7453
814.127	7301
814.268	7247
814.41	7183
814.551	7175
814.692	7236
814.833	7110
814.974	7122
815.115	7118
815.256	6977
815.397	6973
815.539	6947
815.68	6863
815.821	6791
815.962	6837
816.103	6863
816.244	6734
816.385	6646
816.526	6635
816.666	6532
816.807	6388
816.948	6467
817.089	6471
817.23	6372
817.371	6441
817.512	6391
817.653	6399
817.793	6334
817.934	6418
818.075	6479
818.216	6429
818.356	6350
818.497	6315
818.638	6072
818.778	6098
818.919	6140
819.06	6072
819.2	6304
819.341	6338
819.481	6380
819.622	6559
819.762	6719
819.903	6677
820.043	6593
820.184	6551
820.324	6551
820.465	6677
820.605	6715
820.746	6650
820.886	6544
821.026	6665
821.167	6684
821.307	6764
821.447	6806
821.588	6658
821.728	6574
821.868	6486
822.008	6350
822.149	6350
822.289	6365
822.429	6163
822.569	6121
822.709	6129
822.849	5927
822.99	5916
823.13	5931
823.27	5866
823.41	5824
823.55	5798
823.69	5771
823.83	5783
823.97	5638
824.11	5539
824.25	5554
824.389	5592
824.529	5596
824.669	5570
824.809	5623
824.949	5665
825.089	5596
825.228	5566
825.368	5421
825.508	5345
825.648	5395
825.787	5398
825.927	5387
826.067	5379
826.206	5383
826.346	5417
826.485	5395
826.625	5459
826.765	5585
826.904	5497
827.044	5299
827.183	5242
827.323	5193
827.462	5254
827.601	5208
827.741	5239
827.88	5254
828.02	5147
828.159	5315
828.298	5345
828.437	5402
828.577	5311
828.716	5501
828.855	5414
828.994	5208
829.134	5242
829.273	5288
829.412	5254
829.551	5113
829.69	5242
829.829	5269
829.968	5444
830.107	5315
830.246	5303
830.385	5208
830.524	5220
830.663	5140
830.802	5052
830.941	4938
831.08	4938
831.219	5045
831.357	4972
831.496	5223
831.635	4930
831.774	4915
831.913	4885
832.051	4782
832.19	4755
832.329	4835
832.467	4752
832.606	4664
832.744	4790
832.883	4782
833.022	4774
833.16	4900
833.299	4854
833.437	4862
833.576	4870
833.714	4885
833.852	4923
833.991	4946
834.129	5014
834.267	4965
834.406	4991
834.544	5041
834.682	5064
834.821	4968
834.959	5242
835.097	4991
835.235	5189
835.373	5086
835.511	5159
835.65	5067
835.788	5098
835.926	4938
836.064	4942
836.202	5045
836.34	5227
836.478	5299
836.615	5140
836.753	5242
836.891	5345
837.029	5307
837.167	5231
837.305	5212
837.443	5170
837.58	5132
837.718	5315
837.856	5242
837.993	5235
838.131	5311
838.269	5269
838.406	5280
838.544	5242
838.681	5067
838.819	5025
838.956	4961
839.094	4938
839.231	4987
839.369	5124
839.506	5440
839.643	5273
839.781	5121
839.918	5094
840.055	5098
840.193	5178
840.33	5178
840.467	5178
840.604	5258
840.742	5452
840.879	5117
841.016	5124
841.153	5227
841.29	5376
841.427	5391
841.564	5368
841.701	5429
841.838	5353
841.975	5330
842.112	5311
842.249	5132
842.385	5105
842.522	5357
842.659	5193
842.796	5185
842.933	5208
843.069	5208
843.206	5189
843.343	5337
843.479	5303
843.616	5280
843.752	5041
843.889	5090
844.025	5250
844.162	5090
844.298	5269
844.435	5098
844.571	5132
844.708	5258
844.844	5372
844.98	5379
845.117	5296
845.253	5216
845.389	5124
845.525	5208
845.661	5178
845.798	5094
845.934	5212
846.07	5117
846.206	5239
846.342	5307
846.478	5212
846.614	5037
846.75	5033
846.886	4984
847.022	5181
847.158	5075
847.294	5132
847.429	5140
847.565	5117
847.701	5337
847.837	4881
847.972	4847
848.108	5003
848.244	4965
848.379	4805
848.515	4782
848.65	4782
848.786	4797
848.921	4847
849.057	4927
849.192	4961
849.328	4866
849.463	4923
849.598	4866
849.734	4767
849.869	4763
850.004	4691
850.14	4759
850.275	4622
850.41	4561
850.545	4599
850.68	4618
850.815	4660
850.95	4656
851.085	4873
851.22	4809
851.355	4698
851.49	4721
851.625	4656
851.76	4706
851.895	4622
852.03	4565
852.165	4698
852.299	4774
852.434	4809
852.569	4812
852.703	4831
852.838	4889
852.973	5010
853.107	4991
853.242	4767
853.376	4702
853.511	4580
853.645	4653
853.78	4835
853.914	4740
854.048	4729
854.183	4687
854.317	4714
854.451	4900
854.585	4721
854.72	4679
854.854	4816
854.988	4615
855.122	4660
855.256	4588
855.39	4721
855.524	4847
855.658	4717
855.792	4767
855.926	4797
856.06	4782
856.194	4843
856.327	4748
856.461	4656
856.595	4649
856.729	4656
856.862	4790
856.996	4729
857.13	4778
857.263	4782
857.397	4828
857.53	4717
857.664	4767
857.797	4816
857.931	4847
858.064	4729
858.197	4801
858.331	4698
858.464	4664
858.597	4542
858.731	4653
858.864	4706
858.997	4634
859.13	4702
859.263	4694
859.396	4717
859.529	4630
859.662	4622
859.795	4542
859.928	4698
860.061	4782
860.194	4854
860.327	4630
860.46	4599
860.592	4729
860.725	4752
860.858	4771
860.99	4603
861.123	4538
861.256	4546
861.388	4653
861.521	5410
861.653	4573
861.786	4516
861.918	4489
862.05	4489
862.183	4626
862.315	4656
862.447	4725
862.58	4569
862.712	4443
862.844	4386
862.976	4542
863.108	4478
863.24	4889
863.372	4371
863.504	4447
863.636	4421
863.768	4550
863.9	4466
864.032	4386
864.164	4394
864.296	4485
864.428	4527
864.559	4603
864.691	4558
864.823	4565
864.954	4546
865.086	4569
865.217	4455
865.349	4474
865.48	4504
865.612	4512
865.743	4694
865.875	4497
866.006	4443
866.137	4489
866.269	4493
866.4	4504
866.531	4459
866.662	4428
866.793	4443
866.924	4428
867.055	4542
867.186	4497
867.317	4466
867.448	4390
867.579	4478
867.71	4436
867.841	4398
867.972	4459
868.103	4455
868.233	4512
868.364	4485
868.495	4531
868.625	4683
868.756	4782
868.886	4561
869.017	4698
869.147	4820
869.278	4797
869.408	4691
869.539	4694
869.669	4744
869.799	4736
869.929	4790
870.06	4782
870.19	5003
870.32	4968
870.45	5048
870.58	5060
870.71	5155
870.84	5132
870.97	4999
871.1	4972
871.23	5178
871.36	5155
871.489	5025
871.619	5071
871.749	5102
871.879	5143
872.008	5216
872.138	5166
872.267	5029
872.397	4889
872.526	4862
872.656	4752
872.785	4892
872.915	4968
873.044	5048
873.173	4984
873.303	4995
873.432	5003
873.561	4995
873.69	4930
873.819	4942
873.948	4953
874.077	4847
874.206	4790
874.335	4839
874.464	4968
874.593	5121
874.722	4987
874.851	5155
874.979	5052
875.108	5037
875.237	4930
875.365	4911
875.494	4946
875.623	4984
875.751	4828
875.88	4957
876.008	4999
876.136	5086
876.265	5231
876.393	5353
876.521	5265
876.65	5265
876.778	5166
876.906	5113
877.034	5056
877.162	5083
877.29	5010
877.418	5079
877.546	5025
877.674	5022
877.802	5079
877.93	5124
878.058	5003
878.185	4900
878.313	4968
878.441	4919
878.568	4828
878.696	4911
878.824	4980
878.951	5029
879.079	5178
879.206	5254
879.333	5117
879.461	5022
879.588	5022
879.715	5174
879.842	5269
879.97	5041
880.097	4797
880.224	4824
880.351	4892
880.478	4831
880.605	4854
880.732	4797
880.859	5086
880.986	4919
881.112	4915
881.239	4809
881.366	4679
881.493	4607
881.619	4615
881.746	4725
881.872	4714
881.999	4687
882.125	4706
882.252	4793
882.378	4862
882.505	5003
882.631	4812
882.757	4694
882.883	4801
883.01	4771
883.136	4698
883.262	4603
883.388	4630
883.514	4812
883.64	4896
883.766	4816
883.892	4714
884.018	4759
884.143	4858
884.269	4999
884.395	4736
884.52	4683
884.646	4691
884.772	4596
884.897	4565
885.023	4660
885.148	4816
885.274	4915
885.399	4850
885.524	4725
885.65	4721
885.775	4809
885.9	4721
886.025	4908
886.15	4820
886.275	4736
886.4	4706
886.525	4763
886.65	4729
886.775	4759
886.9	4892
887.025	5113
887.149	4858
887.274	4725
887.399	4592
887.523	4618
887.648	4569
887.773	4554
887.897	4847
888.021	4839
888.146	4706
888.27	4820
888.395	4946
888.519	4839
888.643	4850
888.767	4812
888.891	4736
889.015	4615
889.139	4672
889.263	4668
889.387	4755
889.511	4911
889.635	4820
889.759	4660
889.883	4725
890.006	4767
890.13	4850
890.254	4668
890.377	4744
890.501	4569
890.624	4523
890.748	4668
890.871	4546
890.995	4481
891.118	4455
891.241	4580
891.364	4577
891.488	4634
891.611	4516
891.734	4573
891.857	4630
891.98	4561
892.103	4694
892.226	4630
892.349	4535
892.471	4440
892.594	4599
892.717	4554
892.839	4630
892.962	4630
893.085	4691
893.207	4618
893.33	4462
893.452	4588
893.575	4679
893.697	4611
893.819	4847
893.941	4870
894.064	4797
894.186	4588
894.308	4611
894.43	4790
894.552	4862
894.674	4828
894.796	4603
894.918	4607
895.04	4569
895.161	4767
895.283	4714
895.405	4599
895.526	4706
895.648	4717
895.769	4660
895.891	4778
896.012	4733
896.134	4721
896.255	4656
896.376	4664
896.498	4664
896.619	4702
896.74	4672
896.861	4675
896.982	4961
897.103	5105
897.224	4870
897.345	4778
897.466	4698
897.587	4763
897.708	4881
897.828	4805
897.949	4645
898.07	4634
898.19	4675
898.311	4839
898.431	4729
898.552	4767
898.672	4835
898.792	4850
898.913	4778
899.033	4672
899.153	4573
899.273	4474
899.393	4459
899.513	4531
899.633	4542
899.753	4592
899.873	4531
899.993	4637
900.113	4542
900.232	4580
900.352	4565
900.472	4538
900.591	4394
900.711	4512
900.83	4447
900.95	4672
901.069	4694
901.189	4577
901.308	4394
901.427	4337
901.546	4379
901.665	4523
901.784	4569
901.904	4398
902.023	4371
902.141	4207
902.26	4188
902.379	4352
902.498	4276
902.617	4234
902.735	4363
902.854	4459
902.973	4348
903.091	4242
903.21	4291
903.328	4322
903.446	4280
903.565	4322
903.683	4352
903.801	4303
903.919	4413
904.038	4459
904.156	4333
904.274	4474
904.392	4447
904.51	4451
904.627	4459
904.745	4622
904.863	4679
904.981	4417
905.098	4329
905.216	4405
905.334	4405
905.451	4474
905.569	4428
905.686	4592
905.803	4626
905.921	4470
906.038	4523
906.155	4512
906.272	4417
906.389	4459
906.506	4413
906.623	4360
906.74	4413
906.857	4356
906.974	4402
907.091	4611
907.208	4694
907.324	4660
907.441	4508
907.557	4333
907.674	4386
907.79	4386
907.907	4398
908.023	4523
908.139	4481
908.256	4485
908.372	4447
908.488	4466
908.604	4375
908.72	4291
908.836	4413
908.952	4394
909.068	4531
909.184	4637
909.3	4485
909.415	4630
909.531	4531
909.647	4367
909.762	4394
909.878	4360
909.993	4459
910.108	4443
910.224	4447
910.339	4489
910.454	4440
910.57	4417
910.685	4329
910.8	4679
910.915	4618
911.03	4519
911.145	4371
911.259	4379
911.374	4375
911.489	4322
911.604	4295
911.718	4173
911.833	4234
911.947	4093
912.062	4051
912.176	4249
912.291	4268
912.405	4242
912.519	4546
912.633	4489
912.748	4371
912.862	4337
912.976	4253
913.09	4063
913.204	4204
913.318	4268
913.431	4402
913.545	4413
913.659	4428
913.772	4405
913.886	4242
914	4284
914.113	4383
914.226	4519
914.34	4428
914.453	4246
914.566	4428
914.68	4337
914.793	4386
914.906	4169
915.019	4173
915.132	4101
915.245	4249
915.358	4227
915.47	4249
915.583	4291
915.696	4348
915.809	4379
915.921	4428
916.034	4306
916.146	4280
916.259	4265
916.371	4371
916.483	4363
916.595	4280
916.708	4383
916.82	4318
916.932	4367
917.044	4329
917.156	4333
917.268	4219
917.38	4306
917.491	4333
917.603	4379
917.715	4459
917.826	4421
917.938	4371
918.049	4265
918.161	4383
918.272	4580
918.384	4561
918.495	4512
918.606	4325
918.717	4265
918.828	4371
918.939	4390
919.05	4306
919.161	4303
919.272	4143
919.383	4261
919.494	4432
919.604	4618
919.715	4447
919.826	4405
919.936	4390
920.047	4546
920.157	4519
920.267	4740
920.378	4531
920.488	4519
920.598	4744
920.708	4904
920.818	4782
920.928	4729
921.038	4957
921.148	4965
921.258	4675
921.368	4588
921.477	4516
921.587	4451
921.697	4413
921.806	4622
921.916	4470
922.025	4284
922.134	4265
922.244	4207
922.353	4306
922.462	4227
922.571	4173
922.68	3972
922.789	4013
922.898	4029
923.007	4002
923.116	4093
923.224	4071
923.333	4105
923.442	4017
923.55	3979
923.659	4051
923.767	4131
923.876	4048
923.984	4097
924.092	4006
924.201	4071
924.309	4124
924.417	4135
924.525	4086
924.633	4120
924.741	4873
924.849	3926
924.956	4112
925.064	4002
925.172	3911
925.279	3983
925.387	4055
925.494	4059
925.602	4207
925.709	4230
925.816	4071
925.924	4128
926.031	4257
926.138	4181
926.245	4207
926.352	4101
926.459	4261
926.566	4318
926.673	4150
926.779	4097
926.886	4154
926.993	3983
927.099	4021
927.206	3960
927.312	3926
927.419	4101
927.525	4010
927.631	4124
927.737	3960
927.843	4017
927.95	3865
928.056	3964
928.162	4013
928.267	4059
928.373	4672
928.479	4135
928.585	3934
928.69	3998
928.796	4101
928.901	3987
929.007	3869
929.112	3991
929.218	3956
929.323	4017
929.428	3949
929.533	4120
929.638	3987
929.743	4013
929.848	4067
929.953	4010
930.058	3907
930.163	3755
930.267	3797
930.372	3937
930.477	3873
930.581	4090
930.685	3987
930.79	3838
930.894	3915
930.998	3876
931.103	4006
931.207	3713
931.311	3698
931.415	3648
931.519	3538
931.623	3576
