Data from test_V78500241_909.txt Node
Date: Fri Mar 25 16:55:19 CST 2022
User: usil
Spectrometer: V785-0024
Trigger mode: 0
Integration Time (sec): 4.000000E-1
Scans to average: 1
Nonlinearity correction enabled: false
Boxcar width: 0
Storing dark spectrum: false
XAxis mode: Wavelengths
Number of Pixels in Spectrum: 1024
>>>>>Begin Spectral Data<<<<<
801.071	8073
801.214	8020
801.356	7890
801.499	7936
801.641	7864
801.783	7814
801.926	7974
802.068	7936
802.211	8012
802.353	7955
802.496	7837
802.638	7940
802.78	7875
802.923	7993
803.065	7917
803.208	7940
803.35	8062
803.492	8134
803.635	8176
803.777	8103
803.919	8119
804.061	8412
804.204	8123
804.346	8046
804.488	7970
804.63	8107
804.773	8016
804.915	8084
805.057	8317
805.199	8164
805.341	8187
805.483	8313
805.626	8191
805.768	8050
805.91	8259
806.052	8210
806.194	8123
806.336	8305
806.478	8092
806.62	8092
806.762	8130
806.904	8237
807.046	8503
807.188	8374
807.33	8286
807.472	8313
807.614	8157
807.756	8149
807.898	7997
808.04	7902
808.182	7902
808.324	7879
808.465	7993
808.607	8024
808.749	8088
808.891	8229
809.033	8362
809.174	8225
809.316	8123
809.458	7982
809.6	8050
809.741	8027
809.883	8035
810.025	8069
810.166	8134
810.308	7959
810.45	7993
810.591	7932
810.733	7757
810.875	7704
811.016	7537
811.158	7525
811.299	7632
811.441	7807
811.582	7620
811.724	7639
811.865	7529
812.007	7586
812.148	7639
812.29	7666
812.431	7761
812.573	7875
812.714	7951
812.855	8092
812.997	8210
813.138	8317
813.279	8180
813.421	8119
813.562	8031
813.703	7890
813.845	7742
813.986	7480
814.127	7247
814.268	7270
814.41	7198
814.551	7107
814.692	7152
814.833	7069
814.974	7084
815.115	7107
815.256	6989
815.397	6943
815.539	7023
815.68	6840
815.821	6768
815.962	6844
816.103	6753
816.244	6772
816.385	6601
816.526	6563
816.666	6506
816.807	6289
816.948	6384
817.089	6479
817.23	6441
817.371	6353
817.512	6380
817.653	6380
817.793	6369
817.934	6448
818.075	6502
818.216	6388
818.356	6395
818.497	6243
818.638	6095
818.778	6213
818.919	6163
819.06	6129
819.2	6270
819.341	6289
819.481	6357
819.622	6479
819.762	6703
819.903	6749
820.043	6650
820.184	6578
820.324	6608
820.465	6662
820.605	6681
820.746	6650
820.886	6540
821.026	6627
821.167	6684
821.307	6810
821.447	6753
821.588	6684
821.728	6559
821.868	6479
822.008	6361
822.149	6365
822.289	6285
822.429	6091
822.569	6091
822.709	6148
822.849	5908
822.99	5904
823.13	5942
823.27	5904
823.41	5729
823.55	5783
823.69	5767
823.83	5786
823.97	5688
824.11	5539
824.25	5543
824.389	5539
824.529	5581
824.669	5509
824.809	5619
824.949	5642
825.089	5570
825.228	5539
825.368	5357
825.508	5307
825.648	5280
825.787	5372
825.927	5376
826.067	5334
826.206	5322
826.346	5376
826.485	5383
826.625	5410
826.765	5505
826.904	5467
827.044	5242
827.183	5162
827.323	5162
827.462	5185
827.601	5147
827.741	5193
827.88	5223
828.02	5128
828.159	5212
828.298	5239
828.437	5395
828.577	5288
828.716	5509
828.855	5303
828.994	5178
829.134	5170
829.273	5216
829.412	5128
829.551	5090
829.69	5189
829.829	5273
829.968	5318
830.107	5277
830.246	5277
830.385	5155
830.524	5174
830.663	5045
830.802	4961
830.941	4877
831.08	4850
831.219	4987
831.357	5029
831.496	5140
831.635	4942
831.774	4835
831.913	4866
832.051	4687
832.19	4748
832.329	4847
832.467	4683
832.606	4637
832.744	4698
832.883	4698
833.022	4752
833.16	4820
833.299	4816
833.437	4824
833.576	4820
833.714	4828
833.852	4911
833.991	4873
834.129	4938
834.267	4930
834.406	4873
834.544	4938
834.682	4949
834.821	4965
834.959	5136
835.097	4957
835.235	5132
835.373	5060
835.511	5117
835.65	5045
835.788	4991
835.926	4900
836.064	4889
836.202	4930
836.34	5220
836.478	5258
836.615	5147
836.753	5265
836.891	5296
837.029	5231
837.167	5227
837.305	5162
837.443	5132
837.58	5086
837.718	5231
837.856	5208
837.993	5121
838.131	5250
838.269	5143
838.406	5227
838.544	5166
838.681	5086
838.819	5003
838.956	4896
839.094	4847
839.231	4984
839.369	5109
839.506	5387
839.643	5265
839.781	5048
839.918	5033
840.055	5147
840.193	5098
840.33	5117
840.467	5140
840.604	5212
840.742	5391
840.879	5052
841.016	5113
841.153	5181
841.29	5387
841.427	5299
841.564	5273
841.701	5402
841.838	5239
841.975	5239
842.112	5189
842.249	5124
842.385	5071
842.522	5349
842.659	5136
842.796	5159
842.933	5181
843.069	5147
843.206	5170
843.343	5265
843.479	5258
843.616	5277
843.752	5045
843.889	5041
844.025	5159
844.162	4961
844.298	5204
844.435	5113
844.571	5045
844.708	5174
844.844	5269
844.98	5360
845.117	5322
845.253	5083
845.389	5075
845.525	5136
845.661	5151
845.798	5022
845.934	5162
846.07	5056
846.206	5185
846.342	5318
846.478	5170
846.614	5045
846.75	4957
846.886	4919
847.022	5124
847.158	5006
847.294	5056
847.429	5109
847.565	5029
847.701	5299
847.837	4873
847.972	4797
848.108	4961
848.244	4908
848.379	4786
848.515	4721
848.65	4710
848.786	4721
848.921	4759
849.057	4828
849.192	4896
849.328	4812
849.463	4877
849.598	4763
849.734	4744
849.869	4672
850.004	4630
850.14	4656
850.275	4580
850.41	4527
850.545	4542
850.68	4630
850.815	4641
850.95	4645
851.085	4786
851.22	4714
851.355	4656
851.49	4580
851.625	4599
851.76	4550
851.895	4546
852.03	4519
852.165	4626
852.299	4714
852.434	4748
852.569	4736
852.703	4771
852.838	4824
852.973	4915
853.107	4908
853.242	4710
853.376	4630
853.511	4603
853.645	4592
853.78	4828
853.914	4687
854.048	4672
854.183	4630
854.317	4721
854.451	4809
854.585	4672
854.72	4607
854.854	4767
854.988	4577
855.122	4599
855.256	4500
855.39	4664
855.524	4740
855.658	4714
855.792	4599
855.926	4714
856.06	4748
856.194	4744
856.327	4637
856.461	4569
856.595	4656
856.729	4634
856.862	4736
856.996	4634
857.13	4668
857.263	4748
857.397	4767
857.53	4679
857.664	4660
857.797	4714
857.931	4752
858.064	4694
858.197	4767
858.331	4645
858.464	4607
858.597	4481
858.731	4592
858.864	4626
858.997	4634
859.13	4603
859.263	4706
859.396	4691
859.529	4527
859.662	4542
859.795	4569
859.928	4527
860.061	4755
860.194	4740
860.327	4580
860.46	4603
860.592	4740
860.725	4710
860.858	4721
860.99	4588
861.123	4531
861.256	4569
861.388	4630
861.521	5227
861.653	4459
861.786	4379
861.918	4447
862.05	4485
862.183	4542
862.315	4550
862.447	4634
862.58	4519
862.712	4379
862.844	4352
862.976	4459
863.108	4455
863.24	4744
863.372	4329
863.504	4394
863.636	4428
863.768	4462
863.9	4417
864.032	4329
864.164	4405
864.296	4447
864.428	4497
864.559	4561
864.691	4527
864.823	4508
864.954	4497
865.086	4519
865.217	4485
865.349	4417
865.48	4481
865.612	4478
865.743	4626
865.875	4470
866.006	4447
866.137	4432
866.269	4459
866.4	4459
866.531	4413
866.662	4383
866.793	4383
866.924	4459
867.055	4478
867.186	4485
867.317	4409
867.448	4352
867.579	4363
867.71	4421
867.841	4303
867.972	4432
868.103	4421
868.233	4417
868.364	4459
868.495	4474
868.625	4691
868.756	4729
868.886	4519
869.017	4565
869.147	4755
869.278	4759
869.408	4653
869.539	4675
869.669	4675
869.799	4653
869.929	4744
870.06	4691
870.19	4938
870.32	4847
870.45	4915
870.58	5010
870.71	5067
870.84	5075
870.97	4934
871.1	4858
871.23	5147
871.36	5136
871.489	5029
871.619	5052
871.749	5041
871.879	5075
872.008	5147
872.138	5094
872.267	5018
872.397	4805
872.526	4805
872.656	4725
872.785	4786
872.915	4942
873.044	5022
873.173	4961
873.303	4957
873.432	4900
873.561	4953
873.69	4889
873.819	4908
873.948	4896
874.077	4809
874.206	4679
874.335	4812
874.464	4881
874.593	5033
874.722	4949
874.851	5048
874.979	5086
875.108	5060
875.237	4949
875.365	4858
875.494	4908
875.623	4961
875.751	4843
875.88	4858
876.008	4953
876.136	5037
876.265	5174
876.393	5353
876.521	5246
876.65	5212
876.778	5155
876.906	5052
877.034	5003
877.162	5025
877.29	4980
877.418	5067
877.546	5060
877.674	4987
877.802	5022
877.93	4995
878.058	4908
878.185	4904
878.313	4987
878.441	4911
878.568	4797
878.696	4831
878.824	4987
878.951	4980
879.079	5098
879.206	5303
879.333	5124
879.461	4930
879.588	5018
879.715	5083
879.842	5204
879.97	5018
880.097	4816
880.224	4755
880.351	4790
880.478	4847
880.605	4759
880.732	4801
880.859	5102
880.986	4915
881.112	4965
881.239	4774
881.366	4687
881.493	4611
881.619	4577
881.746	4615
881.872	4687
881.999	4660
882.125	4706
882.252	4733
882.378	4805
882.505	4923
882.631	4793
882.757	4694
882.883	4725
883.01	4771
883.136	4656
883.262	4626
883.388	4599
883.514	4797
883.64	4854
883.766	4782
883.892	4714
884.018	4752
884.143	4892
884.269	5006
884.395	4683
884.52	4660
884.646	4672
884.772	4565
884.897	4527
885.023	4637
885.148	4820
885.274	4831
885.399	4793
885.524	4740
885.65	4683
885.775	4759
885.9	4691
886.025	4835
886.15	4782
886.275	4702
886.4	4672
886.525	4698
886.65	4668
886.775	4672
886.9	4862
887.025	5045
887.149	4831
887.274	4588
887.399	4580
887.523	4577
887.648	4577
887.773	4546
887.897	4793
888.021	4774
888.146	4675
888.27	4786
888.395	4904
888.519	4793
888.643	4759
888.767	4843
888.891	4660
889.015	4607
889.139	4645
889.263	4573
889.387	4778
889.511	4847
889.635	4744
889.759	4649
889.883	4630
890.006	4706
890.13	4839
890.254	4641
890.377	4637
890.501	4512
890.624	4516
890.748	4641
890.871	4531
890.995	4451
891.118	4379
891.241	4523
891.364	4516
891.488	4565
891.611	4497
891.734	4535
891.857	4603
891.98	4542
892.103	4626
892.226	4565
892.349	4459
892.471	4440
892.594	4569
892.717	4531
892.839	4588
892.962	4588
893.085	4626
893.207	4569
893.33	4459
893.452	4478
893.575	4596
893.697	4569
893.819	4729
893.941	4839
894.064	4736
894.186	4558
894.308	4596
894.43	4694
894.552	4793
894.674	4725
894.796	4546
894.918	4577
895.04	4584
895.161	4714
895.283	4630
895.405	4565
895.526	4611
895.648	4687
895.769	4706
895.891	4710
896.012	4759
896.134	4672
896.255	4630
896.376	4584
896.498	4599
896.619	4706
896.74	4569
896.861	4634
896.982	4915
897.103	5079
897.224	4809
897.345	4752
897.466	4611
897.587	4706
897.708	4835
897.828	4721
897.949	4656
898.07	4535
898.19	4596
898.311	4774
898.431	4672
898.552	4725
898.672	4835
898.792	4786
898.913	4717
899.033	4611
899.153	4447
899.273	4436
899.393	4455
899.513	4546
899.633	4512
899.753	4508
899.873	4455
899.993	4603
900.113	4531
900.232	4561
900.352	4554
900.472	4455
900.591	4421
900.711	4481
900.83	4447
900.95	4615
901.069	4637
901.189	4462
901.308	4371
901.427	4299
901.546	4394
901.665	4417
901.784	4519
901.904	4356
902.023	4341
902.141	4166
902.26	4211
902.379	4322
902.498	4219
902.617	4169
902.735	4398
902.854	4344
902.973	4341
903.091	4219
903.21	4223
903.328	4284
903.446	4215
903.565	4276
903.683	4341
903.801	4249
903.919	4390
904.038	4459
904.156	4303
904.274	4360
904.392	4386
904.51	4447
904.627	4462
904.745	4538
904.863	4634
904.981	4436
905.098	4295
905.216	4341
905.334	4405
905.451	4436
905.569	4402
905.686	4535
905.803	4542
905.921	4436
906.038	4554
906.155	4440
906.272	4421
906.389	4409
906.506	4337
906.623	4344
906.74	4398
906.857	4341
906.974	4367
907.091	4558
907.208	4630
907.324	4558
907.441	4462
907.557	4329
907.674	4417
907.79	4253
907.907	4322
908.023	4462
908.139	4493
908.256	4409
908.372	4485
908.488	4459
908.604	4329
908.72	4291
908.836	4344
908.952	4375
909.068	4390
909.184	4577
909.3	4497
909.415	4611
909.531	4527
909.647	4402
909.762	4383
909.878	4325
909.993	4432
910.108	4421
910.224	4344
910.339	4493
910.454	4428
910.57	4325
910.685	4318
910.8	4649
910.915	4630
911.03	4523
911.145	4322
911.259	4337
911.374	4329
911.489	4318
911.604	4280
911.718	4154
911.833	4211
911.947	4078
912.062	3994
912.176	4192
912.291	4207
912.405	4242
912.519	4421
912.633	4538
912.748	4367
912.862	4306
912.976	4177
913.09	4055
913.204	4150
913.318	4242
913.431	4363
913.545	4409
913.659	4390
913.772	4421
913.886	4219
914	4196
914.113	4360
914.226	4455
914.34	4363
914.453	4242
914.566	4417
914.68	4310
914.793	4310
914.906	4154
915.019	4166
915.132	4097
915.245	4150
915.358	4230
915.47	4196
915.583	4257
915.696	4280
915.809	4360
915.921	4383
916.034	4268
916.146	4249
916.259	4238
916.371	4363
916.483	4344
916.595	4265
916.708	4390
916.82	4314
916.932	4329
917.044	4314
917.156	4352
917.268	4207
917.38	4318
917.491	4284
917.603	4371
917.715	4405
917.826	4432
917.938	4363
918.049	4227
918.161	4398
918.272	4516
918.384	4554
918.495	4451
918.606	4314
918.717	4253
918.828	4341
918.939	4314
919.05	4246
919.161	4287
919.272	4181
919.383	4207
919.494	4402
919.604	4592
919.715	4436
919.826	4344
919.936	4394
920.047	4546
920.157	4451
920.267	4706
920.378	4504
920.488	4493
920.598	4694
920.708	4904
920.818	4763
920.928	4778
921.038	4976
921.148	4930
921.258	4569
921.368	4599
921.477	4462
921.587	4447
921.697	4390
921.806	4519
921.916	4417
922.025	4238
922.134	4215
922.244	4230
922.353	4356
922.462	4196
922.571	4139
922.68	3987
922.789	3949
922.898	4013
923.007	3987
923.116	4143
923.224	4063
923.333	4044
923.442	3991
923.55	3991
923.659	4025
923.767	4112
923.876	4029
923.984	4124
924.092	3998
924.201	4124
924.309	4093
924.417	4112
924.525	4051
924.633	4120
924.741	4919
924.849	3899
924.956	4135
925.064	3945
925.172	3937
925.279	3972
925.387	3991
925.494	4013
925.602	4215
925.709	4166
925.816	4010
925.924	4124
926.031	4238
926.138	4063
926.245	4207
926.352	4097
926.459	4238
926.566	4306
926.673	4154
926.779	4071
926.886	4025
926.993	3998
927.099	3964
927.206	3915
927.312	3934
927.419	4059
927.525	4010
927.631	4105
927.737	3949
927.843	3926
927.95	3816
928.056	3949
928.162	3941
928.267	4055
928.373	4599
928.479	4162
928.585	3876
928.69	4025
928.796	4067
928.901	3979
929.007	3846
929.112	3991
929.218	4006
929.323	3941
929.428	3918
929.533	4097
929.638	3911
929.743	3979
929.848	4036
929.953	3968
930.058	3911
930.163	3785
930.267	3800
930.372	3994
930.477	3762
930.581	4131
930.685	3922
930.79	3778
930.894	3880
930.998	3854
931.103	4051
931.207	3743
931.311	3705
931.415	3667
931.519	3504
931.623	3561
