Data from test_V78500241_578.txt Node
Date: Fri Mar 25 16:53:01 CST 2022
User: usil
Spectrometer: V785-0024
Trigger mode: 0
Integration Time (sec): 4.000000E-1
Scans to average: 1
Nonlinearity correction enabled: false
Boxcar width: 0
Storing dark spectrum: false
XAxis mode: Wavelengths
Number of Pixels in Spectrum: 1024
>>>>>Begin Spectral Data<<<<<
801.071	8100
801.214	7955
801.356	7833
801.499	7849
801.641	7822
801.783	7814
801.926	8005
802.068	7955
802.211	8001
802.353	8058
802.496	7830
802.638	7921
802.78	7909
802.923	7856
803.065	7807
803.208	7811
803.35	8005
803.492	8058
803.635	8134
803.777	8024
803.919	8134
804.061	8412
804.204	8103
804.346	7978
804.488	7936
804.63	8046
804.773	8005
804.915	8096
805.057	8290
805.199	8145
805.341	8248
805.483	8290
805.626	8210
805.768	8157
805.91	8138
806.052	8214
806.194	8111
806.336	8263
806.478	8115
806.62	8096
806.762	8100
806.904	8309
807.046	8499
807.188	8347
807.33	8240
807.472	8279
807.614	8145
807.756	8073
807.898	7913
808.04	7822
808.182	7932
808.324	7883
808.465	7898
808.607	8081
808.749	8138
808.891	8172
809.033	8263
809.174	8161
809.316	7993
809.458	8050
809.6	7955
809.741	8001
809.883	7989
810.025	8123
810.166	8119
810.308	8016
810.45	7967
810.591	7883
810.733	7719
810.875	7666
811.016	7563
811.158	7510
811.299	7590
811.441	7761
811.582	7696
811.724	7552
811.865	7514
812.007	7590
812.148	7529
812.29	7590
812.431	7750
812.573	7811
812.714	7993
812.855	8134
812.997	8248
813.138	8339
813.279	8172
813.421	8149
813.562	8039
813.703	7890
813.845	7811
813.986	7491
814.127	7331
814.268	7213
814.41	7179
814.551	7202
814.692	7171
814.833	7076
814.974	7076
815.115	7095
815.256	6996
815.397	6916
815.539	6916
815.68	6859
815.821	6821
815.962	6897
816.103	6837
816.244	6715
816.385	6669
816.526	6669
816.666	6483
816.807	6353
816.948	6426
817.089	6467
817.23	6418
817.371	6350
817.512	6414
817.653	6353
817.793	6388
817.934	6426
818.075	6498
818.216	6437
818.356	6384
818.497	6262
818.638	6106
818.778	6095
818.919	6148
819.06	6117
819.2	6315
819.341	6296
819.481	6342
819.622	6502
819.762	6719
819.903	6642
820.043	6604
820.184	6555
820.324	6608
820.465	6696
820.605	6673
820.746	6593
820.886	6441
821.026	6635
821.167	6707
821.307	6776
821.447	6684
821.588	6620
821.728	6582
821.868	6471
822.008	6270
822.149	6399
822.289	6357
822.429	6140
822.569	6060
822.709	6117
822.849	5904
822.99	5885
823.13	5916
823.27	5863
823.41	5764
823.55	5775
823.69	5798
823.83	5748
823.97	5638
824.11	5486
824.25	5493
824.389	5535
824.529	5566
824.669	5532
824.809	5615
824.949	5695
825.089	5619
825.228	5554
825.368	5402
825.508	5376
825.648	5341
825.787	5368
825.927	5402
826.067	5318
826.206	5330
826.346	5376
826.485	5414
826.625	5398
826.765	5566
826.904	5467
827.044	5212
827.183	5212
827.323	5128
827.462	5273
827.601	5185
827.741	5170
827.88	5185
828.02	5071
828.159	5227
828.298	5277
828.437	5311
828.577	5299
828.716	5474
828.855	5318
828.994	5162
829.134	5052
829.273	5235
829.412	5105
829.551	5102
829.69	5105
829.829	5204
829.968	5372
830.107	5204
830.246	5254
830.385	5151
830.524	5136
830.663	5079
830.802	4965
830.941	4873
831.08	4816
831.219	4938
831.357	4923
831.496	5132
831.635	4938
831.774	4835
831.913	4866
832.051	4694
832.19	4752
832.329	4850
832.467	4717
832.606	4634
832.744	4710
832.883	4691
833.022	4717
833.16	4755
833.299	4809
833.437	4763
833.576	4816
833.714	4820
833.852	4816
833.991	4908
834.129	4908
834.267	5025
834.406	4854
834.544	4961
834.682	5003
834.821	4995
834.959	5151
835.097	4961
835.235	5128
835.373	5064
835.511	5064
835.65	5006
835.788	5056
835.926	4889
836.064	4839
836.202	4965
836.34	5121
836.478	5223
836.615	5132
836.753	5235
836.891	5273
837.029	5231
837.167	5216
837.305	5136
837.443	5159
837.58	5067
837.718	5223
837.856	5170
837.993	5151
838.131	5181
838.269	5216
838.406	5159
838.544	5197
838.681	5022
838.819	5010
838.956	4831
839.094	4908
839.231	4991
839.369	5064
839.506	5395
839.643	5288
839.781	5056
839.918	5048
840.055	5060
840.193	5128
840.33	5090
840.467	5086
840.604	5170
840.742	5421
840.879	5037
841.016	5079
841.153	5178
841.29	5406
841.427	5357
841.564	5322
841.701	5349
841.838	5334
841.975	5246
842.112	5242
842.249	5121
842.385	5098
842.522	5292
842.659	5136
842.796	5132
842.933	5174
843.069	5140
843.206	5174
843.343	5273
843.479	5220
843.616	5250
843.752	5025
843.889	5037
844.025	5250
844.162	5045
844.298	5181
844.435	5079
844.571	5083
844.708	5162
844.844	5318
844.98	5357
845.117	5273
845.253	5124
845.389	5113
845.525	5083
845.661	5121
845.798	5067
845.934	5140
846.07	5003
846.206	5204
846.342	5235
846.478	5181
846.614	4991
846.75	4961
846.886	4938
847.022	5174
847.158	4980
847.294	5083
847.429	5064
847.565	5041
847.701	5383
847.837	4847
847.972	4778
848.108	4972
848.244	5014
848.379	4793
848.515	4675
848.65	4733
848.786	4702
848.921	4790
849.057	4843
849.192	4850
849.328	4839
849.463	4812
849.598	4786
849.734	4755
849.869	4630
850.004	4634
850.14	4637
850.275	4569
850.41	4527
850.545	4561
850.68	4607
850.815	4588
850.95	4577
851.085	4790
851.22	4782
851.355	4656
851.49	4580
851.625	4630
851.76	4656
851.895	4577
852.03	4538
852.165	4656
852.299	4725
852.434	4774
852.569	4759
852.703	4752
852.838	4831
852.973	4927
853.107	4896
853.242	4714
853.376	4698
853.511	4592
853.645	4596
853.78	4824
853.914	4675
854.048	4687
854.183	4649
854.317	4702
854.451	4824
854.585	4660
854.72	4580
854.854	4763
854.988	4607
855.122	4580
855.256	4538
855.39	4645
855.524	4782
855.658	4721
855.792	4706
855.926	4729
856.06	4759
856.194	4771
856.327	4702
856.461	4618
856.595	4573
856.729	4618
856.862	4752
856.996	4702
857.13	4721
857.263	4793
857.397	4858
857.53	4645
857.664	4725
857.797	4767
857.931	4733
858.064	4630
858.197	4733
858.331	4626
858.464	4588
858.597	4493
858.731	4634
858.864	4588
858.997	4626
859.13	4675
859.263	4622
859.396	4672
859.529	4626
859.662	4512
859.795	4584
859.928	4596
860.061	4790
860.194	4774
860.327	4645
860.46	4531
860.592	4683
860.725	4679
860.858	4710
860.99	4561
861.123	4523
861.256	4500
861.388	4630
861.521	5337
861.653	4493
861.786	4424
861.918	4455
862.05	4565
862.183	4535
862.315	4592
862.447	4649
862.58	4573
862.712	4390
862.844	4306
862.976	4459
863.108	4440
863.24	4889
863.372	4314
863.504	4405
863.636	4421
863.768	4508
863.9	4405
864.032	4383
864.164	4375
864.296	4440
864.428	4546
864.559	4569
864.691	4497
864.823	4516
864.954	4493
865.086	4500
865.217	4451
865.349	4432
865.48	4447
865.612	4459
865.743	4615
865.875	4405
866.006	4413
866.137	4470
866.269	4432
866.4	4451
866.531	4383
866.662	4398
866.793	4390
866.924	4367
867.055	4474
867.186	4478
867.317	4394
867.448	4367
867.579	4348
867.71	4363
867.841	4329
867.972	4402
868.103	4455
868.233	4443
868.364	4443
868.495	4497
868.625	4668
868.756	4755
868.886	4546
869.017	4615
869.147	4774
869.278	4752
869.408	4630
869.539	4622
869.669	4733
869.799	4637
869.929	4759
870.06	4721
870.19	4949
870.32	4934
870.45	4957
870.58	4946
870.71	5113
870.84	5079
870.97	4904
871.1	4873
871.23	5140
871.36	5124
871.489	5052
871.619	5098
871.749	5052
871.879	5071
872.008	5136
872.138	5086
872.267	5006
872.397	4835
872.526	4828
872.656	4706
872.785	4828
872.915	4946
873.044	4976
873.173	4938
873.303	4957
873.432	4976
873.561	4965
873.69	4889
873.819	4816
873.948	4881
874.077	4790
874.206	4763
874.335	4812
874.464	4938
874.593	5094
874.722	4953
874.851	5136
874.979	5060
875.108	5037
875.237	4930
875.365	4908
875.494	4862
875.623	4976
875.751	4862
875.88	4892
876.008	5006
876.136	5048
876.265	5220
876.393	5318
876.521	5265
876.65	5220
876.778	5166
876.906	5067
877.034	5033
877.162	5029
877.29	4976
877.418	5029
877.546	5014
877.674	4991
877.802	5048
877.93	5025
878.058	4953
878.185	4927
878.313	4987
878.441	4938
878.568	4797
878.696	4881
878.824	4968
878.951	4984
879.079	5140
879.206	5273
879.333	5075
879.461	4927
879.588	4995
879.715	5079
879.842	5162
879.97	4949
880.097	4820
880.224	4729
880.351	4778
880.478	4870
880.605	4759
880.732	4820
880.859	5067
880.986	4889
881.112	4889
881.239	4748
881.366	4694
881.493	4592
881.619	4550
881.746	4664
881.872	4668
881.999	4626
882.125	4702
882.252	4782
882.378	4835
882.505	4904
882.631	4820
882.757	4675
882.883	4740
883.01	4721
883.136	4664
883.262	4596
883.388	4626
883.514	4847
883.64	4850
883.766	4744
883.892	4691
884.018	4702
884.143	4892
884.269	4987
884.395	4702
884.52	4664
884.646	4634
884.772	4599
884.897	4573
885.023	4656
885.148	4797
885.274	4862
885.399	4828
885.524	4786
885.65	4675
885.775	4714
885.9	4664
886.025	4801
886.15	4774
886.275	4675
886.4	4611
886.525	4740
886.65	4706
886.775	4691
886.9	4892
887.025	5025
887.149	4843
887.274	4653
887.399	4538
887.523	4653
887.648	4565
887.773	4565
887.897	4793
888.021	4790
888.146	4710
888.27	4801
888.395	4881
888.519	4793
888.643	4816
888.767	4812
888.891	4656
889.015	4584
889.139	4622
889.263	4592
889.387	4771
889.511	4862
889.635	4752
889.759	4637
889.883	4679
890.006	4740
890.13	4877
890.254	4630
890.377	4672
890.501	4569
890.624	4538
890.748	4603
890.871	4538
890.995	4436
891.118	4375
891.241	4550
891.364	4523
891.488	4660
891.611	4546
891.734	4523
891.857	4622
891.98	4523
892.103	4634
892.226	4584
892.349	4531
892.471	4470
892.594	4512
892.717	4622
892.839	4584
892.962	4577
893.085	4664
893.207	4596
893.33	4489
893.452	4546
893.575	4634
893.697	4596
893.819	4729
893.941	4850
894.064	4812
894.186	4637
894.308	4599
894.43	4733
894.552	4797
894.674	4752
894.796	4603
894.918	4634
895.04	4550
895.161	4698
895.283	4580
895.405	4550
895.526	4603
895.648	4683
895.769	4706
895.891	4691
896.012	4759
896.134	4725
896.255	4694
896.376	4660
896.498	4626
896.619	4660
896.74	4577
896.861	4641
896.982	4892
897.103	5048
897.224	4831
897.345	4729
897.466	4656
897.587	4717
897.708	4828
897.828	4801
897.949	4618
898.07	4565
898.19	4584
898.311	4862
898.431	4645
898.552	4710
898.672	4793
898.792	4771
898.913	4733
899.033	4630
899.153	4500
899.273	4428
899.393	4455
899.513	4485
899.633	4508
899.753	4550
899.873	4527
899.993	4592
900.113	4542
900.232	4569
900.352	4512
900.472	4459
900.591	4432
900.711	4504
900.83	4402
900.95	4668
901.069	4664
901.189	4523
901.308	4367
901.427	4325
901.546	4405
901.665	4440
901.784	4508
901.904	4390
902.023	4299
902.141	4185
902.26	4196
902.379	4280
902.498	4234
902.617	4204
902.735	4417
902.854	4417
902.973	4386
903.091	4200
903.21	4265
903.328	4253
903.446	4276
903.565	4261
903.683	4337
903.801	4295
903.919	4440
904.038	4409
904.156	4299
904.274	4447
904.392	4424
904.51	4413
904.627	4493
904.745	4573
904.863	4622
904.981	4394
905.098	4253
905.216	4394
905.334	4421
905.451	4421
905.569	4436
905.686	4546
905.803	4580
905.921	4417
906.038	4523
906.155	4466
906.272	4417
906.389	4474
906.506	4367
906.623	4333
906.74	4436
906.857	4341
906.974	4337
907.091	4538
907.208	4675
907.324	4580
907.441	4554
907.557	4329
907.674	4337
907.79	4303
907.907	4371
908.023	4481
908.139	4436
908.256	4402
908.372	4447
908.488	4500
908.604	4371
908.72	4344
908.836	4379
908.952	4363
909.068	4417
909.184	4546
909.3	4470
909.415	4561
909.531	4508
909.647	4322
909.762	4386
909.878	4352
909.993	4447
910.108	4398
910.224	4375
910.339	4489
910.454	4398
910.57	4306
910.685	4363
910.8	4668
910.915	4580
911.03	4512
911.145	4344
911.259	4303
911.374	4383
911.489	4299
911.604	4257
911.718	4162
911.833	4185
911.947	4093
912.062	3979
912.176	4219
912.291	4219
912.405	4268
912.519	4512
912.633	4500
912.748	4333
912.862	4295
912.976	4204
913.09	4101
913.204	4204
913.318	4238
913.431	4337
913.545	4394
913.659	4428
913.772	4398
913.886	4227
914	4211
914.113	4367
914.226	4424
914.34	4367
914.453	4257
914.566	4402
914.68	4363
914.793	4352
914.906	4158
915.019	4166
915.132	4124
915.245	4124
915.358	4230
915.47	4238
915.583	4272
915.696	4280
915.809	4405
915.921	4421
916.034	4253
916.146	4272
916.259	4265
916.371	4390
916.483	4348
916.595	4276
916.708	4341
916.82	4310
916.932	4329
917.044	4318
917.156	4344
917.268	4234
917.38	4287
917.491	4280
917.603	4348
917.715	4402
917.826	4421
917.938	4341
918.049	4253
918.161	4367
918.272	4596
918.384	4588
918.495	4466
918.606	4299
918.717	4227
918.828	4337
918.939	4333
919.05	4272
919.161	4325
919.272	4105
919.383	4230
919.494	4478
919.604	4577
919.715	4447
919.826	4371
919.936	4390
920.047	4569
920.157	4516
920.267	4698
920.378	4516
920.488	4485
920.598	4668
920.708	4892
920.818	4763
920.928	4748
921.038	4999
921.148	4923
921.258	4637
921.368	4558
921.477	4504
921.587	4459
921.697	4337
921.806	4554
921.916	4455
922.025	4223
922.134	4303
922.244	4192
922.353	4356
922.462	4181
922.571	4162
922.68	4017
922.789	3956
922.898	4002
923.007	3987
923.116	4051
923.224	4078
923.333	4063
923.442	4002
923.55	3926
923.659	4032
923.767	4120
923.876	3979
923.984	4097
924.092	3975
924.201	4105
924.309	4059
924.417	4082
924.525	4032
924.633	4093
924.741	5052
924.849	3915
924.956	4097
925.064	3930
925.172	3903
925.279	3983
925.387	4071
925.494	4097
925.602	4150
925.709	4162
925.816	4048
925.924	4112
926.031	4284
926.138	4135
926.245	4143
926.352	4078
926.459	4253
926.566	4322
926.673	4166
926.779	4086
926.886	4086
926.993	3968
927.099	3968
927.206	3968
927.312	3960
927.419	4067
927.525	4063
927.631	4116
927.737	3983
927.843	3941
927.95	3865
928.056	3918
928.162	3953
928.267	4055
928.373	4679
928.479	4109
928.585	3918
928.69	4025
928.796	4040
928.901	3964
929.007	3842
929.112	3987
929.218	3987
929.323	3968
929.428	3930
929.533	4063
929.638	3903
929.743	3926
929.848	4067
929.953	4032
930.058	3941
930.163	3808
930.267	3827
930.372	3941
930.477	3781
930.581	4090
930.685	3918
930.79	3797
930.894	3873
930.998	3846
931.103	4013
931.207	3717
931.311	3686
931.415	3660
931.519	3500
931.623	3538
