Data from test_V78500241_1919.txt Node
Date: Fri Mar 25 17:02:20 CST 2022
User: usil
Spectrometer: V785-0024
Trigger mode: 0
Integration Time (sec): 4.000000E-1
Scans to average: 1
Nonlinearity correction enabled: false
Boxcar width: 0
Storing dark spectrum: false
XAxis mode: Wavelengths
Number of Pixels in Spectrum: 1024
>>>>>Begin Spectral Data<<<<<
801.071	8024
801.214	7993
801.356	7936
801.499	7921
801.641	7776
801.783	7883
801.926	7993
802.068	8008
802.211	7978
802.353	7967
802.496	7890
802.638	7883
802.78	7894
802.923	7890
803.065	7921
803.208	7917
803.35	7921
803.492	8130
803.635	8161
803.777	8020
803.919	8142
804.061	8389
804.204	8191
804.346	8062
804.488	8016
804.63	8100
804.773	8031
804.915	8096
805.057	8301
805.199	8244
805.341	8221
805.483	8313
805.626	8248
805.768	8115
805.91	8252
806.052	8267
806.194	8168
806.336	8259
806.478	8107
806.62	8103
806.762	8138
806.904	8275
807.046	8454
807.188	8400
807.33	8286
807.472	8286
807.614	8168
807.756	8138
807.898	8043
808.04	7909
808.182	7940
808.324	7837
808.465	7951
808.607	8092
808.749	8126
808.891	8191
809.033	8320
809.174	8267
809.316	8123
809.458	8123
809.6	8001
809.741	8054
809.883	8027
810.025	8142
810.166	8123
810.308	8058
810.45	7970
810.591	7890
810.733	7776
810.875	7597
811.016	7518
811.158	7476
811.299	7601
811.441	7734
811.582	7700
811.724	7620
811.865	7594
812.007	7559
812.148	7601
812.29	7620
812.431	7788
812.573	7879
812.714	7989
812.855	8111
812.997	8256
813.138	8309
813.279	8187
813.421	8115
813.562	7967
813.703	7830
813.845	7723
813.986	7426
814.127	7259
814.268	7263
814.41	7255
814.551	7175
814.692	7152
814.833	7175
814.974	7095
815.115	7179
815.256	7038
815.397	6920
815.539	6954
815.68	6852
815.821	6749
815.962	6821
816.103	6844
816.244	6715
816.385	6665
816.526	6627
816.666	6486
816.807	6334
816.948	6437
817.089	6475
817.23	6429
817.371	6353
817.512	6388
817.653	6388
817.793	6369
817.934	6433
818.075	6467
818.216	6445
818.356	6471
818.497	6243
818.638	6133
818.778	6209
818.919	6129
819.06	6175
819.2	6372
819.341	6342
819.481	6418
819.622	6578
819.762	6772
819.903	6741
820.043	6616
820.184	6604
820.324	6559
820.465	6673
820.605	6776
820.746	6631
820.886	6544
821.026	6631
821.167	6757
821.307	6829
821.447	6783
821.588	6673
821.728	6642
821.868	6532
822.008	6346
822.149	6338
822.289	6350
822.429	6140
822.569	6060
822.709	6102
822.849	5923
822.99	5965
823.13	5942
823.27	5889
823.41	5840
823.55	5805
823.69	5817
823.83	5760
823.97	5657
824.11	5585
824.25	5581
824.389	5539
824.529	5615
824.669	5554
824.809	5691
824.949	5657
825.089	5615
825.228	5547
825.368	5398
825.508	5337
825.648	5360
825.787	5395
825.927	5425
826.067	5318
826.206	5330
826.346	5414
826.485	5417
826.625	5395
826.765	5535
826.904	5512
827.044	5277
827.183	5250
827.323	5155
827.462	5277
827.601	5174
827.741	5223
827.88	5231
828.02	5105
828.159	5265
828.298	5292
828.437	5387
828.577	5288
828.716	5448
828.855	5288
828.994	5140
829.134	5143
829.273	5155
829.412	5102
829.551	5155
829.69	5151
829.829	5246
829.968	5334
830.107	5296
830.246	5280
830.385	5242
830.524	5166
830.663	5045
830.802	4961
830.941	4862
831.08	4915
831.219	4991
831.357	5014
831.496	5098
831.635	4919
831.774	4824
831.913	4877
832.051	4694
832.19	4759
832.329	4831
832.467	4725
832.606	4637
832.744	4763
832.883	4702
833.022	4767
833.16	4797
833.299	4820
833.437	4805
833.576	4843
833.714	4896
833.852	4881
833.991	4919
834.129	5025
834.267	4984
834.406	4908
834.544	4938
834.682	4968
834.821	4949
834.959	5155
835.097	4987
835.235	5147
835.373	5079
835.511	5170
835.65	5064
835.788	5037
835.926	4930
836.064	4881
836.202	4946
836.34	5193
836.478	5246
836.615	5151
836.753	5227
836.891	5296
837.029	5254
837.167	5231
837.305	5136
837.443	5143
837.58	5113
837.718	5296
837.856	5212
837.993	5201
838.131	5250
838.269	5197
838.406	5201
838.544	5220
838.681	5060
838.819	5045
838.956	4934
839.094	4949
839.231	5006
839.369	5117
839.506	5436
839.643	5307
839.781	5102
839.918	5029
840.055	5132
840.193	5083
840.33	5121
840.467	5178
840.604	5212
840.742	5429
840.879	5083
841.016	5079
841.153	5147
841.29	5387
841.427	5349
841.564	5364
841.701	5334
841.838	5288
841.975	5261
842.112	5299
842.249	5204
842.385	5155
842.522	5368
842.659	5170
842.796	5109
842.933	5166
843.069	5136
843.206	5136
843.343	5292
843.479	5239
843.616	5311
843.752	5071
843.889	4991
844.025	5242
844.162	5048
844.298	5227
844.435	5075
844.571	5090
844.708	5208
844.844	5326
844.98	5330
845.117	5296
845.253	5124
845.389	5083
845.525	5178
845.661	5162
845.798	5064
845.934	5155
846.07	5090
846.206	5239
846.342	5280
846.478	5197
846.614	4999
846.75	5006
846.886	4915
847.022	5113
847.158	5010
847.294	5075
847.429	5056
847.565	5079
847.701	5280
847.837	4805
847.972	4790
848.108	4942
848.244	4915
848.379	4774
848.515	4736
848.65	4759
848.786	4725
848.921	4755
849.057	4881
849.192	4904
849.328	4797
849.463	4866
849.598	4790
849.734	4763
849.869	4736
850.004	4664
850.14	4653
850.275	4675
850.41	4561
850.545	4584
850.68	4607
850.815	4618
850.95	4569
851.085	4881
851.22	4744
851.355	4687
851.49	4596
851.625	4641
851.76	4634
851.895	4580
852.03	4542
852.165	4694
852.299	4759
852.434	4805
852.569	4782
852.703	4790
852.838	4873
852.973	4972
853.107	4930
853.242	4790
853.376	4664
853.511	4592
853.645	4653
853.78	4831
853.914	4721
854.048	4691
854.183	4637
854.317	4672
854.451	4831
854.585	4664
854.72	4645
854.854	4801
854.988	4607
855.122	4649
855.256	4588
855.39	4656
855.524	4778
855.658	4721
855.792	4683
855.926	4687
856.06	4793
856.194	4771
856.327	4744
856.461	4615
856.595	4599
856.729	4630
856.862	4767
856.996	4729
857.13	4767
857.263	4744
857.397	4824
857.53	4679
857.664	4683
857.797	4721
857.931	4839
858.064	4679
858.197	4839
858.331	4683
858.464	4596
858.597	4550
858.731	4634
858.864	4664
858.997	4649
859.13	4634
859.263	4626
859.396	4725
859.529	4611
859.662	4611
859.795	4561
859.928	4634
860.061	4733
860.194	4797
860.327	4645
860.46	4531
860.592	4656
860.725	4721
860.858	4774
860.99	4546
861.123	4512
861.256	4550
861.388	4607
861.521	5315
861.653	4470
861.786	4493
861.918	4443
862.05	4542
862.183	4546
862.315	4611
862.447	4656
862.58	4558
862.712	4413
862.844	4344
862.976	4451
863.108	4455
863.24	4736
863.372	4383
863.504	4432
863.636	4440
863.768	4519
863.9	4447
864.032	4356
864.164	4386
864.296	4481
864.428	4588
864.559	4531
864.691	4523
864.823	4558
864.954	4538
865.086	4519
865.217	4436
865.349	4451
865.48	4474
865.612	4485
865.743	4626
865.875	4470
866.006	4443
866.137	4500
866.269	4443
866.4	4447
866.531	4413
866.662	4394
866.793	4383
866.924	4443
867.055	4478
867.186	4504
867.317	4436
867.448	4402
867.579	4386
867.71	4409
867.841	4367
867.972	4462
868.103	4424
868.233	4485
868.364	4470
868.495	4462
868.625	4672
868.756	4740
868.886	4546
869.017	4649
869.147	4797
869.278	4752
869.408	4664
869.539	4618
869.669	4729
869.799	4653
869.929	4748
870.06	4744
870.19	5014
870.32	4980
870.45	4987
870.58	5022
870.71	5083
870.84	5121
870.97	4862
871.1	4904
871.23	5124
871.36	5170
871.489	5022
871.619	5064
871.749	5102
871.879	5117
872.008	5208
872.138	5060
872.267	4965
872.397	4896
872.526	4809
872.656	4778
872.785	4809
872.915	4930
873.044	5003
873.173	4968
873.303	4949
873.432	4934
873.561	4961
873.69	4889
873.819	4812
873.948	4972
874.077	4858
874.206	4767
874.335	4793
874.464	4923
874.593	5071
874.722	4953
874.851	5117
874.979	5067
875.108	5075
875.237	4915
875.365	4908
875.494	4904
875.623	4999
875.751	4805
875.88	4908
876.008	5029
876.136	5029
876.265	5197
876.393	5315
876.521	5254
876.65	5231
876.778	5174
876.906	5060
877.034	4991
877.162	5079
877.29	4972
877.418	5075
877.546	5033
877.674	5025
877.802	5033
877.93	4995
878.058	4984
878.185	4892
878.313	4900
878.441	4930
878.568	4801
878.696	4866
878.824	4957
878.951	4991
879.079	5155
879.206	5288
879.333	5079
879.461	4984
879.588	5010
879.715	5170
879.842	5246
879.97	4976
880.097	4839
880.224	4786
880.351	4831
880.478	4873
880.605	4839
880.732	4816
880.859	5071
880.986	4911
881.112	4892
881.239	4805
881.366	4683
881.493	4615
881.619	4607
881.746	4626
881.872	4630
881.999	4622
882.125	4660
882.252	4793
882.378	4805
882.505	4908
882.631	4805
882.757	4664
882.883	4759
883.01	4733
883.136	4645
883.262	4626
883.388	4607
883.514	4828
883.64	4881
883.766	4755
883.892	4691
884.018	4710
884.143	4892
884.269	4949
884.395	4714
884.52	4630
884.646	4653
884.772	4561
884.897	4596
885.023	4656
885.148	4771
885.274	4870
885.399	4782
885.524	4748
885.65	4706
885.775	4801
885.9	4729
886.025	4870
886.15	4755
886.275	4740
886.4	4637
886.525	4729
886.65	4702
886.775	4679
886.9	4934
887.025	5037
887.149	4767
887.274	4649
887.399	4546
887.523	4630
887.648	4615
887.773	4535
887.897	4759
888.021	4850
888.146	4706
888.27	4839
888.395	4911
888.519	4786
888.643	4778
888.767	4828
888.891	4656
889.015	4630
889.139	4596
889.263	4592
889.387	4793
889.511	4866
889.635	4771
889.759	4634
889.883	4645
890.006	4759
890.13	4843
890.254	4588
890.377	4653
890.501	4508
890.624	4516
890.748	4660
890.871	4493
890.995	4432
891.118	4436
891.241	4538
891.364	4542
891.488	4668
891.611	4474
891.734	4542
891.857	4580
891.98	4569
892.103	4649
892.226	4592
892.349	4554
892.471	4432
892.594	4531
892.717	4561
892.839	4558
892.962	4592
893.085	4714
893.207	4565
893.33	4440
893.452	4485
893.575	4656
893.697	4558
893.819	4824
893.941	4828
894.064	4809
894.186	4596
894.308	4558
894.43	4752
894.552	4820
894.674	4725
894.796	4577
894.918	4577
895.04	4599
895.161	4645
895.283	4641
895.405	4653
895.526	4660
895.648	4694
895.769	4649
895.891	4694
896.012	4694
896.134	4687
896.255	4687
896.376	4596
896.498	4588
896.619	4702
896.74	4596
896.861	4622
896.982	4873
897.103	5048
897.224	4805
897.345	4729
897.466	4637
897.587	4744
897.708	4870
897.828	4790
897.949	4653
898.07	4554
898.19	4672
898.311	4793
898.431	4637
898.552	4729
898.672	4820
898.792	4812
898.913	4767
899.033	4622
899.153	4508
899.273	4421
899.393	4508
899.513	4485
899.633	4523
899.753	4497
899.873	4504
899.993	4596
900.113	4527
900.232	4569
900.352	4527
900.472	4535
900.591	4344
900.711	4512
900.83	4428
900.95	4573
901.069	4641
901.189	4478
901.308	4386
901.427	4287
901.546	4344
901.665	4470
901.784	4504
901.904	4371
902.023	4318
902.141	4177
902.26	4173
902.379	4287
902.498	4257
902.617	4219
902.735	4356
902.854	4379
902.973	4360
903.091	4207
903.21	4204
903.328	4246
903.446	4299
903.565	4204
903.683	4356
903.801	4257
903.919	4371
904.038	4363
904.156	4257
904.274	4432
904.392	4348
904.51	4405
904.627	4459
904.745	4538
904.863	4573
904.981	4390
905.098	4280
905.216	4386
905.334	4440
905.451	4402
905.569	4421
905.686	4561
905.803	4580
905.921	4421
906.038	4573
906.155	4485
906.272	4409
906.389	4478
906.506	4363
906.623	4436
906.74	4402
906.857	4333
906.974	4348
907.091	4573
907.208	4679
907.324	4592
907.441	4508
907.557	4337
907.674	4356
907.79	4314
907.907	4337
908.023	4466
908.139	4478
908.256	4409
908.372	4443
908.488	4459
908.604	4386
908.72	4287
908.836	4390
908.952	4409
909.068	4398
909.184	4558
909.3	4466
909.415	4580
909.531	4538
909.647	4383
909.762	4375
909.878	4371
909.993	4402
910.108	4390
910.224	4386
910.339	4451
910.454	4440
910.57	4344
910.685	4272
910.8	4641
910.915	4577
911.03	4497
911.145	4291
911.259	4299
911.374	4337
911.489	4325
911.604	4299
911.718	4181
911.833	4200
911.947	4036
912.062	4051
912.176	4200
912.291	4227
912.405	4303
912.519	4459
912.633	4523
912.748	4333
912.862	4306
912.976	4169
913.09	4090
913.204	4135
913.318	4238
913.431	4310
913.545	4352
913.659	4474
913.772	4352
913.886	4219
914	4185
914.113	4383
914.226	4398
914.34	4394
914.453	4207
914.566	4424
914.68	4325
914.793	4318
914.906	4169
915.019	4128
915.132	4036
915.245	4181
915.358	4185
915.47	4211
915.583	4261
915.696	4295
915.809	4383
915.921	4440
916.034	4227
916.146	4265
916.259	4207
916.371	4322
916.483	4352
916.595	4230
916.708	4344
916.82	4356
916.932	4310
917.044	4299
917.156	4356
917.268	4207
917.38	4265
917.491	4276
917.603	4314
917.715	4432
917.826	4428
917.938	4348
918.049	4265
918.161	4386
918.272	4535
918.384	4538
918.495	4436
918.606	4272
918.717	4223
918.828	4375
918.939	4352
919.05	4223
919.161	4314
919.272	4097
919.383	4261
919.494	4432
919.604	4630
919.715	4428
919.826	4363
919.936	4367
920.047	4523
920.157	4500
920.267	4691
920.378	4527
920.488	4489
920.598	4710
920.708	4881
920.818	4740
920.928	4733
921.038	4942
921.148	4904
921.258	4641
921.368	4527
921.477	4455
921.587	4451
921.697	4352
921.806	4512
921.916	4390
922.025	4276
922.134	4257
922.244	4196
922.353	4325
922.462	4181
922.571	4120
922.68	3987
922.789	3915
922.898	4006
923.007	4021
923.116	4051
923.224	4048
923.333	4071
923.442	3972
923.55	3960
923.659	4006
923.767	4112
923.876	3994
923.984	4128
924.092	3964
924.201	4071
924.309	4051
924.417	4128
924.525	4044
924.633	4093
924.741	5022
924.849	3896
924.956	4143
925.064	3930
925.172	3884
925.279	3960
925.387	4029
925.494	4074
925.602	4188
925.709	4196
925.816	4006
925.924	4124
926.031	4207
926.138	4139
926.245	4223
926.352	4097
926.459	4238
926.566	4310
926.673	4135
926.779	4112
926.886	4101
926.993	3960
927.099	3968
927.206	3899
927.312	3949
927.419	4025
927.525	4040
927.631	4063
927.737	3937
927.843	3911
927.95	3827
928.056	3968
928.162	3987
928.267	4078
928.373	4565
928.479	4105
928.585	3831
928.69	3972
928.796	4021
928.901	4013
929.007	3831
929.112	4029
929.218	3941
929.323	3960
929.428	3968
929.533	4109
929.638	3915
929.743	3945
929.848	4051
929.953	3911
930.058	3922
930.163	3797
930.267	3781
930.372	3945
930.477	3766
930.581	4086
930.685	3941
930.79	3823
930.894	3892
930.998	3823
931.103	4017
931.207	3717
931.311	3667
931.415	3675
931.519	3534
931.623	3545
