Data from test_V78500241_1918.txt Node
Date: Fri Mar 25 17:02:20 CST 2022
User: usil
Spectrometer: V785-0024
Trigger mode: 0
Integration Time (sec): 4.000000E-1
Scans to average: 1
Nonlinearity correction enabled: false
Boxcar width: 0
Storing dark spectrum: false
XAxis mode: Wavelengths
Number of Pixels in Spectrum: 1024
>>>>>Begin Spectral Data<<<<<
801.071	7917
801.214	7993
801.356	7849
801.499	7887
801.641	7826
801.783	7799
801.926	7970
802.068	7921
802.211	7997
802.353	8062
802.496	7833
802.638	7814
802.78	7837
802.923	7917
803.065	7913
803.208	7830
803.35	8043
803.492	8031
803.635	8161
803.777	8008
803.919	8088
804.061	8408
804.204	8115
804.346	7997
804.488	8008
804.63	8069
804.773	8005
804.915	8123
805.057	8183
805.199	8187
805.341	8267
805.483	8240
805.626	8218
805.768	8084
805.91	8229
806.052	8145
806.194	8134
806.336	8290
806.478	8134
806.62	7978
806.762	8065
806.904	8286
807.046	8541
807.188	8313
807.33	8370
807.472	8358
807.614	8202
807.756	8187
807.898	7967
808.04	7906
808.182	7875
808.324	7879
808.465	7871
808.607	8012
808.749	8119
808.891	8248
809.033	8343
809.174	8210
809.316	8073
809.458	8069
809.6	7978
809.741	8100
809.883	8077
810.025	8069
810.166	8031
810.308	7993
810.45	8001
810.591	7826
810.733	7757
810.875	7693
811.016	7525
811.158	7430
811.299	7559
811.441	7685
811.582	7647
811.724	7525
811.865	7540
812.007	7594
812.148	7540
812.29	7605
812.431	7746
812.573	7864
812.714	7970
812.855	8145
812.997	8210
813.138	8271
813.279	8145
813.421	8088
813.562	7955
813.703	7811
813.845	7769
813.986	7422
814.127	7259
814.268	7183
814.41	7198
814.551	7175
814.692	7282
814.833	7103
814.974	7076
815.115	7183
815.256	7027
815.397	6924
815.539	6943
815.68	6852
815.821	6741
815.962	6810
816.103	6844
816.244	6707
816.385	6639
816.526	6570
816.666	6483
816.807	6296
816.948	6441
817.089	6441
817.23	6391
817.371	6334
817.512	6388
817.653	6407
817.793	6361
817.934	6399
818.075	6429
818.216	6414
818.356	6357
818.497	6266
818.638	6098
818.778	6121
818.919	6144
819.06	6182
819.2	6296
819.341	6300
819.481	6426
819.622	6521
819.762	6749
819.903	6734
820.043	6582
820.184	6566
820.324	6589
820.465	6658
820.605	6696
820.746	6700
820.886	6563
821.026	6650
821.167	6654
821.307	6791
821.447	6768
821.588	6681
821.728	6551
821.868	6467
822.008	6353
822.149	6353
822.289	6331
822.429	6175
822.569	6098
822.709	6140
822.849	5912
822.99	5939
823.13	5969
823.27	5954
823.41	5756
823.55	5752
823.69	5760
823.83	5798
823.97	5695
824.11	5543
824.25	5414
824.389	5570
824.529	5585
824.669	5570
824.809	5619
824.949	5630
825.089	5604
825.228	5577
825.368	5357
825.508	5360
825.648	5357
825.787	5414
825.927	5391
826.067	5318
826.206	5280
826.346	5372
826.485	5395
826.625	5406
826.765	5596
826.904	5509
827.044	5235
827.183	5170
827.323	5109
827.462	5246
827.601	5117
827.741	5204
827.88	5166
828.02	5083
828.159	5220
828.298	5246
828.437	5379
828.577	5235
828.716	5425
828.855	5258
828.994	5181
829.134	5155
829.273	5193
829.412	5136
829.551	5117
829.69	5136
829.829	5269
829.968	5417
830.107	5273
830.246	5261
830.385	5170
830.524	5113
830.663	5102
830.802	4949
830.941	4885
831.08	4892
831.219	4972
831.357	5006
831.496	5140
831.635	4927
831.774	4835
831.913	4828
832.051	4714
832.19	4774
832.329	4805
832.467	4664
832.606	4634
832.744	4679
832.883	4714
833.022	4733
833.16	4793
833.299	4774
833.437	4816
833.576	4828
833.714	4824
833.852	4843
833.991	4885
834.129	4957
834.267	4949
834.406	4915
834.544	4965
834.682	4946
834.821	4965
834.959	5109
835.097	5067
835.235	5147
835.373	5083
835.511	5079
835.65	5045
835.788	5006
835.926	4930
836.064	4828
836.202	4904
836.34	5136
836.478	5235
836.615	5136
836.753	5246
836.891	5296
837.029	5235
837.167	5212
837.305	5143
837.443	5128
837.58	5037
837.718	5265
837.856	5254
837.993	5113
838.131	5231
838.269	5220
838.406	5208
838.544	5162
838.681	5025
838.819	5025
838.956	4915
839.094	4927
839.231	5025
839.369	5060
839.506	5452
839.643	5280
839.781	5086
839.918	4995
840.055	5075
840.193	5079
840.33	5102
840.467	5147
840.604	5185
840.742	5402
840.879	5121
841.016	5067
841.153	5181
841.29	5368
841.427	5326
841.564	5303
841.701	5357
841.838	5273
841.975	5212
842.112	5315
842.249	5155
842.385	5140
842.522	5334
842.659	5151
842.796	5124
842.933	5231
843.069	5124
843.206	5143
843.343	5311
843.479	5277
843.616	5269
843.752	5041
843.889	4980
844.025	5208
844.162	5003
844.298	5117
844.435	5124
844.571	5086
844.708	5197
844.844	5265
844.98	5318
845.117	5296
845.253	5147
845.389	5064
845.525	5162
845.661	5128
845.798	5083
845.934	5143
846.07	5079
846.206	5216
846.342	5239
846.478	5208
846.614	5037
846.75	4957
846.886	4930
847.022	5102
847.158	4972
847.294	5098
847.429	5136
847.565	5041
847.701	5311
847.837	4843
847.972	4801
848.108	4968
848.244	4934
848.379	4793
848.515	4656
848.65	4744
848.786	4729
848.921	4801
849.057	4847
849.192	4892
849.328	4850
849.463	4843
849.598	4816
849.734	4790
849.869	4694
850.004	4645
850.14	4634
850.275	4607
850.41	4573
850.545	4523
850.68	4626
850.815	4615
850.95	4577
851.085	4843
851.22	4710
851.355	4694
851.49	4626
851.625	4626
851.76	4668
851.895	4527
852.03	4531
852.165	4637
852.299	4755
852.434	4820
852.569	4733
852.703	4767
852.838	4805
852.973	4923
853.107	4930
853.242	4740
853.376	4679
853.511	4584
853.645	4622
853.78	4759
853.914	4691
854.048	4660
854.183	4630
854.317	4725
854.451	4790
854.585	4710
854.72	4611
854.854	4740
854.988	4660
855.122	4660
855.256	4497
855.39	4687
855.524	4805
855.658	4714
855.792	4717
855.926	4752
856.06	4740
856.194	4778
856.327	4656
856.461	4573
856.595	4599
856.729	4603
856.862	4740
856.996	4725
857.13	4710
857.263	4771
857.397	4801
857.53	4660
857.664	4687
857.797	4752
857.931	4763
858.064	4698
858.197	4755
858.331	4664
858.464	4573
858.597	4558
858.731	4630
858.864	4622
858.997	4596
859.13	4637
859.263	4622
859.396	4729
859.529	4577
859.662	4550
859.795	4550
859.928	4634
860.061	4733
860.194	4759
860.327	4615
860.46	4550
860.592	4714
860.725	4725
860.858	4687
860.99	4630
861.123	4504
861.256	4577
861.388	4599
861.521	5318
861.653	4497
861.786	4447
861.918	4478
862.05	4535
862.183	4478
862.315	4596
862.447	4634
862.58	4550
862.712	4394
862.844	4310
862.976	4432
863.108	4417
863.24	4782
863.372	4318
863.504	4398
863.636	4417
863.768	4466
863.9	4398
864.032	4348
864.164	4402
864.296	4485
864.428	4588
864.559	4542
864.691	4508
864.823	4508
864.954	4470
865.086	4489
865.217	4493
865.349	4402
865.48	4386
865.612	4470
865.743	4603
865.875	4462
866.006	4455
866.137	4485
866.269	4455
866.4	4440
866.531	4371
866.662	4398
866.793	4421
866.924	4394
867.055	4497
867.186	4447
867.317	4459
867.448	4405
867.579	4398
867.71	4375
867.841	4341
867.972	4470
868.103	4462
868.233	4459
868.364	4447
868.495	4500
868.625	4664
868.756	4774
868.886	4561
869.017	4637
869.147	4721
869.278	4736
869.408	4653
869.539	4672
869.669	4679
869.799	4675
869.929	4778
870.06	4771
870.19	4892
870.32	4904
870.45	4919
870.58	4999
870.71	5052
870.84	5079
870.97	4938
871.1	4900
871.23	5094
871.36	5090
871.489	5014
871.619	5079
871.749	5090
871.879	5094
872.008	5174
872.138	5052
872.267	4984
872.397	4870
872.526	4778
872.656	4755
872.785	4771
872.915	4919
873.044	5060
873.173	4927
873.303	4930
873.432	4965
873.561	4976
873.69	4870
873.819	4908
873.948	4881
874.077	4839
874.206	4790
874.335	4828
874.464	4919
874.593	5045
874.722	5029
874.851	5079
874.979	5083
875.108	5045
875.237	4889
875.365	4919
875.494	4858
875.623	5037
875.751	4816
875.88	4824
876.008	4946
876.136	5010
876.265	5197
876.393	5330
876.521	5201
876.65	5181
876.778	5159
876.906	5090
877.034	4980
877.162	4987
877.29	4972
877.418	5052
877.546	4999
877.674	5029
877.802	4972
877.93	4991
878.058	4965
878.185	4873
878.313	4972
878.441	4930
878.568	4755
878.696	4820
878.824	4930
878.951	5029
879.079	5018
879.206	5227
879.333	5064
879.461	4991
879.588	4987
879.715	5117
879.842	5223
879.97	5018
880.097	4797
880.224	4767
880.351	4782
880.478	4801
880.605	4782
880.732	4816
880.859	5071
880.986	4927
881.112	4919
881.239	4820
881.366	4626
881.493	4622
881.619	4584
881.746	4577
881.872	4656
881.999	4645
882.125	4672
882.252	4748
882.378	4786
882.505	4934
882.631	4790
882.757	4668
882.883	4710
883.01	4748
883.136	4672
883.262	4569
883.388	4626
883.514	4805
883.64	4850
883.766	4820
883.892	4664
884.018	4687
884.143	4911
884.269	4995
884.395	4660
884.52	4645
884.646	4630
884.772	4615
884.897	4500
885.023	4664
885.148	4744
885.274	4870
885.399	4854
885.524	4744
885.65	4706
885.775	4748
885.9	4733
886.025	4828
886.15	4793
886.275	4725
886.4	4664
886.525	4740
886.65	4702
886.775	4698
886.9	4866
887.025	4999
887.149	4797
887.274	4637
887.399	4618
887.523	4584
887.648	4565
887.773	4596
887.897	4717
888.021	4763
888.146	4653
888.27	4824
888.395	4889
888.519	4771
888.643	4790
888.767	4843
888.891	4710
889.015	4554
889.139	4641
889.263	4649
889.387	4793
889.511	4831
889.635	4793
889.759	4687
889.883	4599
890.006	4725
890.13	4809
890.254	4592
890.377	4691
890.501	4546
890.624	4542
890.748	4645
890.871	4497
890.995	4424
891.118	4417
891.241	4493
891.364	4535
891.488	4656
891.611	4493
891.734	4531
891.857	4599
891.98	4565
892.103	4615
892.226	4599
892.349	4508
892.471	4432
892.594	4550
892.717	4569
892.839	4599
892.962	4603
893.085	4637
893.207	4580
893.33	4466
893.452	4542
893.575	4675
893.697	4573
893.819	4793
893.941	4835
894.064	4774
894.186	4603
894.308	4588
894.43	4733
894.552	4809
894.674	4767
894.796	4516
894.918	4580
895.04	4538
895.161	4664
895.283	4641
895.405	4538
895.526	4649
895.648	4702
895.769	4675
895.891	4736
896.012	4748
896.134	4748
896.255	4679
896.376	4637
896.498	4637
896.619	4675
896.74	4588
896.861	4641
896.982	4946
897.103	5105
897.224	4797
897.345	4710
897.466	4687
897.587	4748
897.708	4820
897.828	4729
897.949	4641
898.07	4573
898.19	4664
898.311	4793
898.431	4691
898.552	4721
898.672	4854
898.792	4805
898.913	4683
899.033	4603
899.153	4512
899.273	4432
899.393	4474
899.513	4565
899.633	4535
899.753	4535
899.873	4497
899.993	4577
900.113	4512
900.232	4577
900.352	4535
900.472	4485
900.591	4348
900.711	4478
900.83	4409
900.95	4626
901.069	4664
901.189	4546
901.308	4344
901.427	4314
901.546	4390
901.665	4417
901.784	4500
901.904	4348
902.023	4299
902.141	4166
902.26	4192
902.379	4276
902.498	4276
902.617	4242
902.735	4402
902.854	4405
902.973	4394
903.091	4192
903.21	4230
903.328	4268
903.446	4272
903.565	4276
903.683	4329
903.801	4287
903.919	4402
904.038	4413
904.156	4295
904.274	4466
904.392	4436
904.51	4356
904.627	4413
904.745	4584
904.863	4607
904.981	4398
905.098	4306
905.216	4417
905.334	4443
905.451	4455
905.569	4481
905.686	4535
905.803	4531
905.921	4417
906.038	4489
906.155	4512
906.272	4424
906.389	4443
906.506	4356
906.623	4371
906.74	4402
906.857	4291
906.974	4318
907.091	4573
907.208	4653
907.324	4584
907.441	4512
907.557	4280
907.674	4295
907.79	4284
907.907	4405
908.023	4443
908.139	4459
908.256	4424
908.372	4447
908.488	4462
908.604	4344
908.72	4337
908.836	4337
908.952	4390
909.068	4459
909.184	4558
909.3	4478
909.415	4565
909.531	4573
909.647	4367
909.762	4405
909.878	4341
909.993	4409
910.108	4394
910.224	4440
910.339	4432
910.454	4390
910.57	4337
910.685	4322
910.8	4626
910.915	4603
911.03	4573
911.145	4284
911.259	4306
911.374	4367
911.489	4287
911.604	4265
911.718	4196
911.833	4211
911.947	4055
912.062	4044
912.176	4166
912.291	4265
912.405	4234
912.519	4508
912.633	4504
912.748	4371
912.862	4329
912.976	4253
913.09	4120
913.204	4177
913.318	4238
913.431	4371
913.545	4394
913.659	4436
913.772	4322
913.886	4246
914	4200
914.113	4405
914.226	4451
914.34	4337
914.453	4238
914.566	4462
914.68	4287
914.793	4348
914.906	4166
915.019	4158
915.132	4093
915.245	4219
915.358	4211
915.47	4265
915.583	4295
915.696	4291
915.809	4428
915.921	4417
916.034	4257
916.146	4280
916.259	4223
916.371	4356
916.483	4371
916.595	4234
916.708	4352
916.82	4329
916.932	4314
917.044	4371
917.156	4325
917.268	4207
917.38	4261
917.491	4280
917.603	4303
917.715	4398
917.826	4413
917.938	4344
918.049	4299
918.161	4405
918.272	4512
918.384	4500
918.495	4443
918.606	4352
918.717	4207
918.828	4272
918.939	4284
919.05	4234
919.161	4344
919.272	4169
919.383	4215
919.494	4436
919.604	4599
919.715	4447
919.826	4363
919.936	4428
920.047	4485
920.157	4493
920.267	4672
920.378	4508
920.488	4474
920.598	4710
920.708	4877
920.818	4736
920.928	4714
921.038	4946
921.148	4919
921.258	4645
921.368	4531
921.477	4470
921.587	4383
921.697	4363
921.806	4516
921.916	4409
922.025	4272
922.134	4223
922.244	4192
922.353	4322
922.462	4150
922.571	4135
922.68	4032
922.789	3964
922.898	4048
923.007	4021
923.116	4074
923.224	4040
923.333	4082
923.442	4010
923.55	3956
923.659	4055
923.767	4120
923.876	4013
923.984	4143
924.092	4002
924.201	4059
924.309	4116
924.417	4139
924.525	3998
924.633	4116
924.741	5041
924.849	3934
924.956	4093
925.064	3972
925.172	3937
925.279	3968
925.387	4017
925.494	4032
925.602	4196
925.709	4177
925.816	4036
925.924	4135
926.031	4211
926.138	4135
926.245	4177
926.352	4082
926.459	4230
926.566	4314
926.673	4112
926.779	4116
926.886	4109
926.993	3964
927.099	3987
927.206	3934
927.312	3926
927.419	4071
927.525	4040
927.631	4090
927.737	3930
927.843	3945
927.95	3850
928.056	3922
928.162	3983
928.267	4025
928.373	4630
928.479	4154
928.585	3861
928.69	4029
928.796	4071
928.901	3956
929.007	3831
929.112	4006
929.218	4032
929.323	3983
929.428	3941
929.533	4128
929.638	3907
929.743	3975
929.848	4013
929.953	4025
930.058	3907
930.163	3774
930.267	3819
930.372	3975
930.477	3804
930.581	4067
930.685	3945
930.79	3797
930.894	3884
930.998	3835
931.103	4044
931.207	3747
931.311	3686
931.415	3720
931.519	3515
931.623	3519
