Data from test_V78500241_1517.txt Node
Date: Fri Mar 25 16:59:32 CST 2022
User: usil
Spectrometer: V785-0024
Trigger mode: 0
Integration Time (sec): 4.000000E-1
Scans to average: 1
Nonlinearity correction enabled: false
Boxcar width: 0
Storing dark spectrum: false
XAxis mode: Wavelengths
Number of Pixels in Spectrum: 1024
>>>>>Begin Spectral Data<<<<<
801.071	8035
801.214	7955
801.356	7841
801.499	7860
801.641	7761
801.783	7833
801.926	7963
802.068	7864
802.211	7963
802.353	7997
802.496	7788
802.638	7833
802.78	7898
802.923	7917
803.065	7875
803.208	7792
803.35	7978
803.492	8001
803.635	8168
803.777	8050
803.919	8164
804.061	8476
804.204	8138
804.346	8027
804.488	7970
804.63	8153
804.773	7989
804.915	8031
805.057	8290
805.199	8153
805.341	8206
805.483	8259
805.626	8202
805.768	8119
805.91	8187
806.052	8210
806.194	8100
806.336	8324
806.478	8073
806.62	8039
806.762	8142
806.904	8298
807.046	8488
807.188	8343
807.33	8279
807.472	8366
807.614	8157
807.756	8107
807.898	8016
808.04	7890
808.182	7887
808.324	7925
808.465	7967
808.607	8096
808.749	8077
808.891	8218
809.033	8229
809.174	8168
809.316	8050
809.458	8073
809.6	7970
809.741	8046
809.883	8069
810.025	8100
810.166	8081
810.308	8084
810.45	8035
810.591	7833
810.733	7742
810.875	7681
811.016	7502
811.158	7453
811.299	7533
811.441	7613
811.582	7670
811.724	7559
811.865	7567
812.007	7540
812.148	7525
812.29	7601
812.431	7757
812.573	7879
812.714	7951
812.855	8062
812.997	8244
813.138	8355
813.279	8176
813.421	8103
813.562	7925
813.703	7852
813.845	7719
813.986	7464
814.127	7266
814.268	7236
814.41	7209
814.551	7133
814.692	7206
814.833	7133
814.974	7065
815.115	7088
815.256	6901
815.397	6924
815.539	6973
815.68	6833
815.821	6776
815.962	6894
816.103	6848
816.244	6760
816.385	6604
816.526	6612
816.666	6509
816.807	6342
816.948	6418
817.089	6395
817.23	6410
817.371	6323
817.512	6334
817.653	6338
817.793	6327
817.934	6391
818.075	6380
818.216	6452
818.356	6407
818.497	6205
818.638	6144
818.778	6133
818.919	6140
819.06	6079
819.2	6331
819.341	6361
819.481	6365
819.622	6509
819.762	6741
819.903	6707
820.043	6513
820.184	6521
820.324	6589
820.465	6669
820.605	6658
820.746	6673
820.886	6551
821.026	6612
821.167	6635
821.307	6787
821.447	6768
821.588	6654
821.728	6490
821.868	6551
822.008	6334
822.149	6334
822.289	6334
822.429	6148
822.569	5999
822.709	6049
822.849	5882
822.99	5893
823.13	5950
823.27	5939
823.41	5771
823.55	5729
823.69	5794
823.83	5802
823.97	5722
824.11	5558
824.25	5535
824.389	5554
824.529	5577
824.669	5474
824.809	5600
824.949	5638
825.089	5676
825.228	5558
825.368	5353
825.508	5288
825.648	5296
825.787	5360
825.927	5376
826.067	5269
826.206	5284
826.346	5421
826.485	5387
826.625	5452
826.765	5554
826.904	5452
827.044	5239
827.183	5212
827.323	5105
827.462	5235
827.601	5147
827.741	5155
827.88	5220
828.02	5155
828.159	5227
828.298	5284
828.437	5341
828.577	5174
828.716	5467
828.855	5288
828.994	5155
829.134	5117
829.273	5197
829.412	5128
829.551	5140
829.69	5159
829.829	5212
829.968	5349
830.107	5265
830.246	5239
830.385	5204
830.524	5140
830.663	5041
830.802	4957
830.941	4866
831.08	4904
831.219	4938
831.357	4984
831.496	5181
831.635	4915
831.774	4862
831.913	4797
832.051	4721
832.19	4771
832.329	4873
832.467	4691
832.606	4615
832.744	4725
832.883	4691
833.022	4729
833.16	4809
833.299	4805
833.437	4835
833.576	4809
833.714	4847
833.852	4809
833.991	4866
834.129	4972
834.267	4930
834.406	4881
834.544	4965
834.682	4976
834.821	4976
834.959	5174
835.097	4984
835.235	5147
835.373	5018
835.511	5079
835.65	5025
835.788	5041
835.926	4847
836.064	4889
836.202	4908
836.34	5113
836.478	5227
836.615	5121
836.753	5162
836.891	5265
837.029	5223
837.167	5204
837.305	5174
837.443	5094
837.58	5045
837.718	5258
837.856	5166
837.993	5128
838.131	5189
838.269	5201
838.406	5181
838.544	5178
838.681	5060
838.819	5006
838.956	4866
839.094	4953
839.231	4984
839.369	5071
839.506	5421
839.643	5239
839.781	5086
839.918	4987
840.055	5117
840.193	5003
840.33	5071
840.467	5136
840.604	5178
840.742	5383
840.879	5109
841.016	5025
841.153	5117
841.29	5383
841.427	5292
841.564	5330
841.701	5311
841.838	5280
841.975	5235
842.112	5296
842.249	5121
842.385	5098
842.522	5326
842.659	5181
842.796	5124
842.933	5216
843.069	5098
843.206	5166
843.343	5269
843.479	5239
843.616	5208
843.752	4980
843.889	4968
844.025	5178
844.162	5022
844.298	5201
844.435	5067
844.571	5003
844.708	5166
844.844	5292
844.98	5322
845.117	5239
845.253	5102
845.389	5083
845.525	5208
845.661	5105
845.798	5022
845.934	5140
846.07	5048
846.206	5201
846.342	5242
846.478	5159
846.614	4968
846.75	4938
846.886	4946
847.022	5185
847.158	4987
847.294	5060
847.429	5113
847.565	5052
847.701	5265
847.837	4889
847.972	4831
848.108	4877
848.244	4866
848.379	4809
848.515	4694
848.65	4744
848.786	4725
848.921	4774
849.057	4877
849.192	4881
849.328	4809
849.463	4862
849.598	4778
849.734	4721
849.869	4710
850.004	4622
850.14	4694
850.275	4599
850.41	4531
850.545	4512
850.68	4603
850.815	4573
850.95	4626
851.085	4809
851.22	4752
851.355	4679
851.49	4599
851.625	4599
851.76	4649
851.895	4573
852.03	4516
852.165	4653
852.299	4660
852.434	4721
852.569	4744
852.703	4733
852.838	4782
852.973	4915
853.107	4892
853.242	4702
853.376	4691
853.511	4504
853.645	4558
853.78	4774
853.914	4714
854.048	4679
854.183	4599
854.317	4714
854.451	4805
854.585	4653
854.72	4626
854.854	4733
854.988	4550
855.122	4596
855.256	4485
855.39	4615
855.524	4736
855.658	4706
855.792	4725
855.926	4714
856.06	4733
856.194	4740
856.327	4710
856.461	4592
856.595	4584
856.729	4607
856.862	4706
856.996	4645
857.13	4721
857.263	4679
857.397	4812
857.53	4618
857.664	4714
857.797	4748
857.931	4771
858.064	4672
858.197	4729
858.331	4622
858.464	4660
858.597	4535
858.731	4626
858.864	4641
858.997	4596
859.13	4672
859.263	4618
859.396	4763
859.529	4577
859.662	4569
859.795	4523
859.928	4649
860.061	4767
860.194	4771
860.327	4607
860.46	4500
860.592	4683
860.725	4687
860.858	4702
860.99	4561
861.123	4485
861.256	4489
861.388	4615
861.521	5277
861.653	4470
861.786	4390
861.918	4451
862.05	4478
862.183	4584
862.315	4603
862.447	4641
862.58	4508
862.712	4375
862.844	4303
862.976	4451
863.108	4413
863.24	4759
863.372	4337
863.504	4405
863.636	4451
863.768	4508
863.9	4421
864.032	4333
864.164	4432
864.296	4451
864.428	4542
864.559	4493
864.691	4554
864.823	4466
864.954	4451
865.086	4519
865.217	4440
865.349	4402
865.48	4440
865.612	4470
865.743	4622
865.875	4516
866.006	4417
866.137	4493
866.269	4424
866.4	4447
866.531	4405
866.662	4383
866.793	4390
866.924	4428
867.055	4440
867.186	4402
867.317	4443
867.448	4394
867.579	4379
867.71	4383
867.841	4371
867.972	4470
868.103	4436
868.233	4459
868.364	4424
868.495	4436
868.625	4679
868.756	4706
868.886	4508
869.017	4584
869.147	4771
869.278	4710
869.408	4660
869.539	4649
869.669	4702
869.799	4634
869.929	4733
870.06	4740
870.19	4934
870.32	4927
870.45	4965
870.58	5014
870.71	5079
870.84	5067
870.97	4923
871.1	4911
871.23	5124
871.36	5109
871.489	5018
871.619	5079
871.749	5041
871.879	5079
872.008	5201
872.138	5022
872.267	5003
872.397	4873
872.526	4809
872.656	4763
872.785	4774
872.915	4930
873.044	5071
873.173	4911
873.303	4908
873.432	5014
873.561	4919
873.69	4881
873.819	4858
873.948	4908
874.077	4801
874.206	4790
874.335	4774
874.464	4938
874.593	5033
874.722	4923
874.851	5079
874.979	5010
875.108	5041
875.237	4892
875.365	4877
875.494	4923
875.623	4987
875.751	4843
875.88	4850
876.008	4919
876.136	5029
876.265	5185
876.393	5330
876.521	5227
876.65	5159
876.778	5132
876.906	5067
877.034	5022
877.162	4987
877.29	4965
877.418	5048
877.546	5041
877.674	4999
877.802	4999
877.93	5033
878.058	4953
878.185	4854
878.313	4953
878.441	4946
878.568	4797
878.696	4873
878.824	4972
878.951	4972
879.079	5113
879.206	5277
879.333	5086
879.461	4968
879.588	4991
879.715	5090
879.842	5220
879.97	4999
880.097	4759
880.224	4774
880.351	4816
880.478	4839
880.605	4767
880.732	4831
880.859	5083
880.986	4881
881.112	4911
881.239	4771
881.366	4672
881.493	4634
881.619	4599
881.746	4637
881.872	4615
881.999	4634
882.125	4702
882.252	4790
882.378	4816
882.505	4949
882.631	4786
882.757	4691
882.883	4736
883.01	4725
883.136	4672
883.262	4630
883.388	4664
883.514	4740
883.64	4771
883.766	4782
883.892	4687
884.018	4691
884.143	4881
884.269	5014
884.395	4645
884.52	4588
884.646	4653
884.772	4618
884.897	4580
885.023	4668
885.148	4820
885.274	4900
885.399	4816
885.524	4736
885.65	4748
885.775	4744
885.9	4672
886.025	4850
886.15	4786
886.275	4694
886.4	4656
886.525	4698
886.65	4660
886.775	4675
886.9	4900
887.025	5041
887.149	4797
887.274	4656
887.399	4622
887.523	4592
887.648	4588
887.773	4565
887.897	4710
888.021	4809
888.146	4683
888.27	4820
888.395	4934
888.519	4755
888.643	4771
888.767	4805
888.891	4725
889.015	4592
889.139	4618
889.263	4603
889.387	4725
889.511	4839
889.635	4778
889.759	4622
889.883	4599
890.006	4740
890.13	4748
890.254	4645
890.377	4664
890.501	4493
890.624	4497
890.748	4599
890.871	4516
890.995	4421
891.118	4375
891.241	4508
891.364	4558
891.488	4649
891.611	4504
891.734	4588
891.857	4584
891.98	4573
892.103	4558
892.226	4596
892.349	4508
892.471	4413
892.594	4508
892.717	4588
892.839	4558
892.962	4588
893.085	4717
893.207	4561
893.33	4421
893.452	4504
893.575	4664
893.697	4558
893.819	4755
893.941	4858
894.064	4740
894.186	4561
894.308	4550
894.43	4755
894.552	4847
894.674	4717
894.796	4535
894.918	4634
895.04	4577
895.161	4755
895.283	4717
895.405	4554
895.526	4618
895.648	4668
895.769	4664
895.891	4752
896.012	4733
896.134	4691
896.255	4645
896.376	4645
896.498	4573
896.619	4664
896.74	4554
896.861	4584
896.982	4900
897.103	5105
897.224	4824
897.345	4729
897.466	4725
897.587	4710
897.708	4870
897.828	4740
897.949	4691
898.07	4561
898.19	4649
898.311	4839
898.431	4702
898.552	4691
898.672	4767
898.792	4786
898.913	4740
899.033	4626
899.153	4500
899.273	4432
899.393	4455
899.513	4462
899.633	4516
899.753	4535
899.873	4443
899.993	4615
900.113	4542
900.232	4554
900.352	4535
900.472	4527
900.591	4367
900.711	4462
900.83	4398
900.95	4580
901.069	4729
901.189	4558
901.308	4341
901.427	4299
901.546	4375
901.665	4489
901.784	4500
901.904	4356
902.023	4333
902.141	4200
902.26	4131
902.379	4314
902.498	4238
902.617	4234
902.735	4314
902.854	4409
902.973	4337
903.091	4200
903.21	4207
903.328	4253
903.446	4246
903.565	4299
903.683	4379
903.801	4303
903.919	4428
904.038	4432
904.156	4325
904.274	4424
904.392	4417
904.51	4421
904.627	4474
904.745	4580
904.863	4660
904.981	4386
905.098	4272
905.216	4348
905.334	4398
905.451	4409
905.569	4421
905.686	4599
905.803	4550
905.921	4417
906.038	4512
906.155	4470
906.272	4398
906.389	4451
906.506	4341
906.623	4360
906.74	4409
906.857	4261
906.974	4383
907.091	4554
907.208	4630
907.324	4580
907.441	4500
907.557	4333
907.674	4409
907.79	4352
907.907	4371
908.023	4466
908.139	4485
908.256	4398
908.372	4466
908.488	4512
908.604	4379
908.72	4325
908.836	4363
908.952	4356
909.068	4413
909.184	4577
909.3	4462
909.415	4565
909.531	4512
909.647	4398
909.762	4352
909.878	4341
909.993	4375
910.108	4405
910.224	4417
910.339	4462
910.454	4394
910.57	4405
910.685	4272
910.8	4672
910.915	4611
911.03	4481
911.145	4341
911.259	4322
911.374	4344
911.489	4295
911.604	4272
911.718	4139
911.833	4181
911.947	4112
912.062	4036
912.176	4200
912.291	4257
912.405	4207
912.519	4447
912.633	4512
912.748	4379
912.862	4318
912.976	4188
913.09	4128
913.204	4185
913.318	4234
913.431	4333
913.545	4371
913.659	4440
913.772	4367
913.886	4253
914	4173
914.113	4383
914.226	4451
914.34	4413
914.453	4261
914.566	4436
914.68	4280
914.793	4306
914.906	4116
915.019	4097
915.132	4055
915.245	4120
915.358	4192
915.47	4261
915.583	4265
915.696	4322
915.809	4440
915.921	4417
916.034	4261
916.146	4249
916.259	4280
916.371	4329
916.483	4341
916.595	4249
916.708	4318
916.82	4322
916.932	4284
917.044	4306
917.156	4322
917.268	4215
917.38	4268
917.491	4268
917.603	4337
917.715	4405
917.826	4394
917.938	4375
918.049	4227
918.161	4413
918.272	4550
918.384	4565
918.495	4436
918.606	4295
918.717	4261
918.828	4348
918.939	4325
919.05	4261
919.161	4261
919.272	4135
919.383	4211
919.494	4390
919.604	4630
919.715	4451
919.826	4348
919.936	4421
920.047	4512
920.157	4519
920.267	4668
920.378	4523
920.488	4508
920.598	4748
920.708	4862
920.818	4774
920.928	4740
921.038	4957
921.148	4900
921.258	4653
921.368	4573
921.477	4481
921.587	4455
921.697	4363
921.806	4493
921.916	4379
922.025	4242
922.134	4265
922.244	4196
922.353	4322
922.462	4162
922.571	4086
922.68	4010
922.789	3926
922.898	4044
923.007	4002
923.116	4109
923.224	4082
923.333	4078
923.442	3953
923.55	3964
923.659	4021
923.767	4097
923.876	4006
923.984	4086
924.092	3998
924.201	4090
924.309	4078
924.417	4112
924.525	4044
924.633	4116
924.741	4831
924.849	3907
924.956	4116
925.064	3968
925.172	3899
925.279	3960
925.387	4055
925.494	4082
925.602	4185
925.709	4188
925.816	4036
925.924	4131
926.031	4253
926.138	4181
926.245	4188
926.352	4074
926.459	4219
926.566	4322
926.673	4143
926.779	4101
926.886	4036
926.993	3991
927.099	4006
927.206	3934
927.312	3941
927.419	4029
927.525	4010
927.631	4067
927.737	3956
927.843	3873
927.95	3857
928.056	3960
928.162	3972
928.267	4059
928.373	4596
928.479	4109
928.585	3846
928.69	3983
928.796	4059
928.901	3960
929.007	3842
929.112	3994
929.218	3964
929.323	3911
929.428	3915
929.533	4063
929.638	3880
929.743	3949
929.848	4048
929.953	3983
930.058	3960
930.163	3747
930.267	3861
930.372	3991
930.477	3816
930.581	4093
930.685	3960
930.79	3770
930.894	3896
930.998	3808
931.103	4048
931.207	3720
931.311	3747
931.415	3694
931.519	3523
931.623	3511
