Data from test_V78500241_119.txt Node
Date: Fri Mar 25 16:49:49 CST 2022
User: usil
Spectrometer: V785-0024
Trigger mode: 0
Integration Time (sec): 4.000000E-1
Scans to average: 1
Nonlinearity correction enabled: false
Boxcar width: 0
Storing dark spectrum: false
XAxis mode: Wavelengths
Number of Pixels in Spectrum: 1024
>>>>>Begin Spectral Data<<<<<
801.071	8142
801.214	8043
801.356	7921
801.499	7925
801.641	7841
801.783	7864
801.926	8039
802.068	8035
802.211	8024
802.353	8050
802.496	7955
802.638	7989
802.78	7955
802.923	7970
803.065	7860
803.208	7807
803.35	7921
803.492	8092
803.635	8176
803.777	7951
803.919	8107
804.061	8366
804.204	8077
804.346	8024
804.488	7913
804.63	8073
804.773	8043
804.915	8111
805.057	8218
805.199	8130
805.341	8214
805.483	8229
805.626	8199
805.768	8096
805.91	8180
806.052	8244
806.194	8092
806.336	8282
806.478	8115
806.62	8069
806.762	8218
806.904	8298
807.046	8454
807.188	8358
807.33	8282
807.472	8317
807.614	8111
807.756	8081
807.898	7978
808.04	7963
808.182	7970
808.324	7887
808.465	7913
808.607	8043
808.749	8069
808.891	8256
809.033	8355
809.174	8206
809.316	8035
809.458	8024
809.6	7928
809.741	8092
809.883	8046
810.025	8039
810.166	8138
810.308	8084
810.45	8020
810.591	7906
810.733	7765
810.875	7734
811.016	7624
811.158	7476
811.299	7643
811.441	7890
811.582	7753
811.724	7681
811.865	7586
812.007	7628
812.148	7658
812.29	7658
812.431	7811
812.573	7906
812.714	8065
812.855	8229
812.997	8343
813.138	8408
813.279	8305
813.421	8195
813.562	8035
813.703	7856
813.845	7765
813.986	7445
814.127	7335
814.268	7232
814.41	7255
814.551	7202
814.692	7247
814.833	7152
814.974	7217
815.115	7133
815.256	7091
815.397	6935
815.539	6985
815.68	6821
815.821	6798
815.962	6913
816.103	6844
816.244	6795
816.385	6662
816.526	6623
816.666	6551
816.807	6388
816.948	6422
817.089	6536
817.23	6506
817.371	6475
817.512	6403
817.653	6426
817.793	6391
817.934	6517
818.075	6502
818.216	6448
818.356	6452
818.497	6216
818.638	6117
818.778	6140
818.919	6194
819.06	6167
819.2	6300
819.341	6338
819.481	6380
819.622	6563
819.762	6814
819.903	6749
820.043	6635
820.184	6597
820.324	6616
820.465	6734
820.605	6658
820.746	6692
820.886	6544
821.026	6684
821.167	6764
821.307	6856
821.447	6734
821.588	6700
821.728	6642
821.868	6502
822.008	6372
822.149	6433
822.289	6414
822.429	6182
822.569	6117
822.709	6175
822.849	5935
822.99	5958
823.13	5980
823.27	6015
823.41	5870
823.55	5855
823.69	5786
823.83	5851
823.97	5714
824.11	5596
824.25	5570
824.389	5638
824.529	5592
824.669	5630
824.809	5695
824.949	5661
825.089	5676
825.228	5623
825.368	5436
825.508	5444
825.648	5429
825.787	5467
825.927	5421
826.067	5383
826.206	5349
826.346	5433
826.485	5448
826.625	5452
826.765	5585
826.904	5547
827.044	5318
827.183	5265
827.323	5136
827.462	5318
827.601	5231
827.741	5220
827.88	5299
828.02	5208
828.159	5318
828.298	5353
828.437	5425
828.577	5303
828.716	5520
828.855	5395
828.994	5235
829.134	5166
829.273	5246
829.412	5193
829.551	5201
829.69	5258
829.829	5288
829.968	5463
830.107	5357
830.246	5330
830.385	5261
830.524	5246
830.663	5147
830.802	5060
830.941	4930
831.08	4984
831.219	5033
831.357	5033
831.496	5178
831.635	4972
831.774	4938
831.913	4927
832.051	4862
832.19	4790
832.329	4870
832.467	4774
832.606	4683
832.744	4801
832.883	4812
833.022	4797
833.16	4835
833.299	4915
833.437	4854
833.576	4934
833.714	4919
833.852	4934
833.991	4987
834.129	4991
834.267	4976
834.406	4953
834.544	5037
834.682	5041
834.821	5010
834.959	5189
835.097	5037
835.235	5250
835.373	5140
835.511	5204
835.65	5045
835.788	5136
835.926	4923
836.064	4946
836.202	4957
836.34	5212
836.478	5299
836.615	5174
836.753	5303
836.891	5334
837.029	5315
837.167	5227
837.305	5181
837.443	5242
837.58	5136
837.718	5311
837.856	5280
837.993	5178
838.131	5292
838.269	5280
838.406	5258
838.544	5311
838.681	5090
838.819	5075
838.956	4976
839.094	4968
839.231	5010
839.369	5147
839.506	5436
839.643	5357
839.781	5113
839.918	5086
840.055	5178
840.193	5132
840.33	5166
840.467	5170
840.604	5280
840.742	5501
840.879	5174
841.016	5181
841.153	5185
841.29	5402
841.427	5444
841.564	5398
841.701	5402
841.838	5334
841.975	5326
842.112	5315
842.249	5166
842.385	5124
842.522	5387
842.659	5208
842.796	5227
842.933	5246
843.069	5151
843.206	5178
843.343	5303
843.479	5284
843.616	5337
843.752	5102
843.889	5048
844.025	5265
844.162	5052
844.298	5254
844.435	5174
844.571	5071
844.708	5178
844.844	5414
844.98	5406
845.117	5345
845.253	5208
845.389	5140
845.525	5201
845.661	5220
845.798	5117
845.934	5170
846.07	5124
846.206	5220
846.342	5349
846.478	5201
846.614	5079
846.75	5060
846.886	5006
847.022	5204
847.158	5045
847.294	5121
847.429	5151
847.565	5128
847.701	5410
847.837	4938
847.972	4858
848.108	4999
848.244	4984
848.379	4816
848.515	4759
848.65	4786
848.786	4820
848.921	4831
849.057	4923
849.192	4987
849.328	4847
849.463	4961
849.598	4862
849.734	4812
849.869	4759
850.004	4717
850.14	4702
850.275	4634
850.41	4592
850.545	4653
850.68	4668
850.815	4653
850.95	4672
851.085	4927
851.22	4774
851.355	4767
851.49	4691
851.625	4653
851.76	4672
851.895	4561
852.03	4580
852.165	4687
852.299	4740
852.434	4862
852.569	4790
852.703	4850
852.838	4904
852.973	4980
853.107	4949
853.242	4755
853.376	4691
853.511	4660
853.645	4653
853.78	4835
853.914	4675
854.048	4748
854.183	4706
854.317	4740
854.451	4873
854.585	4706
854.72	4675
854.854	4831
854.988	4691
855.122	4660
855.256	4607
855.39	4706
855.524	4831
855.658	4805
855.792	4714
855.926	4809
856.06	4797
856.194	4843
856.327	4790
856.461	4637
856.595	4656
856.729	4702
856.862	4736
856.996	4752
857.13	4801
857.263	4786
857.397	4870
857.53	4710
857.664	4782
857.797	4812
857.931	4866
858.064	4714
858.197	4824
858.331	4675
858.464	4634
858.597	4538
858.731	4660
858.864	4679
858.997	4630
859.13	4763
859.263	4710
859.396	4706
859.529	4649
859.662	4592
859.795	4580
859.928	4664
860.061	4778
860.194	4801
860.327	4668
860.46	4573
860.592	4755
860.725	4755
860.858	4782
860.99	4622
861.123	4561
861.256	4592
861.388	4660
861.521	5398
861.653	4523
861.786	4508
861.918	4504
862.05	4577
862.183	4630
862.315	4634
862.447	4729
862.58	4626
862.712	4440
862.844	4413
862.976	4538
863.108	4519
863.24	4953
863.372	4383
863.504	4470
863.636	4478
863.768	4542
863.9	4527
864.032	4424
864.164	4462
864.296	4523
864.428	4561
864.559	4531
864.691	4516
864.823	4573
864.954	4500
865.086	4565
865.217	4500
865.349	4462
865.48	4485
865.612	4504
865.743	4710
865.875	4523
866.006	4497
866.137	4542
866.269	4497
866.4	4478
866.531	4432
866.662	4402
866.793	4478
866.924	4459
867.055	4550
867.186	4519
867.317	4462
867.448	4409
867.579	4455
867.71	4474
867.841	4421
867.972	4497
868.103	4493
868.233	4489
868.364	4481
868.495	4535
868.625	4672
868.756	4843
868.886	4550
869.017	4645
869.147	4824
869.278	4812
869.408	4698
869.539	4744
869.669	4793
869.799	4721
869.929	4820
870.06	4831
870.19	5010
870.32	4980
870.45	4972
870.58	5045
870.71	5105
870.84	5121
870.97	4987
871.1	4923
871.23	5231
871.36	5178
871.489	5071
871.619	5136
871.749	5128
871.879	5239
872.008	5250
872.138	5102
872.267	4999
872.397	4892
872.526	4812
872.656	4805
872.785	4835
872.915	4995
873.044	5045
873.173	4987
873.303	5010
873.432	4965
873.561	5022
873.69	4885
873.819	4946
873.948	4999
874.077	4839
874.206	4820
874.335	4812
874.464	4946
874.593	5079
874.722	4946
874.851	5136
874.979	5067
875.108	5056
875.237	4938
875.365	4911
875.494	4919
875.623	5018
875.751	4843
875.88	4889
876.008	5029
876.136	5045
876.265	5254
876.393	5383
876.521	5258
876.65	5242
876.778	5227
876.906	5128
877.034	5060
877.162	5048
877.29	5041
877.418	5064
877.546	5098
877.674	5079
877.802	5025
877.93	5079
878.058	4949
878.185	4927
878.313	5037
878.441	5033
878.568	4790
878.696	4870
878.824	4961
878.951	5090
879.079	5212
879.206	5307
879.333	5143
879.461	5067
879.588	5071
879.715	5136
879.842	5299
879.97	5056
880.097	4862
880.224	4835
880.351	4908
880.478	4866
880.605	4873
880.732	4835
880.859	5136
880.986	4930
881.112	4949
881.239	4797
881.366	4778
881.493	4641
881.619	4592
881.746	4675
881.872	4656
881.999	4679
882.125	4702
882.252	4816
882.378	4881
882.505	4980
882.631	4831
882.757	4733
882.883	4790
883.01	4759
883.136	4714
883.262	4626
883.388	4668
883.514	4824
883.64	4885
883.766	4854
883.892	4714
884.018	4740
884.143	4877
884.269	5022
884.395	4694
884.52	4691
884.646	4653
884.772	4626
884.897	4626
885.023	4698
885.148	4831
885.274	4900
885.399	4820
885.524	4736
885.65	4740
885.775	4790
885.9	4740
886.025	4885
886.15	4831
886.275	4683
886.4	4656
886.525	4763
886.65	4717
886.775	4706
886.9	5006
887.025	5109
887.149	4866
887.274	4660
887.399	4577
887.523	4641
887.648	4637
887.773	4599
887.897	4790
888.021	4835
888.146	4729
888.27	4767
888.395	4946
888.519	4812
888.643	4858
888.767	4866
888.891	4687
889.015	4660
889.139	4679
889.263	4637
889.387	4782
889.511	4915
889.635	4850
889.759	4721
889.883	4694
890.006	4755
890.13	4854
890.254	4675
890.377	4755
890.501	4550
890.624	4599
890.748	4672
890.871	4584
890.995	4436
891.118	4432
891.241	4519
891.364	4565
891.488	4664
891.611	4535
891.734	4527
891.857	4592
891.98	4580
892.103	4755
892.226	4577
892.349	4569
892.471	4402
892.594	4554
892.717	4656
892.839	4588
892.962	4607
893.085	4679
893.207	4611
893.33	4493
893.452	4550
893.575	4683
893.697	4588
893.819	4850
893.941	4881
894.064	4831
894.186	4618
894.308	4596
894.43	4740
894.552	4824
894.674	4725
894.796	4519
894.918	4641
895.04	4592
895.161	4736
895.283	4721
895.405	4577
895.526	4664
895.648	4729
895.769	4721
895.891	4725
896.012	4824
896.134	4774
896.255	4683
896.376	4675
896.498	4653
896.619	4721
896.74	4615
896.861	4694
896.982	4987
897.103	5105
897.224	4870
897.345	4782
897.466	4687
897.587	4691
897.708	4938
897.828	4828
897.949	4725
898.07	4618
898.19	4683
898.311	4862
898.431	4721
898.552	4763
898.672	4862
898.792	4824
898.913	4797
899.033	4683
899.153	4573
899.273	4409
899.393	4554
899.513	4607
899.633	4546
899.753	4577
899.873	4535
899.993	4603
900.113	4565
900.232	4596
900.352	4611
900.472	4512
900.591	4436
900.711	4550
900.83	4451
900.95	4573
901.069	4702
901.189	4523
901.308	4371
901.427	4394
901.546	4386
901.665	4462
901.784	4554
901.904	4424
902.023	4386
902.141	4196
902.26	4219
902.379	4287
902.498	4192
902.617	4272
902.735	4360
902.854	4489
902.973	4394
903.091	4272
903.21	4230
903.328	4325
903.446	4253
903.565	4310
903.683	4390
903.801	4352
903.919	4440
904.038	4440
904.156	4299
904.274	4493
904.392	4455
904.51	4508
904.627	4527
904.745	4622
904.863	4721
904.981	4405
905.098	4322
905.216	4333
905.334	4443
905.451	4474
905.569	4462
905.686	4573
905.803	4645
905.921	4440
906.038	4554
906.155	4481
906.272	4405
906.389	4497
906.506	4383
906.623	4390
906.74	4394
906.857	4348
906.974	4383
907.091	4580
907.208	4694
907.324	4584
907.441	4523
907.557	4344
907.674	4367
907.79	4268
907.907	4440
908.023	4538
908.139	4489
908.256	4466
908.372	4531
908.488	4459
908.604	4341
908.72	4344
908.836	4405
908.952	4421
909.068	4447
909.184	4622
909.3	4519
909.415	4634
909.531	4599
909.647	4348
909.762	4417
909.878	4390
909.993	4497
910.108	4424
910.224	4421
910.339	4493
910.454	4440
910.57	4398
910.685	4322
910.8	4679
910.915	4607
911.03	4523
911.145	4348
911.259	4341
911.374	4417
911.489	4322
911.604	4314
911.718	4230
911.833	4253
911.947	4097
912.062	4067
912.176	4295
912.291	4287
912.405	4249
912.519	4485
912.633	4527
912.748	4386
912.862	4306
912.976	4223
913.09	4139
913.204	4196
913.318	4253
913.431	4421
913.545	4398
913.659	4508
913.772	4371
913.886	4268
914	4276
914.113	4363
914.226	4474
914.34	4428
914.453	4261
914.566	4436
914.68	4318
914.793	4356
914.906	4173
915.019	4112
915.132	4143
915.245	4196
915.358	4253
915.47	4246
915.583	4295
915.696	4344
915.809	4417
915.921	4459
916.034	4249
916.146	4238
916.259	4230
916.371	4402
916.483	4394
916.595	4268
916.708	4379
916.82	4367
916.932	4337
917.044	4360
917.156	4383
917.268	4219
917.38	4314
917.491	4306
917.603	4386
917.715	4462
917.826	4504
917.938	4344
918.049	4265
918.161	4455
918.272	4538
918.384	4584
918.495	4466
918.606	4299
918.717	4268
918.828	4352
918.939	4390
919.05	4242
919.161	4337
919.272	4154
919.383	4280
919.494	4474
919.604	4660
919.715	4447
919.826	4409
919.936	4405
920.047	4512
920.157	4512
920.267	4740
920.378	4588
920.488	4554
920.598	4736
920.708	4873
920.818	4771
920.928	4828
921.038	4984
921.148	4900
921.258	4634
921.368	4580
921.477	4523
921.587	4474
921.697	4383
921.806	4603
921.916	4489
922.025	4295
922.134	4318
922.244	4280
922.353	4341
922.462	4261
922.571	4135
922.68	3991
922.789	3960
922.898	4082
923.007	4040
923.116	4082
923.224	4093
923.333	4086
923.442	4013
923.55	3979
923.659	4044
923.767	4131
923.876	4002
923.984	4185
924.092	3964
924.201	4139
924.309	4074
924.417	4139
924.525	4078
924.633	4093
924.741	4930
924.849	3918
924.956	4143
925.064	3972
925.172	3956
925.279	3972
925.387	4017
925.494	4074
925.602	4223
925.709	4211
925.816	4048
925.924	4162
926.031	4215
926.138	4181
926.245	4219
926.352	4067
926.459	4265
926.566	4329
926.673	4169
926.779	4131
926.886	4101
926.993	3956
927.099	3979
927.206	3949
927.312	3953
927.419	4128
927.525	4067
927.631	4150
927.737	3991
927.843	3945
927.95	3854
928.056	3979
928.162	4002
928.267	4071
928.373	4592
928.479	4173
928.585	3915
928.69	4044
928.796	4124
928.901	3979
929.007	3850
929.112	4006
929.218	3987
929.323	3949
929.428	3975
929.533	4185
929.638	3899
929.743	3987
929.848	4063
929.953	4017
930.058	3972
930.163	3800
930.267	3838
930.372	4006
930.477	3804
930.581	4086
930.685	3930
930.79	3835
930.894	3903
930.998	3907
931.103	4036
931.207	3747
931.311	3682
931.415	3671
931.519	3538
931.623	3553
