Data from test_V78500241_1562.txt Node
Date: Fri Mar 25 16:59:51 CST 2022
User: usil
Spectrometer: V785-0024
Trigger mode: 0
Integration Time (sec): 4.000000E-1
Scans to average: 1
Nonlinearity correction enabled: false
Boxcar width: 0
Storing dark spectrum: false
XAxis mode: Wavelengths
Number of Pixels in Spectrum: 1024
>>>>>Begin Spectral Data<<<<<
801.071	7970
801.214	8031
801.356	7883
801.499	7868
801.641	7780
801.783	7875
801.926	7970
802.068	7959
802.211	7940
802.353	7879
802.496	7826
802.638	7849
802.78	7879
802.923	7890
803.065	7921
803.208	7898
803.35	7940
803.492	8016
803.635	8107
803.777	7974
803.919	8172
804.061	8465
804.204	8161
804.346	8077
804.488	7997
804.63	8050
804.773	8069
804.915	8092
805.057	8290
805.199	8161
805.341	8157
805.483	8225
805.626	8206
805.768	8145
805.91	8202
806.052	8111
806.194	8081
806.336	8282
806.478	8043
806.62	8012
806.762	8202
806.904	8309
807.046	8545
807.188	8393
807.33	8244
807.472	8355
807.614	8202
807.756	8149
807.898	7955
808.04	7826
808.182	7944
808.324	7814
808.465	7909
808.607	8111
808.749	8100
808.891	8191
809.033	8301
809.174	8180
809.316	8073
809.458	8062
809.6	7970
809.741	8001
809.883	8043
810.025	8054
810.166	8031
810.308	7970
810.45	7989
810.591	7772
810.733	7708
810.875	7662
811.016	7476
811.158	7476
811.299	7544
811.441	7685
811.582	7674
811.724	7506
811.865	7533
812.007	7575
812.148	7521
812.29	7586
812.431	7719
812.573	7902
812.714	7936
812.855	8115
812.997	8233
813.138	8313
813.279	8187
813.421	8046
813.562	7978
813.703	7811
813.845	7761
813.986	7411
814.127	7190
814.268	7183
814.41	7171
814.551	7198
814.692	7190
814.833	7088
814.974	7129
815.115	7110
815.256	6985
815.397	6905
815.539	6875
815.68	6821
815.821	6764
815.962	6863
816.103	6764
816.244	6700
816.385	6620
816.526	6574
816.666	6464
816.807	6296
816.948	6494
817.089	6445
817.23	6410
817.371	6429
817.512	6395
817.653	6410
817.793	6353
817.934	6365
818.075	6456
818.216	6460
818.356	6414
818.497	6224
818.638	6110
818.778	6144
818.919	6083
819.06	6209
819.2	6319
819.341	6350
819.481	6353
819.622	6601
819.762	6715
819.903	6741
820.043	6616
820.184	6559
820.324	6566
820.465	6692
820.605	6688
820.746	6566
820.886	6521
821.026	6658
821.167	6715
821.307	6730
821.447	6760
821.588	6623
821.728	6536
821.868	6426
822.008	6258
822.149	6369
822.289	6346
822.429	6129
822.569	6102
822.709	6197
822.849	5897
822.99	5870
823.13	5931
823.27	5878
823.41	5783
823.55	5729
823.69	5722
823.83	5764
823.97	5619
824.11	5512
824.25	5493
824.389	5505
824.529	5585
824.669	5539
824.809	5558
824.949	5649
825.089	5589
825.228	5543
825.368	5299
825.508	5311
825.648	5353
825.787	5341
825.927	5341
826.067	5277
826.206	5296
826.346	5379
826.485	5406
826.625	5421
826.765	5520
826.904	5436
827.044	5223
827.183	5174
827.323	5124
827.462	5212
827.601	5189
827.741	5220
827.88	5197
828.02	5117
828.159	5250
828.298	5250
828.437	5318
828.577	5296
828.716	5455
828.855	5311
828.994	5170
829.134	5124
829.273	5162
829.412	5185
829.551	5105
829.69	5162
829.829	5273
829.968	5391
830.107	5246
830.246	5254
830.385	5178
830.524	5159
830.663	5045
830.802	4984
830.941	4889
831.08	4858
831.219	4976
831.357	4953
831.496	5140
831.635	4938
831.774	4862
831.913	4828
832.051	4660
832.19	4729
832.329	4862
832.467	4653
832.606	4596
832.744	4725
832.883	4710
833.022	4710
833.16	4729
833.299	4793
833.437	4801
833.576	4812
833.714	4858
833.852	4843
833.991	4881
834.129	4946
834.267	4904
834.406	4942
834.544	4953
834.682	4927
834.821	4938
834.959	5128
835.097	4934
835.235	5124
835.373	5048
835.511	5086
835.65	5060
835.788	5006
835.926	4877
836.064	4854
836.202	4934
836.34	5143
836.478	5204
836.615	5117
836.753	5220
836.891	5258
837.029	5277
837.167	5174
837.305	5166
837.443	5147
837.58	5083
837.718	5220
837.856	5189
837.993	5147
838.131	5227
838.269	5193
838.406	5151
838.544	5147
838.681	5022
838.819	4972
838.956	4904
839.094	4858
839.231	5003
839.369	5147
839.506	5406
839.643	5265
839.781	5052
839.918	5025
840.055	5086
840.193	5113
840.33	5067
840.467	5128
840.604	5189
840.742	5410
840.879	5052
841.016	5083
841.153	5197
841.29	5349
841.427	5299
841.564	5269
841.701	5395
841.838	5212
841.975	5197
842.112	5261
842.249	5109
842.385	5037
842.522	5288
842.659	5132
842.796	5132
842.933	5159
843.069	5117
843.206	5136
843.343	5277
843.479	5239
843.616	5261
843.752	5006
843.889	5014
844.025	5242
844.162	4961
844.298	5178
844.435	5086
844.571	5086
844.708	5102
844.844	5337
844.98	5265
845.117	5254
845.253	5109
845.389	5090
845.525	5124
845.661	5121
845.798	5064
845.934	5079
846.07	5048
846.206	5136
846.342	5269
846.478	5090
846.614	5014
846.75	4965
846.886	4987
847.022	5155
847.158	5037
847.294	5052
847.429	5102
847.565	5014
847.701	5322
847.837	4839
847.972	4801
848.108	4957
848.244	4911
848.379	4790
848.515	4725
848.65	4694
848.786	4725
848.921	4778
849.057	4847
849.192	4858
849.328	4801
849.463	4816
849.598	4797
849.734	4782
849.869	4679
850.004	4641
850.14	4664
850.275	4611
850.41	4519
850.545	4618
850.68	4596
850.815	4649
850.95	4656
851.085	4843
851.22	4740
851.355	4573
851.49	4603
851.625	4679
851.76	4607
851.895	4535
852.03	4535
852.165	4615
852.299	4710
852.434	4809
852.569	4774
852.703	4740
852.838	4831
852.973	4892
853.107	4892
853.242	4714
853.376	4653
853.511	4527
853.645	4634
853.78	4748
853.914	4687
854.048	4637
854.183	4675
854.317	4706
854.451	4873
854.585	4687
854.72	4584
854.854	4706
854.988	4580
855.122	4634
855.256	4455
855.39	4668
855.524	4778
855.658	4710
855.792	4656
855.926	4771
856.06	4755
856.194	4812
856.327	4706
856.461	4588
856.595	4611
856.729	4596
856.862	4736
856.996	4679
857.13	4714
857.263	4736
857.397	4771
857.53	4641
857.664	4714
857.797	4786
857.931	4748
858.064	4679
858.197	4714
858.331	4611
858.464	4615
858.597	4500
858.731	4599
858.864	4611
858.997	4573
859.13	4607
859.263	4618
859.396	4664
859.529	4577
859.662	4512
859.795	4504
859.928	4596
860.061	4771
860.194	4733
860.327	4565
860.46	4546
860.592	4687
860.725	4721
860.858	4645
860.99	4550
861.123	4459
861.256	4512
861.388	4577
861.521	5201
861.653	4466
861.786	4497
861.918	4474
862.05	4527
862.183	4531
862.315	4599
862.447	4645
862.58	4565
862.712	4402
862.844	4322
862.976	4459
863.108	4459
863.24	4767
863.372	4329
863.504	4409
863.636	4398
863.768	4470
863.9	4432
864.032	4333
864.164	4390
864.296	4440
864.428	4497
864.559	4535
864.691	4516
864.823	4497
864.954	4462
865.086	4447
865.217	4428
865.349	4436
865.48	4417
865.612	4451
865.743	4615
865.875	4478
866.006	4394
866.137	4504
866.269	4424
866.4	4402
866.531	4394
866.662	4394
866.793	4421
866.924	4402
867.055	4466
867.186	4466
867.317	4394
867.448	4413
867.579	4436
867.71	4390
867.841	4352
867.972	4436
868.103	4489
868.233	4455
868.364	4470
868.495	4470
868.625	4618
868.756	4759
868.886	4599
869.017	4645
869.147	4759
869.278	4763
869.408	4622
869.539	4630
869.669	4694
869.799	4630
869.929	4729
870.06	4698
870.19	4923
870.32	4915
870.45	4904
870.58	5006
870.71	5041
870.84	5071
870.97	4915
871.1	4885
871.23	5140
871.36	5109
871.489	5018
871.619	5079
871.749	5109
871.879	5102
872.008	5121
872.138	5041
872.267	4968
872.397	4866
872.526	4835
872.656	4710
872.785	4831
872.915	4965
873.044	4953
873.173	4908
873.303	4949
873.432	5014
873.561	5003
873.69	4858
873.819	4862
873.948	4896
874.077	4793
874.206	4755
874.335	4782
874.464	4927
874.593	5056
874.722	4923
874.851	5124
874.979	5022
875.108	4976
875.237	4877
875.365	4889
875.494	4831
875.623	4991
875.751	4820
875.88	4873
876.008	4934
876.136	5029
876.265	5204
876.393	5299
876.521	5227
876.65	5261
876.778	5128
876.906	5052
877.034	5045
877.162	5056
877.29	4976
877.418	5025
877.546	5045
877.674	5029
877.802	4999
877.93	5045
878.058	4911
878.185	4892
878.313	4927
878.441	4965
878.568	4812
878.696	4828
878.824	5003
878.951	4987
879.079	5090
879.206	5258
879.333	5090
879.461	4923
879.588	5003
879.715	5102
879.842	5197
879.97	4991
880.097	4763
880.224	4767
880.351	4778
880.478	4873
880.605	4820
880.732	4744
880.859	5094
880.986	4919
881.112	4900
881.239	4763
881.366	4660
881.493	4622
881.619	4592
881.746	4622
881.872	4630
881.999	4607
882.125	4653
882.252	4763
882.378	4816
882.505	4957
882.631	4831
882.757	4634
882.883	4679
883.01	4698
883.136	4649
883.262	4565
883.388	4584
883.514	4847
883.64	4797
883.766	4759
883.892	4683
884.018	4698
884.143	4870
884.269	5037
884.395	4656
884.52	4630
884.646	4565
884.772	4580
884.897	4554
885.023	4672
885.148	4771
885.274	4847
885.399	4797
885.524	4748
885.65	4687
885.775	4759
885.9	4694
886.025	4839
886.15	4755
886.275	4717
886.4	4626
886.525	4660
886.65	4660
886.775	4660
886.9	4824
887.025	5041
887.149	4771
887.274	4618
887.399	4603
887.523	4573
887.648	4538
887.773	4550
887.897	4740
888.021	4790
888.146	4630
888.27	4790
888.395	4885
888.519	4774
888.643	4771
888.767	4793
888.891	4649
889.015	4546
889.139	4611
889.263	4577
889.387	4755
889.511	4816
889.635	4752
889.759	4584
889.883	4626
890.006	4675
890.13	4805
890.254	4584
890.377	4641
890.501	4554
890.624	4512
890.748	4645
890.871	4489
890.995	4390
891.118	4375
891.241	4500
891.364	4508
891.488	4630
891.611	4470
891.734	4554
891.857	4637
891.98	4538
892.103	4653
892.226	4565
892.349	4542
892.471	4421
892.594	4538
892.717	4550
892.839	4561
892.962	4596
893.085	4630
893.207	4565
893.33	4470
893.452	4508
893.575	4641
893.697	4577
893.819	4767
893.941	4816
894.064	4759
894.186	4538
894.308	4569
894.43	4740
894.552	4809
894.674	4778
894.796	4577
894.918	4611
895.04	4592
895.161	4717
895.283	4630
895.405	4634
895.526	4634
895.648	4675
895.769	4691
895.891	4694
896.012	4767
896.134	4736
896.255	4672
896.376	4649
896.498	4675
896.619	4736
896.74	4550
896.861	4683
896.982	4938
897.103	5166
897.224	4824
897.345	4774
897.466	4668
897.587	4755
897.708	4858
897.828	4793
897.949	4725
898.07	4550
898.19	4615
898.311	4881
898.431	4729
898.552	4790
898.672	4854
898.792	4820
898.913	4771
899.033	4729
899.153	4535
899.273	4474
899.393	4523
899.513	4554
899.633	4584
899.753	4584
899.873	4538
899.993	4626
900.113	4607
900.232	4607
900.352	4558
900.472	4497
900.591	4459
900.711	4546
900.83	4466
900.95	4660
901.069	4763
901.189	4630
901.308	4428
901.427	4333
901.546	4421
901.665	4516
901.784	4588
901.904	4363
902.023	4352
902.141	4242
902.26	4219
902.379	4383
902.498	4284
902.617	4257
902.735	4363
902.854	4443
902.973	4402
903.091	4257
903.21	4230
903.328	4356
903.446	4265
903.565	4306
903.683	4363
903.801	4284
903.919	4474
904.038	4432
904.156	4383
904.274	4512
904.392	4455
904.51	4489
904.627	4535
904.745	4664
904.863	4691
904.981	4421
905.098	4394
905.216	4360
905.334	4470
905.451	4451
905.569	4443
905.686	4527
905.803	4592
905.921	4409
906.038	4596
906.155	4474
906.272	4485
906.389	4493
906.506	4394
906.623	4432
906.74	4413
906.857	4352
906.974	4398
907.091	4603
907.208	4660
907.324	4588
907.441	4500
907.557	4379
907.674	4348
907.79	4375
907.907	4409
908.023	4516
908.139	4497
908.256	4466
908.372	4508
908.488	4508
908.604	4356
908.72	4367
908.836	4375
908.952	4451
909.068	4447
909.184	4546
909.3	4478
909.415	4637
909.531	4596
909.647	4405
909.762	4379
909.878	4360
909.993	4470
910.108	4428
910.224	4440
910.339	4481
910.454	4417
910.57	4394
910.685	4310
910.8	4672
910.915	4641
911.03	4508
911.145	4409
911.259	4348
911.374	4356
911.489	4337
911.604	4314
911.718	4192
911.833	4230
911.947	4109
912.062	4059
912.176	4211
912.291	4265
912.405	4253
912.519	4485
912.633	4508
912.748	4383
912.862	4322
912.976	4268
913.09	4078
913.204	4196
913.318	4314
913.431	4421
913.545	4436
913.659	4466
913.772	4390
913.886	4261
914	4230
914.113	4405
914.226	4485
914.34	4443
914.453	4303
914.566	4459
914.68	4325
914.793	4356
914.906	4158
915.019	4128
915.132	4120
915.245	4234
915.358	4238
915.47	4268
915.583	4306
915.696	4325
915.809	4474
915.921	4390
916.034	4291
916.146	4287
916.259	4211
916.371	4417
916.483	4386
916.595	4291
916.708	4341
916.82	4363
916.932	4383
917.044	4360
917.156	4383
917.268	4284
917.38	4299
917.491	4352
917.603	4363
917.715	4443
917.826	4428
917.938	4405
918.049	4246
918.161	4421
918.272	4550
918.384	4531
918.495	4455
918.606	4303
918.717	4280
918.828	4367
918.939	4352
919.05	4287
919.161	4344
919.272	4147
919.383	4257
919.494	4462
919.604	4656
919.715	4519
919.826	4405
919.936	4394
920.047	4535
920.157	4474
920.267	4740
920.378	4599
920.488	4542
920.598	4759
920.708	4862
920.818	4767
920.928	4786
921.038	4999
921.148	4942
921.258	4717
921.368	4588
921.477	4500
921.587	4466
921.697	4451
921.806	4569
921.916	4443
922.025	4276
922.134	4261
922.244	4253
922.353	4371
922.462	4185
922.571	4135
922.68	4059
922.789	4006
922.898	4078
923.007	4021
923.116	4128
923.224	4078
923.333	4116
923.442	4002
923.55	3979
923.659	4055
923.767	4139
923.876	4013
923.984	4181
924.092	3994
924.201	4071
924.309	4139
924.417	4135
924.525	4093
924.633	4109
924.741	5102
924.849	3930
924.956	4185
925.064	4036
925.172	3915
925.279	3956
925.387	4025
925.494	4074
925.602	4257
925.709	4238
925.816	4063
925.924	4177
926.031	4219
926.138	4207
926.245	4246
926.352	4101
926.459	4306
926.566	4375
926.673	4158
926.779	4086
926.886	4112
926.993	4021
927.099	4032
927.206	3979
927.312	4002
927.419	4082
927.525	4059
927.631	4120
927.737	3956
927.843	3991
927.95	3869
928.056	3972
928.162	4029
928.267	4048
928.373	4584
928.479	4135
928.585	3869
928.69	4044
928.796	4124
928.901	4032
929.007	3880
929.112	4021
929.218	3968
929.323	3960
929.428	3972
929.533	4135
929.638	3930
929.743	3983
929.848	4051
929.953	3998
930.058	3941
930.163	3812
930.267	3842
930.372	3983
930.477	3842
930.581	4143
930.685	3968
930.79	3819
930.894	3934
930.998	3907
931.103	4010
931.207	3736
931.311	3728
931.415	3682
931.519	3568
931.623	3542
