Data from test_V78500241_2154.txt Node
Date: Fri Mar 25 17:03:58 CST 2022
User: usil
Spectrometer: V785-0024
Trigger mode: 0
Integration Time (sec): 4.000000E-1
Scans to average: 1
Nonlinearity correction enabled: false
Boxcar width: 0
Storing dark spectrum: false
XAxis mode: Wavelengths
Number of Pixels in Spectrum: 1024
>>>>>Begin Spectral Data<<<<<
801.071	8046
801.214	7936
801.356	7868
801.499	7841
801.641	7833
801.783	7860
801.926	7917
802.068	7951
802.211	7993
802.353	7963
802.496	7811
802.638	7864
802.78	7868
802.923	7871
803.065	7822
803.208	7871
803.35	8008
803.492	8046
803.635	8195
803.777	8012
803.919	8111
804.061	8438
804.204	8081
804.346	8065
804.488	7967
804.63	8088
804.773	7917
804.915	8100
805.057	8267
805.199	8210
805.341	8149
805.483	8237
805.626	8130
805.768	8214
805.91	8210
806.052	8210
806.194	8115
806.336	8244
806.478	8088
806.62	8016
806.762	8145
806.904	8320
807.046	8442
807.188	8362
807.33	8351
807.472	8362
807.614	8229
807.756	8111
807.898	8046
808.04	7909
808.182	7879
808.324	7875
808.465	7921
808.607	8020
808.749	8210
808.891	8267
809.033	8240
809.174	8191
809.316	8088
809.458	8081
809.6	8024
809.741	8005
809.883	8046
810.025	8062
810.166	8073
810.308	7955
810.45	7963
810.591	7818
810.733	7715
810.875	7613
811.016	7487
811.158	7415
811.299	7548
811.441	7765
811.582	7643
811.724	7609
811.865	7540
812.007	7601
812.148	7609
812.29	7658
812.431	7704
812.573	7887
812.714	8001
812.855	8115
812.997	8271
813.138	8309
813.279	8111
813.421	8031
813.562	7898
813.703	7792
813.845	7712
813.986	7430
814.127	7244
814.268	7228
814.41	7187
814.551	7107
814.692	7217
814.833	7019
814.974	7107
815.115	7156
815.256	7031
815.397	6932
815.539	6916
815.68	6814
815.821	6760
815.962	6837
816.103	6764
816.244	6688
816.385	6574
816.526	6597
816.666	6490
816.807	6346
816.948	6433
817.089	6426
817.23	6422
817.371	6376
817.512	6433
817.653	6418
817.793	6346
817.934	6437
818.075	6433
818.216	6395
818.356	6448
818.497	6213
818.638	6159
818.778	6167
818.919	6167
819.06	6102
819.2	6342
819.341	6228
819.481	6338
819.622	6486
819.762	6684
819.903	6734
820.043	6585
820.184	6578
820.324	6612
820.465	6692
820.605	6703
820.746	6677
820.886	6544
821.026	6707
821.167	6730
821.307	6738
821.447	6783
821.588	6688
821.728	6532
821.868	6536
822.008	6315
822.149	6369
822.289	6376
822.429	6140
822.569	6076
822.709	6083
822.849	5946
822.99	5844
823.13	5920
823.27	5904
823.41	5771
823.55	5824
823.69	5764
823.83	5802
823.97	5653
824.11	5539
824.25	5512
824.389	5528
824.529	5577
824.669	5528
824.809	5623
824.949	5630
825.089	5608
825.228	5524
825.368	5425
825.508	5379
825.648	5299
825.787	5383
825.927	5383
826.067	5269
826.206	5296
826.346	5376
826.485	5425
826.625	5402
826.765	5512
826.904	5455
827.044	5311
827.183	5193
827.323	5136
827.462	5220
827.601	5185
827.741	5223
827.88	5223
828.02	5086
828.159	5220
828.298	5318
828.437	5318
828.577	5284
828.716	5493
828.855	5345
828.994	5140
829.134	5178
829.273	5216
829.412	5098
829.551	5128
829.69	5227
829.829	5212
829.968	5391
830.107	5258
830.246	5315
830.385	5166
830.524	5113
830.663	5003
830.802	4965
830.941	4854
831.08	4873
831.219	4972
831.357	4911
831.496	5185
831.635	4896
831.774	4847
831.913	4824
832.051	4721
832.19	4782
832.329	4896
832.467	4683
832.606	4641
832.744	4736
832.883	4748
833.022	4752
833.16	4774
833.299	4847
833.437	4809
833.576	4793
833.714	4862
833.852	4870
833.991	4904
834.129	4915
834.267	4923
834.406	4911
834.544	4980
834.682	4987
834.821	4946
834.959	5162
835.097	4957
835.235	5147
835.373	4987
835.511	5086
835.65	5075
835.788	5060
835.926	4949
836.064	4854
836.202	4873
836.34	5181
836.478	5220
836.615	5102
836.753	5170
836.891	5269
837.029	5223
837.167	5181
837.305	5181
837.443	5208
837.58	5064
837.718	5258
837.856	5143
837.993	5117
838.131	5223
838.269	5212
838.406	5143
838.544	5204
838.681	5060
838.819	4995
838.956	4900
839.094	4900
839.231	5003
839.369	5083
839.506	5467
839.643	5254
839.781	5041
839.918	4995
840.055	5075
840.193	5060
840.33	5018
840.467	5128
840.604	5147
840.742	5334
840.879	5067
841.016	5098
841.153	5140
841.29	5383
841.427	5353
841.564	5269
841.701	5402
841.838	5299
841.975	5216
842.112	5250
842.249	5132
842.385	5102
842.522	5322
842.659	5151
842.796	5181
842.933	5143
843.069	5143
843.206	5143
843.343	5269
843.479	5216
843.616	5231
843.752	5033
843.889	4987
844.025	5277
844.162	5010
844.298	5181
844.435	5056
844.571	4987
844.708	5166
844.844	5292
844.98	5364
845.117	5307
845.253	5136
845.389	5060
845.525	5121
845.661	5143
845.798	5033
845.934	5136
846.07	5056
846.206	5140
846.342	5303
846.478	5181
846.614	5014
846.75	4953
846.886	4911
847.022	5166
847.158	4987
847.294	5083
847.429	5086
847.565	5075
847.701	5349
847.837	4805
847.972	4831
848.108	4972
848.244	4957
848.379	4759
848.515	4729
848.65	4714
848.786	4748
848.921	4782
849.057	4885
849.192	4892
849.328	4752
849.463	4862
849.598	4763
849.734	4752
849.869	4683
850.004	4622
850.14	4660
850.275	4626
850.41	4538
850.545	4538
850.68	4584
850.815	4580
850.95	4660
851.085	4782
851.22	4721
851.355	4698
851.49	4634
851.625	4603
851.76	4622
851.895	4489
852.03	4519
852.165	4622
852.299	4683
852.434	4797
852.569	4714
852.703	4774
852.838	4790
852.973	4904
853.107	4896
853.242	4721
853.376	4649
853.511	4546
853.645	4599
853.78	4748
853.914	4702
854.048	4656
854.183	4653
854.317	4660
854.451	4790
854.585	4641
854.72	4618
854.854	4721
854.988	4679
855.122	4584
855.256	4474
855.39	4660
855.524	4774
855.658	4714
855.792	4725
855.926	4767
856.06	4767
856.194	4805
856.327	4675
856.461	4618
856.595	4577
856.729	4626
856.862	4744
856.996	4721
857.13	4710
857.263	4771
857.397	4828
857.53	4637
857.664	4767
857.797	4729
857.931	4744
858.064	4714
858.197	4698
858.331	4626
858.464	4558
858.597	4516
858.731	4603
858.864	4615
858.997	4565
859.13	4626
859.263	4672
859.396	4717
859.529	4542
859.662	4554
859.795	4535
859.928	4611
860.061	4725
860.194	4767
860.327	4603
860.46	4584
860.592	4679
860.725	4683
860.858	4736
860.99	4607
861.123	4535
861.256	4512
861.388	4645
861.521	5395
861.653	4523
861.786	4481
861.918	4478
862.05	4535
862.183	4561
862.315	4584
862.447	4672
862.58	4504
862.712	4341
862.844	4325
862.976	4462
863.108	4443
863.24	4778
863.372	4306
863.504	4421
863.636	4462
863.768	4485
863.9	4383
864.032	4344
864.164	4424
864.296	4447
864.428	4554
864.559	4519
864.691	4561
864.823	4485
864.954	4436
865.086	4504
865.217	4504
865.349	4402
865.48	4451
865.612	4481
865.743	4664
865.875	4432
866.006	4386
866.137	4432
866.269	4447
866.4	4424
866.531	4436
866.662	4341
866.793	4367
866.924	4417
867.055	4550
867.186	4451
867.317	4363
867.448	4386
867.579	4337
867.71	4402
867.841	4352
867.972	4409
868.103	4432
868.233	4424
868.364	4474
868.495	4470
868.625	4691
868.756	4740
868.886	4569
869.017	4649
869.147	4755
869.278	4767
869.408	4687
869.539	4656
869.669	4702
869.799	4656
869.929	4752
870.06	4786
870.19	4949
870.32	4862
870.45	4904
870.58	4991
870.71	5045
870.84	5102
870.97	4930
871.1	4908
871.23	5109
871.36	5121
871.489	5037
871.619	5048
871.749	5041
871.879	5102
872.008	5143
872.138	5060
872.267	4976
872.397	4904
872.526	4786
872.656	4710
872.785	4809
872.915	4961
873.044	4995
873.173	4908
873.303	4980
873.432	4949
873.561	4915
873.69	4858
873.819	4866
873.948	4896
874.077	4778
874.206	4752
874.335	4797
874.464	4904
874.593	5029
874.722	4915
874.851	5117
874.979	5048
875.108	4987
875.237	4919
875.365	4904
875.494	4889
875.623	4972
875.751	4828
875.88	4904
876.008	4987
876.136	5014
876.265	5201
876.393	5357
876.521	5246
876.65	5227
876.778	5193
876.906	5071
877.034	5033
877.162	5071
877.29	5003
877.418	5052
877.546	5006
877.674	5075
877.802	5025
877.93	4961
878.058	4965
878.185	4889
878.313	5003
878.441	4961
878.568	4748
878.696	4885
878.824	5010
878.951	4995
879.079	5174
879.206	5296
879.333	5121
879.461	4965
879.588	4987
879.715	5117
879.842	5231
879.97	4968
880.097	4816
880.224	4733
880.351	4786
880.478	4801
880.605	4805
880.732	4767
880.859	5098
880.986	4892
881.112	4953
881.239	4790
881.366	4668
881.493	4641
881.619	4611
881.746	4641
881.872	4649
881.999	4675
882.125	4710
882.252	4759
882.378	4816
882.505	4938
882.631	4828
882.757	4698
882.883	4683
883.01	4725
883.136	4656
883.262	4584
883.388	4698
883.514	4763
883.64	4870
883.766	4755
883.892	4649
884.018	4729
884.143	4862
884.269	5010
884.395	4672
884.52	4577
884.646	4641
884.772	4550
884.897	4573
885.023	4668
885.148	4801
885.274	4839
885.399	4809
885.524	4706
885.65	4683
885.775	4714
885.9	4706
886.025	4828
886.15	4774
886.275	4694
886.4	4660
886.525	4733
886.65	4649
886.775	4672
886.9	4900
887.025	5048
887.149	4790
887.274	4634
887.399	4569
887.523	4538
887.648	4577
887.773	4596
887.897	4729
888.021	4767
888.146	4649
888.27	4774
888.395	4919
888.519	4790
888.643	4782
888.767	4816
888.891	4698
889.015	4531
889.139	4626
889.263	4599
889.387	4786
889.511	4843
889.635	4740
889.759	4607
889.883	4603
890.006	4702
890.13	4793
890.254	4592
890.377	4683
890.501	4523
890.624	4512
890.748	4637
890.871	4512
890.995	4443
891.118	4405
891.241	4500
891.364	4561
891.488	4618
891.611	4478
891.734	4538
891.857	4630
891.98	4580
892.103	4660
892.226	4535
892.349	4519
892.471	4424
892.594	4588
892.717	4596
892.839	4580
892.962	4603
893.085	4653
893.207	4580
893.33	4447
893.452	4519
893.575	4637
893.697	4584
893.819	4786
893.941	4790
894.064	4733
894.186	4637
894.308	4523
894.43	4717
894.552	4809
894.674	4767
894.796	4531
894.918	4561
895.04	4554
895.161	4653
895.283	4656
895.405	4561
895.526	4611
895.648	4694
895.769	4710
895.891	4714
896.012	4706
896.134	4694
896.255	4626
896.376	4641
896.498	4603
896.619	4622
896.74	4584
896.861	4622
896.982	4889
897.103	5033
897.224	4828
897.345	4733
897.466	4679
897.587	4710
897.708	4847
897.828	4771
897.949	4675
898.07	4512
898.19	4618
898.311	4862
898.431	4706
898.552	4759
898.672	4839
898.792	4778
898.913	4721
899.033	4603
899.153	4493
899.273	4413
899.393	4485
899.513	4527
899.633	4497
899.753	4546
899.873	4516
899.993	4550
900.113	4577
900.232	4565
900.352	4512
900.472	4459
900.591	4383
900.711	4417
900.83	4413
900.95	4596
901.069	4653
901.189	4531
901.308	4314
901.427	4306
901.546	4310
901.665	4402
901.784	4523
901.904	4363
902.023	4329
902.141	4166
902.26	4147
902.379	4272
902.498	4192
902.617	4215
902.735	4394
902.854	4367
902.973	4371
903.091	4166
903.21	4227
903.328	4287
903.446	4265
903.565	4253
903.683	4333
903.801	4265
903.919	4390
904.038	4371
904.156	4329
904.274	4421
904.392	4402
904.51	4363
904.627	4428
904.745	4554
904.863	4622
904.981	4402
905.098	4287
905.216	4383
905.334	4405
905.451	4451
905.569	4402
905.686	4599
905.803	4592
905.921	4405
906.038	4538
906.155	4493
906.272	4367
906.389	4436
906.506	4348
906.623	4436
906.74	4398
906.857	4363
906.974	4375
907.091	4554
907.208	4675
907.324	4611
907.441	4565
907.557	4386
907.674	4383
907.79	4344
907.907	4386
908.023	4500
908.139	4538
908.256	4470
908.372	4508
908.488	4504
908.604	4402
908.72	4386
908.836	4436
908.952	4424
909.068	4459
909.184	4596
909.3	4512
909.415	4596
909.531	4599
909.647	4417
909.762	4421
909.878	4394
909.993	4489
910.108	4478
910.224	4466
910.339	4508
910.454	4428
910.57	4402
910.685	4360
910.8	4679
910.915	4641
911.03	4554
911.145	4337
911.259	4367
911.374	4398
911.489	4352
911.604	4322
911.718	4234
911.833	4272
911.947	4109
912.062	4093
912.176	4268
912.291	4314
912.405	4257
912.519	4497
912.633	4508
912.748	4455
912.862	4329
912.976	4272
913.09	4109
913.204	4268
913.318	4291
913.431	4417
913.545	4421
913.659	4481
913.772	4409
913.886	4329
914	4246
914.113	4405
914.226	4500
914.34	4383
914.453	4303
914.566	4466
914.68	4314
914.793	4356
914.906	4188
915.019	4139
915.132	4101
915.245	4192
915.358	4219
915.47	4287
915.583	4337
915.696	4329
915.809	4424
915.921	4523
916.034	4272
916.146	4261
916.259	4280
916.371	4394
916.483	4360
916.595	4287
916.708	4386
916.82	4341
916.932	4329
917.044	4352
917.156	4329
917.268	4268
917.38	4303
917.491	4276
917.603	4409
917.715	4459
917.826	4470
917.938	4379
918.049	4299
918.161	4405
918.272	4584
918.384	4573
918.495	4519
918.606	4341
918.717	4276
918.828	4371
918.939	4379
919.05	4303
919.161	4333
919.272	4204
919.383	4276
919.494	4500
919.604	4653
919.715	4443
919.826	4390
919.936	4409
920.047	4535
920.157	4558
920.267	4752
920.378	4565
920.488	4531
920.598	4721
920.708	4885
920.818	4820
920.928	4816
921.038	5006
921.148	4923
921.258	4634
921.368	4622
921.477	4519
921.587	4474
921.697	4447
921.806	4546
921.916	4497
922.025	4325
922.134	4314
922.244	4253
922.353	4402
922.462	4192
922.571	4143
922.68	4067
922.789	3964
922.898	4055
923.007	4006
923.116	4154
923.224	4101
923.333	4055
923.442	4044
923.55	4025
923.659	4036
923.767	4120
923.876	4036
923.984	4166
924.092	4071
924.201	4135
924.309	4150
924.417	4120
924.525	4071
924.633	4128
924.741	5060
924.849	3888
924.956	4158
925.064	3991
925.172	3922
925.279	4025
925.387	4093
925.494	4078
925.602	4219
925.709	4242
925.816	4082
925.924	4181
926.031	4181
926.138	4181
926.245	4230
926.352	4097
926.459	4310
926.566	4337
926.673	4185
926.779	4143
926.886	4116
926.993	4006
927.099	3979
927.206	3953
927.312	3991
927.419	4082
927.525	4055
927.631	4101
927.737	4013
927.843	3953
927.95	3854
928.056	3953
928.162	4044
928.267	4097
928.373	4725
928.479	4185
928.585	3892
928.69	4040
928.796	4105
928.901	3994
929.007	3873
929.112	3998
929.218	4071
929.323	4013
929.428	3945
929.533	4131
929.638	3964
929.743	3975
929.848	4059
929.953	4044
930.058	3934
930.163	3838
930.267	3896
930.372	3987
930.477	3850
930.581	4128
930.685	3991
930.79	3842
930.894	3876
930.998	3854
931.103	4086
931.207	3717
931.311	3747
931.415	3736
931.519	3523
931.623	3572
