Data from test_V78500241_894.txt Node
Date: Fri Mar 25 16:55:13 CST 2022
User: usil
Spectrometer: V785-0024
Trigger mode: 0
Integration Time (sec): 4.000000E-1
Scans to average: 1
Nonlinearity correction enabled: false
Boxcar width: 0
Storing dark spectrum: false
XAxis mode: Wavelengths
Number of Pixels in Spectrum: 1024
>>>>>Begin Spectral Data<<<<<
801.071	8153
801.214	8062
801.356	7898
801.499	7959
801.641	7807
801.783	7845
801.926	7955
802.068	7864
802.211	8046
802.353	7963
802.496	7902
802.638	7921
802.78	7913
802.923	7955
803.065	7925
803.208	7841
803.35	8050
803.492	8138
803.635	8187
803.777	8031
803.919	8142
804.061	8393
804.204	8153
804.346	8062
804.488	7963
804.63	8100
804.773	8043
804.915	8142
805.057	8298
805.199	8218
805.341	8225
805.483	8259
805.626	8237
805.768	8157
805.91	8218
806.052	8233
806.194	8012
806.336	8294
806.478	8103
806.62	8043
806.762	8142
806.904	8218
807.046	8495
807.188	8434
807.33	8370
807.472	8351
807.614	8153
807.756	8081
807.898	7955
808.04	7947
808.182	7890
808.324	7795
808.465	7959
808.607	8088
808.749	8126
808.891	8153
809.033	8347
809.174	8263
809.316	8065
809.458	8020
809.6	8012
809.741	8035
809.883	8027
810.025	8073
810.166	8111
810.308	8035
810.45	8054
810.591	7913
810.733	7803
810.875	7704
811.016	7510
811.158	7491
811.299	7628
811.441	7700
811.582	7738
811.724	7594
811.865	7521
812.007	7567
812.148	7639
812.29	7636
812.431	7746
812.573	7887
812.714	8043
812.855	8077
812.997	8305
813.138	8332
813.279	8210
813.421	8130
813.562	8020
813.703	7890
813.845	7738
813.986	7415
814.127	7270
814.268	7263
814.41	7149
814.551	7156
814.692	7228
814.833	7038
814.974	7076
815.115	7091
815.256	6966
815.397	6905
815.539	6943
815.68	6859
815.821	6810
815.962	6852
816.103	6810
816.244	6768
816.385	6688
816.526	6726
816.666	6566
816.807	6353
816.948	6445
817.089	6467
817.23	6471
817.371	6353
817.512	6403
817.653	6376
817.793	6422
817.934	6452
818.075	6486
818.216	6403
818.356	6429
818.497	6262
818.638	6087
818.778	6121
818.919	6182
819.06	6178
819.2	6331
819.341	6315
819.481	6418
819.622	6509
819.762	6760
819.903	6779
820.043	6635
820.184	6566
820.324	6604
820.465	6684
820.605	6684
820.746	6654
820.886	6498
821.026	6722
821.167	6715
821.307	6779
821.447	6798
821.588	6665
821.728	6532
821.868	6555
822.008	6357
822.149	6380
822.289	6407
822.429	6125
822.569	6106
822.709	6064
822.849	5961
822.99	5878
823.13	5935
823.27	5908
823.41	5851
823.55	5783
823.69	5851
823.83	5779
823.97	5726
824.11	5577
824.25	5558
824.389	5566
824.529	5585
824.669	5516
824.809	5646
824.949	5707
825.089	5596
825.228	5558
825.368	5402
825.508	5372
825.648	5334
825.787	5433
825.927	5360
826.067	5254
826.206	5284
826.346	5402
826.485	5440
826.625	5414
826.765	5539
826.904	5429
827.044	5303
827.183	5197
827.323	5140
827.462	5261
827.601	5140
827.741	5189
827.88	5201
828.02	5178
828.159	5216
828.298	5288
828.437	5360
828.577	5242
828.716	5474
828.855	5334
828.994	5159
829.134	5128
829.273	5166
829.412	5178
829.551	5166
829.69	5128
829.829	5299
829.968	5311
830.107	5277
830.246	5227
830.385	5208
830.524	5117
830.663	5075
830.802	4949
830.941	4904
831.08	4919
831.219	4980
831.357	4995
831.496	5166
831.635	4953
831.774	4850
831.913	4820
832.051	4740
832.19	4752
832.329	4854
832.467	4714
832.606	4672
832.744	4736
832.883	4767
833.022	4717
833.16	4793
833.299	4767
833.437	4862
833.576	4831
833.714	4877
833.852	4892
833.991	4892
834.129	4908
834.267	4976
834.406	4984
834.544	4965
834.682	4980
834.821	4957
834.959	5147
835.097	4976
835.235	5151
835.373	5067
835.511	5094
835.65	5037
835.788	5094
835.926	4870
836.064	4892
836.202	4908
836.34	5246
836.478	5208
836.615	5189
836.753	5193
836.891	5269
837.029	5239
837.167	5208
837.305	5143
837.443	5132
837.58	5102
837.718	5277
837.856	5166
837.993	5235
838.131	5246
838.269	5277
838.406	5227
838.544	5143
838.681	5060
838.819	5014
838.956	4900
839.094	4858
839.231	5003
839.369	5052
839.506	5398
839.643	5269
839.781	5071
839.918	5052
840.055	5151
840.193	5094
840.33	5140
840.467	5105
840.604	5159
840.742	5516
840.879	5105
841.016	5079
841.153	5155
841.29	5368
841.427	5341
841.564	5372
841.701	5383
841.838	5265
841.975	5250
842.112	5231
842.249	5151
842.385	5128
842.522	5360
842.659	5201
842.796	5102
842.933	5212
843.069	5151
843.206	5147
843.343	5284
843.479	5254
843.616	5227
843.752	5064
843.889	5025
844.025	5220
844.162	5018
844.298	5189
844.435	5048
844.571	5083
844.708	5216
844.844	5303
844.98	5368
845.117	5239
845.253	5151
845.389	5090
845.525	5102
845.661	5147
845.798	5018
845.934	5117
846.07	5048
846.206	5159
846.342	5261
846.478	5151
846.614	4946
846.75	5003
846.886	4927
847.022	5113
847.158	5090
847.294	5048
847.429	5090
847.565	5117
847.701	5311
847.837	4862
847.972	4858
848.108	4972
848.244	4949
848.379	4771
848.515	4763
848.65	4736
848.786	4733
848.921	4763
849.057	4885
849.192	4881
849.328	4866
849.463	4820
849.598	4809
849.734	4805
849.869	4725
850.004	4649
850.14	4702
850.275	4641
850.41	4565
850.545	4622
850.68	4630
850.815	4626
850.95	4645
851.085	4847
851.22	4721
851.355	4653
851.49	4630
851.625	4664
851.76	4698
851.895	4580
852.03	4535
852.165	4679
852.299	4740
852.434	4812
852.569	4790
852.703	4828
852.838	4850
852.973	4919
853.107	4949
853.242	4740
853.376	4698
853.511	4607
853.645	4607
853.78	4835
853.914	4721
854.048	4706
854.183	4702
854.317	4744
854.451	4904
854.585	4702
854.72	4675
854.854	4786
854.988	4611
855.122	4675
855.256	4542
855.39	4694
855.524	4858
855.658	4744
855.792	4748
855.926	4782
856.06	4767
856.194	4904
856.327	4748
856.461	4668
856.595	4622
856.729	4683
856.862	4778
856.996	4759
857.13	4790
857.263	4782
857.397	4801
857.53	4675
857.664	4767
857.797	4820
857.931	4809
858.064	4736
858.197	4790
858.331	4702
858.464	4603
858.597	4558
858.731	4660
858.864	4626
858.997	4649
859.13	4687
859.263	4752
859.396	4717
859.529	4645
859.662	4603
859.795	4611
859.928	4679
860.061	4793
860.194	4812
860.327	4599
860.46	4645
860.592	4771
860.725	4755
860.858	4710
860.99	4573
861.123	4558
861.256	4607
861.388	4683
861.521	5246
861.653	4519
861.786	4519
861.918	4478
862.05	4558
862.183	4580
862.315	4641
862.447	4668
862.58	4577
862.712	4413
862.844	4314
862.976	4527
863.108	4478
863.24	4774
863.372	4383
863.504	4478
863.636	4493
863.768	4500
863.9	4508
864.032	4337
864.164	4409
864.296	4523
864.428	4573
864.559	4569
864.691	4550
864.823	4550
864.954	4523
865.086	4546
865.217	4447
865.349	4436
865.48	4508
865.612	4508
865.743	4649
865.875	4459
866.006	4428
866.137	4455
866.269	4455
866.4	4462
866.531	4417
866.662	4466
866.793	4428
866.924	4413
867.055	4504
867.186	4485
867.317	4512
867.448	4455
867.579	4417
867.71	4447
867.841	4367
867.972	4497
868.103	4500
868.233	4462
868.364	4527
868.495	4508
868.625	4649
868.756	4771
868.886	4599
869.017	4653
869.147	4778
869.278	4782
869.408	4683
869.539	4630
869.669	4744
869.799	4714
869.929	4809
870.06	4752
870.19	4923
870.32	4987
870.45	4946
870.58	5029
870.71	5166
870.84	5143
870.97	5014
871.1	4972
871.23	5185
871.36	5136
871.489	5071
871.619	5090
871.749	5140
871.879	5155
872.008	5181
872.138	5083
872.267	5010
872.397	4828
872.526	4870
872.656	4721
872.785	4831
872.915	5037
873.044	4991
873.173	4980
873.303	5041
873.432	4949
873.561	4953
873.69	4862
873.819	4938
873.948	4911
874.077	4881
874.206	4797
874.335	4816
874.464	4908
874.593	5075
874.722	5041
874.851	5189
874.979	5079
875.108	5098
875.237	4915
875.365	4877
875.494	4862
875.623	4972
875.751	4854
875.88	4908
876.008	5048
876.136	5056
876.265	5250
876.393	5414
876.521	5242
876.65	5299
876.778	5181
876.906	5109
877.034	5090
877.162	5056
877.29	5018
877.418	5094
877.546	5064
877.674	5022
877.802	5033
877.93	5052
878.058	4942
878.185	4923
878.313	4984
878.441	4953
878.568	4828
878.696	4889
878.824	4900
878.951	5025
879.079	5109
879.206	5299
879.333	5121
879.461	5041
879.588	5037
879.715	5151
879.842	5239
879.97	5052
880.097	4809
880.224	4752
880.351	4820
880.478	4881
880.605	4824
880.732	4835
880.859	5086
880.986	4908
881.112	4934
881.239	4782
881.366	4668
881.493	4645
881.619	4637
881.746	4660
881.872	4721
881.999	4714
882.125	4694
882.252	4847
882.378	4820
882.505	4961
882.631	4805
882.757	4706
882.883	4759
883.01	4839
883.136	4664
883.262	4634
883.388	4645
883.514	4767
883.64	4847
883.766	4801
883.892	4706
884.018	4755
884.143	4862
884.269	4999
884.395	4706
884.52	4618
884.646	4733
884.772	4626
884.897	4558
885.023	4717
885.148	4824
885.274	4889
885.399	4831
885.524	4736
885.65	4710
885.775	4774
885.9	4778
886.025	4862
886.15	4759
886.275	4755
886.4	4687
886.525	4767
886.65	4725
886.775	4717
886.9	4942
887.025	5052
887.149	4820
887.274	4691
887.399	4607
887.523	4615
887.648	4603
887.773	4603
887.897	4763
888.021	4797
888.146	4679
888.27	4843
888.395	4915
888.519	4755
888.643	4831
888.767	4854
888.891	4675
889.015	4615
889.139	4664
889.263	4634
889.387	4744
889.511	4873
889.635	4854
889.759	4630
889.883	4630
890.006	4748
890.13	4831
890.254	4664
890.377	4774
890.501	4535
890.624	4538
890.748	4679
890.871	4497
890.995	4447
891.118	4394
891.241	4527
891.364	4580
891.488	4683
891.611	4504
891.734	4561
891.857	4641
891.98	4554
892.103	4675
892.226	4618
892.349	4550
892.471	4390
892.594	4516
892.717	4561
892.839	4596
892.962	4561
893.085	4706
893.207	4580
893.33	4405
893.452	4527
893.575	4706
893.697	4641
893.819	4812
893.941	4843
894.064	4809
894.186	4569
894.308	4577
894.43	4721
894.552	4885
894.674	4828
894.796	4561
894.918	4611
895.04	4550
895.161	4702
895.283	4641
895.405	4634
895.526	4664
895.648	4744
895.769	4733
895.891	4721
896.012	4725
896.134	4744
896.255	4656
896.376	4603
896.498	4649
896.619	4691
896.74	4584
896.861	4694
896.982	4976
897.103	5124
897.224	4843
897.345	4801
897.466	4702
897.587	4755
897.708	4866
897.828	4793
897.949	4721
898.07	4611
898.19	4634
898.311	4839
898.431	4691
898.552	4778
898.672	4801
898.792	4812
898.913	4755
899.033	4656
899.153	4489
899.273	4440
899.393	4485
899.513	4607
899.633	4546
899.753	4558
899.873	4508
899.993	4573
900.113	4527
900.232	4618
900.352	4584
900.472	4493
900.591	4386
900.711	4459
900.83	4447
900.95	4660
901.069	4706
901.189	4508
901.308	4383
901.427	4314
901.546	4356
901.665	4455
901.784	4535
901.904	4413
902.023	4371
902.141	4166
902.26	4188
902.379	4314
902.498	4246
902.617	4246
902.735	4443
902.854	4398
902.973	4352
903.091	4234
903.21	4268
903.328	4310
903.446	4223
903.565	4272
903.683	4356
903.801	4306
903.919	4421
904.038	4417
904.156	4325
904.274	4474
904.392	4360
904.51	4451
904.627	4443
904.745	4573
904.863	4618
904.981	4413
905.098	4344
905.216	4421
905.334	4504
905.451	4405
905.569	4466
905.686	4618
905.803	4592
905.921	4375
906.038	4542
906.155	4466
906.272	4405
906.389	4489
906.506	4333
906.623	4417
906.74	4436
906.857	4322
906.974	4402
907.091	4542
907.208	4653
907.324	4592
907.441	4489
907.557	4383
907.674	4367
907.79	4333
907.907	4462
908.023	4451
908.139	4474
908.256	4413
908.372	4459
908.488	4413
908.604	4379
908.72	4287
908.836	4405
908.952	4417
909.068	4443
909.184	4561
909.3	4485
909.415	4599
909.531	4523
909.647	4363
909.762	4375
909.878	4344
909.993	4451
910.108	4417
910.224	4390
910.339	4512
910.454	4428
910.57	4356
910.685	4310
910.8	4668
910.915	4573
911.03	4523
911.145	4383
911.259	4314
911.374	4409
911.489	4352
911.604	4227
911.718	4147
911.833	4230
911.947	4143
912.062	4063
912.176	4204
912.291	4215
912.405	4234
912.519	4459
912.633	4489
912.748	4394
912.862	4329
912.976	4230
913.09	4101
913.204	4185
913.318	4211
913.431	4363
913.545	4421
913.659	4432
913.772	4379
913.886	4265
914	4253
914.113	4367
914.226	4474
914.34	4379
914.453	4257
914.566	4432
914.68	4310
914.793	4356
914.906	4158
915.019	4101
915.132	4093
915.245	4227
915.358	4261
915.47	4211
915.583	4295
915.696	4268
915.809	4451
915.921	4405
916.034	4272
916.146	4249
916.259	4219
916.371	4371
916.483	4367
916.595	4268
916.708	4337
916.82	4322
916.932	4329
917.044	4306
917.156	4310
917.268	4242
917.38	4249
917.491	4322
917.603	4356
917.715	4466
917.826	4481
917.938	4379
918.049	4253
918.161	4417
918.272	4531
918.384	4558
918.495	4508
918.606	4348
918.717	4242
918.828	4367
918.939	4409
919.05	4261
919.161	4295
919.272	4097
919.383	4268
919.494	4447
919.604	4645
919.715	4428
919.826	4344
919.936	4383
920.047	4538
920.157	4508
920.267	4698
920.378	4573
920.488	4474
920.598	4710
920.708	4885
920.818	4736
920.928	4763
921.038	4972
921.148	4904
921.258	4630
921.368	4584
921.477	4508
921.587	4462
921.697	4386
921.806	4573
921.916	4428
922.025	4272
922.134	4265
922.244	4234
922.353	4337
922.462	4154
922.571	4143
922.68	3994
922.789	3983
922.898	3994
923.007	4013
923.116	4128
923.224	4086
923.333	4063
923.442	4017
923.55	4006
923.659	4040
923.767	4097
923.876	3998
923.984	4131
924.092	3975
924.201	4090
924.309	4101
924.417	4067
924.525	4086
924.633	4093
924.741	4892
924.849	3930
924.956	4120
925.064	3994
925.172	3896
925.279	3975
925.387	4067
925.494	4074
925.602	4181
925.709	4249
925.816	4071
925.924	4158
926.031	4234
926.138	4158
926.245	4204
926.352	4040
926.459	4276
926.566	4325
926.673	4154
926.779	4086
926.886	4124
926.993	3979
927.099	3972
927.206	3975
927.312	3987
927.419	4086
927.525	4013
927.631	4135
927.737	3953
927.843	3949
927.95	3838
928.056	3979
928.162	4010
928.267	4059
928.373	4641
928.479	4143
928.585	3888
928.69	4044
928.796	4059
928.901	3975
929.007	3865
929.112	4013
929.218	3987
929.323	4002
929.428	3945
929.533	4086
929.638	3911
929.743	3953
929.848	4059
929.953	4021
930.058	3937
930.163	3793
930.267	3854
930.372	3964
930.477	3823
930.581	4063
930.685	3956
930.79	3861
930.894	3873
930.998	3892
931.103	4036
931.207	3713
931.311	3720
931.415	3698
931.519	3511
931.623	3561
