Data from test_V78500241_97.txt Node
Date: Fri Mar 25 16:49:40 CST 2022
User: usil
Spectrometer: V785-0024
Trigger mode: 0
Integration Time (sec): 4.000000E-1
Scans to average: 1
Nonlinearity correction enabled: false
Boxcar width: 0
Storing dark spectrum: false
XAxis mode: Wavelengths
Number of Pixels in Spectrum: 1024
>>>>>Begin Spectral Data<<<<<
801.071	8050
801.214	7967
801.356	7909
801.499	7909
801.641	7860
801.783	7818
801.926	7993
802.068	7959
802.211	7955
802.353	8001
802.496	7917
802.638	7909
802.78	7970
802.923	7932
803.065	7849
803.208	7868
803.35	8001
803.492	8103
803.635	8130
803.777	7982
803.919	8084
804.061	8377
804.204	8096
804.346	8050
804.488	7967
804.63	8054
804.773	7944
804.915	8073
805.057	8191
805.199	8183
805.341	8210
805.483	8271
805.626	8199
805.768	8172
805.91	8145
806.052	8164
806.194	8096
806.336	8374
806.478	8100
806.62	8103
806.762	8195
806.904	8279
807.046	8560
807.188	8396
807.33	8324
807.472	8389
807.614	8138
807.756	8180
807.898	8084
808.04	7890
808.182	8001
808.324	7944
808.465	7970
808.607	7993
808.749	8153
808.891	8214
809.033	8279
809.174	8210
809.316	8077
809.458	8069
809.6	8020
809.741	8149
809.883	8046
810.025	8111
810.166	8130
810.308	8073
810.45	8069
810.591	8016
810.733	7757
810.875	7765
811.016	7514
811.158	7605
811.299	7658
811.441	7765
811.582	7795
811.724	7655
811.865	7628
812.007	7681
812.148	7651
812.29	7795
812.431	7852
812.573	7963
812.714	8153
812.855	8252
812.997	8248
813.138	8465
813.279	8294
813.421	8187
813.562	8172
813.703	7967
813.845	7822
813.986	7529
814.127	7350
814.268	7285
814.41	7312
814.551	7232
814.692	7301
814.833	7141
814.974	7164
815.115	7164
815.256	7046
815.397	7046
815.539	6989
815.68	6818
815.821	6833
815.962	6859
816.103	6905
816.244	6757
816.385	6665
816.526	6635
816.666	6479
816.807	6422
816.948	6525
817.089	6574
817.23	6528
817.371	6456
817.512	6509
817.653	6422
817.793	6429
817.934	6483
818.075	6517
818.216	6486
818.356	6547
818.497	6315
818.638	6243
818.778	6232
818.919	6125
819.06	6175
819.2	6376
819.341	6414
819.481	6407
819.622	6574
819.762	6821
819.903	6791
820.043	6593
820.184	6681
820.324	6662
820.465	6798
820.605	6730
820.746	6654
820.886	6582
821.026	6741
821.167	6852
821.307	6875
821.447	6905
821.588	6757
821.728	6623
821.868	6574
822.008	6395
822.149	6471
822.289	6414
822.429	6190
822.569	6167
822.709	6182
822.849	5920
822.99	5984
823.13	5973
823.27	5988
823.41	5824
823.55	5893
823.69	5847
823.83	5851
823.97	5726
824.11	5627
824.25	5608
824.389	5649
824.529	5619
824.669	5566
824.809	5733
824.949	5691
825.089	5657
825.228	5630
825.368	5459
825.508	5429
825.648	5414
825.787	5387
825.927	5414
826.067	5337
826.206	5288
826.346	5433
826.485	5452
826.625	5478
826.765	5573
826.904	5467
827.044	5322
827.183	5220
827.323	5204
827.462	5280
827.601	5227
827.741	5284
827.88	5265
828.02	5136
828.159	5250
828.298	5376
828.437	5402
828.577	5345
828.716	5585
828.855	5349
828.994	5231
829.134	5204
829.273	5258
829.412	5185
829.551	5181
829.69	5174
829.829	5303
829.968	5471
830.107	5341
830.246	5318
830.385	5239
830.524	5181
830.663	5170
830.802	5086
830.941	4976
831.08	4949
831.219	5056
831.357	5045
831.496	5231
831.635	4972
831.774	4908
831.913	4938
832.051	4771
832.19	4801
832.329	4885
832.467	4721
832.606	4717
832.744	4786
832.883	4744
833.022	4809
833.16	4889
833.299	4847
833.437	4877
833.576	4870
833.714	4949
833.852	4870
833.991	4961
834.129	5056
834.267	5018
834.406	4957
834.544	5067
834.682	4999
834.821	5045
834.959	5197
835.097	4999
835.235	5201
835.373	5128
835.511	5159
835.65	5064
835.788	5067
835.926	4953
836.064	4900
836.202	4934
836.34	5162
836.478	5277
836.615	5185
836.753	5273
836.891	5360
837.029	5307
837.167	5280
837.305	5223
837.443	5216
837.58	5132
837.718	5307
837.856	5261
837.993	5166
838.131	5303
838.269	5265
838.406	5250
838.544	5223
838.681	5025
838.819	5060
838.956	5010
839.094	4949
839.231	5064
839.369	5117
839.506	5467
839.643	5345
839.781	5174
839.918	5083
840.055	5105
840.193	5140
840.33	5181
840.467	5162
840.604	5284
840.742	5429
840.879	5166
841.016	5201
841.153	5193
841.29	5425
841.427	5406
841.564	5326
841.701	5429
841.838	5330
841.975	5299
842.112	5315
842.249	5185
842.385	5162
842.522	5360
842.659	5227
842.796	5204
842.933	5208
843.069	5174
843.206	5201
843.343	5360
843.479	5223
843.616	5334
843.752	5094
843.889	5079
844.025	5269
844.162	5098
844.298	5227
844.435	5086
844.571	5113
844.708	5235
844.844	5345
844.98	5376
845.117	5341
845.253	5174
845.389	5094
845.525	5216
845.661	5185
845.798	5094
845.934	5155
846.07	5143
846.206	5246
846.342	5376
846.478	5231
846.614	5109
846.75	5067
846.886	4957
847.022	5174
847.158	5090
847.294	5090
847.429	5124
847.565	5071
847.701	5383
847.837	4877
847.972	4885
848.108	4961
848.244	4987
848.379	4839
848.515	4812
848.65	4782
848.786	4801
848.921	4778
849.057	4900
849.192	4934
849.328	4824
849.463	4927
849.598	4862
849.734	4839
849.869	4763
850.004	4645
850.14	4721
850.275	4660
850.41	4558
850.545	4626
850.68	4622
850.815	4660
850.95	4710
851.085	4896
851.22	4733
851.355	4717
851.49	4675
851.625	4698
851.76	4729
851.895	4645
852.03	4573
852.165	4698
852.299	4767
852.434	4870
852.569	4771
852.703	4805
852.838	4854
852.973	4980
853.107	4984
853.242	4782
853.376	4755
853.511	4615
853.645	4683
853.78	4919
853.914	4744
854.048	4721
854.183	4706
854.317	4687
854.451	4900
854.585	4733
854.72	4725
854.854	4812
854.988	4687
855.122	4706
855.256	4611
855.39	4656
855.524	4774
855.658	4809
855.792	4683
855.926	4752
856.06	4774
856.194	4850
856.327	4729
856.461	4668
856.595	4634
856.729	4615
856.862	4744
856.996	4752
857.13	4820
857.263	4774
857.397	4847
857.53	4702
857.664	4759
857.797	4831
857.931	4816
858.064	4702
858.197	4774
858.331	4672
858.464	4637
858.597	4577
858.731	4702
858.864	4656
858.997	4672
859.13	4668
859.263	4736
859.396	4740
859.529	4622
859.662	4580
859.795	4603
859.928	4607
860.061	4828
860.194	4816
860.327	4592
860.46	4599
860.592	4736
860.725	4771
860.858	4755
860.99	4653
861.123	4558
861.256	4561
861.388	4710
861.521	5296
861.653	4531
861.786	4485
861.918	4527
862.05	4573
862.183	4603
862.315	4645
862.447	4748
862.58	4546
862.712	4466
862.844	4432
862.976	4478
863.108	4497
863.24	4892
863.372	4367
863.504	4451
863.636	4443
863.768	4519
863.9	4478
864.032	4405
864.164	4462
864.296	4512
864.428	4573
864.559	4580
864.691	4519
864.823	4538
864.954	4500
865.086	4565
865.217	4443
865.349	4474
865.48	4474
865.612	4554
865.743	4645
865.875	4497
866.006	4462
866.137	4485
866.269	4493
866.4	4497
866.531	4478
866.662	4409
866.793	4424
866.924	4462
867.055	4577
867.186	4462
867.317	4459
867.448	4424
867.579	4436
867.71	4447
867.841	4402
867.972	4527
868.103	4512
868.233	4512
868.364	4508
868.495	4523
868.625	4710
868.756	4809
868.886	4653
869.017	4630
869.147	4782
869.278	4801
869.408	4721
869.539	4668
869.669	4748
869.799	4660
869.929	4793
870.06	4774
870.19	4957
870.32	4938
870.45	4995
870.58	5041
870.71	5185
870.84	5140
870.97	4961
871.1	4915
871.23	5208
871.36	5155
871.489	5018
871.619	5083
871.749	5132
871.879	5128
872.008	5273
872.138	5098
872.267	4999
872.397	4896
872.526	4843
872.656	4748
872.785	4835
872.915	4949
873.044	5048
873.173	4949
873.303	5006
873.432	5018
873.561	4972
873.69	4904
873.819	4881
873.948	4930
874.077	4839
874.206	4797
874.335	4862
874.464	4957
874.593	5113
874.722	5003
874.851	5174
874.979	5094
875.108	5037
875.237	4896
875.365	4873
875.494	4896
875.623	4984
875.751	4904
875.88	4892
876.008	5052
876.136	5033
876.265	5235
876.393	5395
876.521	5288
876.65	5288
876.778	5242
876.906	5052
877.034	5064
877.162	5067
877.29	5052
877.418	5086
877.546	5094
877.674	5086
877.802	5090
877.93	5056
878.058	4957
878.185	4923
878.313	4995
878.441	4968
878.568	4790
878.696	4900
878.824	4987
878.951	5052
879.079	5197
879.206	5387
879.333	5185
879.461	5060
879.588	5094
879.715	5151
879.842	5299
879.97	5060
880.097	4866
880.224	4820
880.351	4862
880.478	4877
880.605	4873
880.732	4839
880.859	5124
880.986	4938
881.112	4946
881.239	4858
881.366	4759
881.493	4675
881.619	4607
881.746	4687
881.872	4714
881.999	4748
882.125	4774
882.252	4873
882.378	4881
882.505	5022
882.631	4873
882.757	4710
882.883	4839
883.01	4752
883.136	4729
883.262	4721
883.388	4672
883.514	4858
883.64	4965
883.766	4889
883.892	4763
884.018	4786
884.143	4915
884.269	5064
884.395	4725
884.52	4668
884.646	4664
884.772	4672
884.897	4603
885.023	4733
885.148	4896
885.274	4965
885.399	4870
885.524	4820
885.65	4725
885.775	4786
885.9	4752
886.025	4942
886.15	4854
886.275	4805
886.4	4691
886.525	4812
886.65	4729
886.775	4744
886.9	4949
887.025	5109
887.149	4850
887.274	4725
887.399	4645
887.523	4702
887.648	4691
887.773	4672
887.897	4839
888.021	4843
888.146	4721
888.27	4809
888.395	4968
888.519	4870
888.643	4858
888.767	4934
888.891	4725
889.015	4653
889.139	4714
889.263	4656
889.387	4843
889.511	4957
889.635	4866
889.759	4748
889.883	4733
890.006	4778
890.13	4908
890.254	4683
890.377	4729
890.501	4615
890.624	4596
890.748	4656
890.871	4565
890.995	4508
891.118	4424
891.241	4584
891.364	4580
891.488	4672
891.611	4561
891.734	4653
891.857	4656
891.98	4603
892.103	4706
892.226	4649
892.349	4630
892.471	4493
892.594	4603
892.717	4683
892.839	4653
892.962	4672
893.085	4691
893.207	4626
893.33	4508
893.452	4569
893.575	4736
893.697	4626
893.819	4797
893.941	4896
894.064	4847
894.186	4645
894.308	4653
894.43	4805
894.552	4858
894.674	4763
894.796	4622
894.918	4630
895.04	4626
895.161	4748
895.283	4725
895.405	4577
895.526	4691
895.648	4801
895.769	4812
895.891	4835
896.012	4828
896.134	4771
896.255	4729
896.376	4683
896.498	4687
896.619	4691
896.74	4656
896.861	4721
896.982	4949
897.103	5132
897.224	4892
897.345	4786
897.466	4733
897.587	4763
897.708	4885
897.828	4858
897.949	4717
898.07	4649
898.19	4687
898.311	4911
898.431	4729
898.552	4816
898.672	4862
898.792	4881
898.913	4786
899.033	4679
899.153	4588
899.273	4531
899.393	4588
899.513	4580
899.633	4565
899.753	4577
899.873	4542
899.993	4637
900.113	4569
900.232	4656
900.352	4645
900.472	4500
900.591	4485
900.711	4542
900.83	4512
900.95	4641
901.069	4733
901.189	4618
901.308	4417
901.427	4367
901.546	4455
901.665	4542
901.784	4618
901.904	4409
902.023	4375
902.141	4234
902.26	4257
902.379	4356
902.498	4287
902.617	4329
902.735	4402
902.854	4432
902.973	4440
903.091	4287
903.21	4276
903.328	4375
903.446	4363
903.565	4356
903.683	4474
903.801	4344
903.919	4432
904.038	4516
904.156	4360
904.274	4489
904.392	4497
904.51	4512
904.627	4554
904.745	4637
904.863	4664
904.981	4447
905.098	4417
905.216	4447
905.334	4443
905.451	4493
905.569	4485
905.686	4603
905.803	4599
905.921	4500
906.038	4637
906.155	4497
906.272	4451
906.389	4489
906.506	4440
906.623	4478
906.74	4432
906.857	4417
906.974	4383
907.091	4577
907.208	4725
907.324	4622
907.441	4527
907.557	4402
907.674	4428
907.79	4363
907.907	4436
908.023	4527
908.139	4516
908.256	4474
908.372	4508
908.488	4478
908.604	4409
908.72	4383
908.836	4447
908.952	4421
909.068	4508
909.184	4634
909.3	4550
909.415	4634
909.531	4542
909.647	4409
909.762	4466
909.878	4398
909.993	4489
910.108	4447
910.224	4432
910.339	4493
910.454	4440
910.57	4375
910.685	4375
910.8	4679
910.915	4634
911.03	4592
911.145	4337
911.259	4459
911.374	4390
911.489	4356
911.604	4295
911.718	4223
911.833	4257
911.947	4131
912.062	4093
912.176	4230
912.291	4306
912.405	4291
912.519	4550
912.633	4542
912.748	4421
912.862	4284
912.976	4318
913.09	4147
913.204	4238
913.318	4348
913.431	4424
913.545	4421
913.659	4512
913.772	4417
913.886	4295
914	4276
914.113	4405
914.226	4489
914.34	4402
914.453	4287
914.566	4493
914.68	4363
914.793	4413
914.906	4173
915.019	4173
915.132	4131
915.245	4219
915.358	4268
915.47	4318
915.583	4356
915.696	4322
915.809	4485
915.921	4493
916.034	4303
916.146	4322
916.259	4299
916.371	4447
916.483	4386
916.595	4284
916.708	4383
916.82	4394
916.932	4348
917.044	4379
917.156	4386
917.268	4276
917.38	4314
917.491	4299
917.603	4371
917.715	4481
917.826	4443
917.938	4398
918.049	4257
918.161	4390
918.272	4622
918.384	4535
918.495	4489
918.606	4341
918.717	4291
918.828	4424
918.939	4386
919.05	4291
919.161	4421
919.272	4223
919.383	4306
919.494	4493
919.604	4679
919.715	4474
919.826	4371
919.936	4455
920.047	4622
920.157	4542
920.267	4763
920.378	4618
920.488	4546
920.598	4771
920.708	4946
920.818	4809
920.928	4816
921.038	5006
921.148	4999
921.258	4668
921.368	4588
921.477	4577
921.587	4531
921.697	4421
921.806	4592
921.916	4485
922.025	4337
922.134	4341
922.244	4272
922.353	4341
922.462	4192
922.571	4211
922.68	4036
922.789	3975
922.898	4090
923.007	4048
923.116	4101
923.224	4086
923.333	4143
923.442	4044
923.55	4032
923.659	4074
923.767	4154
923.876	4032
923.984	4143
924.092	4006
924.201	4131
924.309	4105
924.417	4162
924.525	4101
924.633	4082
924.741	4946
924.849	3998
924.956	4227
925.064	3972
925.172	3968
925.279	4021
925.387	4090
925.494	4090
925.602	4265
925.709	4227
925.816	4097
925.924	4169
926.031	4276
926.138	4204
926.245	4242
926.352	4139
926.459	4265
926.566	4375
926.673	4200
926.779	4147
926.886	4150
926.993	4006
927.099	3968
927.206	3979
927.312	3998
927.419	4093
927.525	4097
927.631	4154
927.737	3956
927.843	4021
927.95	3903
928.056	3998
928.162	3994
928.267	4097
928.373	4649
928.479	4200
928.585	3953
928.69	4032
928.796	4169
928.901	4002
929.007	3911
929.112	4067
929.218	4017
929.323	3991
929.428	4006
929.533	4154
929.638	3979
929.743	4010
929.848	4116
929.953	4017
930.058	3934
930.163	3819
930.267	3892
930.372	4040
930.477	3827
930.581	4124
930.685	4032
930.79	3846
930.894	3930
930.998	3937
931.103	4109
931.207	3759
931.311	3740
931.415	3743
931.519	3553
931.623	3610
