Data from test_V78500241_1335.txt Node
Date: Fri Mar 25 16:58:17 CST 2022
User: usil
Spectrometer: V785-0024
Trigger mode: 0
Integration Time (sec): 4.000000E-1
Scans to average: 1
Nonlinearity correction enabled: false
Boxcar width: 0
Storing dark spectrum: false
XAxis mode: Wavelengths
Number of Pixels in Spectrum: 1024
>>>>>Begin Spectral Data<<<<<
801.071	7986
801.214	8008
801.356	7898
801.499	7868
801.641	7788
801.783	7792
801.926	7913
802.068	7898
802.211	7974
802.353	7879
802.496	7803
802.638	7845
802.78	7921
802.923	7970
803.065	7830
803.208	7883
803.35	7959
803.492	8054
803.635	8081
803.777	8043
803.919	8088
804.061	8473
804.204	8145
804.346	8035
804.488	7963
804.63	8062
804.773	8012
804.915	8103
805.057	8294
805.199	8119
805.341	8252
805.483	8221
805.626	8157
805.768	8187
805.91	8195
806.052	8183
806.194	8088
806.336	8202
806.478	8084
806.62	8005
806.762	8142
806.904	8324
807.046	8423
807.188	8374
807.33	8202
807.472	8252
807.614	8119
807.756	8103
807.898	7986
808.04	7864
808.182	7909
808.324	7887
808.465	7944
808.607	8077
808.749	8111
808.891	8183
809.033	8290
809.174	8202
809.316	8069
809.458	8039
809.6	7974
809.741	8001
809.883	7947
810.025	8088
810.166	8016
810.308	8043
810.45	8001
810.591	7845
810.733	7639
810.875	7666
811.016	7537
811.158	7483
811.299	7582
811.441	7696
811.582	7708
811.724	7548
811.865	7487
812.007	7601
812.148	7575
812.29	7609
812.431	7772
812.573	7818
812.714	7928
812.855	8043
812.997	8187
813.138	8229
813.279	8248
813.421	8069
813.562	8005
813.703	7875
813.845	7742
813.986	7438
814.127	7259
814.268	7198
814.41	7209
814.551	7126
814.692	7168
814.833	7069
814.974	7019
815.115	7076
815.256	6996
815.397	6989
815.539	6951
815.68	6848
815.821	6753
815.962	6882
816.103	6795
816.244	6677
816.385	6589
816.526	6574
816.666	6479
816.807	6311
816.948	6456
817.089	6448
817.23	6407
817.371	6380
817.512	6350
817.653	6357
817.793	6323
817.934	6391
818.075	6429
818.216	6372
818.356	6350
818.497	6182
818.638	6064
818.778	6148
818.919	6144
819.06	6148
819.2	6319
819.341	6315
819.481	6308
819.622	6471
819.762	6722
819.903	6688
820.043	6563
820.184	6540
820.324	6559
820.465	6692
820.605	6669
820.746	6642
820.886	6513
821.026	6631
821.167	6703
821.307	6738
821.447	6700
821.588	6627
821.728	6540
821.868	6486
822.008	6311
822.149	6418
822.289	6353
822.429	6106
822.569	6034
822.709	6098
822.849	5901
822.99	5885
823.13	5901
823.27	5893
823.41	5771
823.55	5824
823.69	5710
823.83	5813
823.97	5623
824.11	5547
824.25	5433
824.389	5543
824.529	5570
824.669	5505
824.809	5680
824.949	5649
825.089	5608
825.228	5558
825.368	5398
825.508	5330
825.648	5303
825.787	5383
825.927	5357
826.067	5254
826.206	5288
826.346	5315
826.485	5402
826.625	5376
826.765	5520
826.904	5436
827.044	5261
827.183	5162
827.323	5067
827.462	5246
827.601	5185
827.741	5113
827.88	5181
828.02	5113
828.159	5227
828.298	5239
828.437	5353
828.577	5254
828.716	5474
828.855	5322
828.994	5140
829.134	5136
829.273	5159
829.412	5155
829.551	5132
829.69	5140
829.829	5231
829.968	5341
830.107	5239
830.246	5246
830.385	5178
830.524	5109
830.663	5090
830.802	4938
830.941	4847
831.08	4835
831.219	4980
831.357	4961
831.496	5109
831.635	4892
831.774	4786
831.913	4847
832.051	4683
832.19	4782
832.329	4847
832.467	4683
832.606	4653
832.744	4748
832.883	4710
833.022	4721
833.16	4687
833.299	4816
833.437	4755
833.576	4820
833.714	4847
833.852	4858
833.991	4870
834.129	4938
834.267	4927
834.406	4877
834.544	4949
834.682	4961
834.821	4949
834.959	5143
835.097	4904
835.235	5124
835.373	5136
835.511	5056
835.65	4995
835.788	4972
835.926	4908
836.064	4881
836.202	4911
836.34	5124
836.478	5189
836.615	5113
836.753	5239
836.891	5277
837.029	5223
837.167	5170
837.305	5212
837.443	5132
837.58	5075
837.718	5239
837.856	5178
837.993	5162
838.131	5223
838.269	5162
838.406	5220
838.544	5178
838.681	4984
838.819	4968
838.956	4911
839.094	4877
839.231	4946
839.369	5060
839.506	5379
839.643	5292
839.781	5079
839.918	5045
840.055	5071
840.193	5029
840.33	5045
840.467	5124
840.604	5220
840.742	5383
840.879	5067
841.016	5060
841.153	5143
841.29	5334
841.427	5296
841.564	5280
841.701	5307
841.838	5231
841.975	5208
842.112	5223
842.249	5052
842.385	5048
842.522	5284
842.659	5140
842.796	5109
842.933	5212
843.069	5113
843.206	5075
843.343	5261
843.479	5231
843.616	5273
843.752	4976
843.889	4995
844.025	5239
844.162	5006
844.298	5201
844.435	5067
844.571	5014
844.708	5208
844.844	5307
844.98	5322
845.117	5296
845.253	5155
845.389	5075
845.525	5124
845.661	5140
845.798	5006
845.934	5109
846.07	5052
846.206	5159
846.342	5288
846.478	5140
846.614	5003
846.75	4934
846.886	4934
847.022	5117
847.158	5037
847.294	5098
847.429	5113
847.565	5064
847.701	5368
847.837	4870
847.972	4824
848.108	5018
848.244	4930
848.379	4767
848.515	4710
848.65	4744
848.786	4771
848.921	4786
849.057	4892
849.192	4892
849.328	4843
849.463	4835
849.598	4812
849.734	4828
849.869	4698
850.004	4630
850.14	4664
850.275	4588
850.41	4569
850.545	4596
850.68	4641
850.815	4618
850.95	4630
851.085	4904
851.22	4767
851.355	4714
851.49	4615
851.625	4679
851.76	4717
851.895	4607
852.03	4531
852.165	4687
852.299	4763
852.434	4816
852.569	4748
852.703	4797
852.838	4812
852.973	4957
853.107	4953
853.242	4790
853.376	4710
853.511	4592
853.645	4645
853.78	4824
853.914	4763
854.048	4702
854.183	4660
854.317	4702
854.451	4892
854.585	4717
854.72	4714
854.854	4824
854.988	4554
855.122	4687
855.256	4561
855.39	4683
855.524	4843
855.658	4748
855.792	4725
855.926	4774
856.06	4831
856.194	4820
856.327	4744
856.461	4603
856.595	4637
856.729	4679
856.862	4790
856.996	4698
857.13	4805
857.263	4801
857.397	4828
857.53	4721
857.664	4759
857.797	4793
857.931	4854
858.064	4744
858.197	4763
858.331	4675
858.464	4653
858.597	4607
858.731	4641
858.864	4675
858.997	4622
859.13	4645
859.263	4687
859.396	4687
859.529	4641
859.662	4569
859.795	4542
859.928	4641
860.061	4797
860.194	4771
860.327	4649
860.46	4630
860.592	4702
860.725	4687
860.858	4706
860.99	4641
861.123	4504
861.256	4531
861.388	4641
861.521	5296
861.653	4531
861.786	4451
861.918	4447
862.05	4592
862.183	4561
862.315	4679
862.447	4626
862.58	4588
862.712	4405
862.844	4409
862.976	4542
863.108	4466
863.24	4900
863.372	4375
863.504	4459
863.636	4489
863.768	4550
863.9	4470
864.032	4348
864.164	4424
864.296	4516
864.428	4554
864.559	4580
864.691	4554
864.823	4569
864.954	4550
865.086	4565
865.217	4474
865.349	4459
865.48	4481
865.612	4485
865.743	4649
865.875	4504
866.006	4443
866.137	4474
866.269	4443
866.4	4489
866.531	4436
866.662	4432
866.793	4451
866.924	4436
867.055	4523
867.186	4474
867.317	4428
867.448	4394
867.579	4436
867.71	4424
867.841	4375
867.972	4512
868.103	4542
868.233	4474
868.364	4504
868.495	4481
868.625	4641
868.756	4809
868.886	4596
869.017	4660
869.147	4797
869.278	4767
869.408	4691
869.539	4622
869.669	4687
869.799	4679
869.929	4733
870.06	4797
870.19	4999
870.32	4991
870.45	4957
870.58	5006
870.71	5098
870.84	5140
870.97	4968
871.1	4949
871.23	5178
871.36	5143
871.489	5010
871.619	5121
871.749	5094
871.879	5109
872.008	5193
872.138	5067
872.267	4999
872.397	4873
872.526	4843
872.656	4744
872.785	4805
872.915	4976
873.044	5056
873.173	4915
873.303	4957
873.432	4972
873.561	4980
873.69	4870
873.819	4885
873.948	4927
874.077	4873
874.206	4733
874.335	4896
874.464	4953
874.593	5071
874.722	4976
874.851	5064
874.979	5121
875.108	5045
875.237	4923
875.365	4885
875.494	4866
875.623	5018
875.751	4866
875.88	4881
876.008	5037
876.136	5094
876.265	5197
876.393	5406
876.521	5292
876.65	5261
876.778	5189
876.906	5121
877.034	5037
877.162	5090
877.29	4987
877.418	5067
877.546	5094
877.674	5094
877.802	5045
877.93	5037
878.058	4968
878.185	4885
878.313	4972
878.441	4911
878.568	4839
878.696	4877
878.824	4995
878.951	5033
879.079	5151
879.206	5277
879.333	5105
879.461	5003
879.588	5003
879.715	5124
879.842	5208
879.97	5014
880.097	4774
880.224	4733
880.351	4854
880.478	4847
880.605	4778
880.732	4801
880.859	5086
880.986	4915
881.112	4908
881.239	4816
881.366	4653
881.493	4656
881.619	4592
881.746	4637
881.872	4596
881.999	4660
882.125	4706
882.252	4786
882.378	4843
882.505	4980
882.631	4858
882.757	4679
882.883	4748
883.01	4733
883.136	4698
883.262	4649
883.388	4641
883.514	4824
883.64	4900
883.766	4816
883.892	4721
884.018	4717
884.143	4885
884.269	5045
884.395	4679
884.52	4634
884.646	4679
884.772	4592
884.897	4588
885.023	4740
885.148	4805
885.274	4835
885.399	4805
885.524	4706
885.65	4748
885.775	4759
885.9	4733
886.025	4866
886.15	4820
886.275	4725
886.4	4687
886.525	4733
886.65	4706
886.775	4706
886.9	4968
887.025	5048
887.149	4782
887.274	4694
887.399	4626
887.523	4626
887.648	4615
887.773	4561
887.897	4744
888.021	4786
888.146	4694
888.27	4881
888.395	4930
888.519	4809
888.643	4767
888.767	4831
888.891	4729
889.015	4637
889.139	4630
889.263	4634
889.387	4748
889.511	4896
889.635	4755
889.759	4668
889.883	4649
890.006	4717
890.13	4847
890.254	4641
890.377	4645
890.501	4573
890.624	4558
890.748	4664
890.871	4535
890.995	4462
891.118	4459
891.241	4478
891.364	4569
891.488	4626
891.611	4485
891.734	4596
891.857	4561
891.98	4538
892.103	4672
892.226	4630
892.349	4550
892.471	4462
892.594	4596
892.717	4596
892.839	4573
892.962	4603
893.085	4694
893.207	4603
893.33	4462
893.452	4535
893.575	4683
893.697	4641
893.819	4843
893.941	4862
894.064	4748
894.186	4573
894.308	4607
894.43	4714
894.552	4835
894.674	4778
894.796	4535
894.918	4622
895.04	4592
895.161	4748
895.283	4691
895.405	4569
895.526	4634
895.648	4748
895.769	4702
895.891	4736
896.012	4714
896.134	4748
896.255	4679
896.376	4626
896.498	4599
896.619	4694
896.74	4622
896.861	4630
896.982	4965
897.103	5113
897.224	4831
897.345	4706
897.466	4634
897.587	4767
897.708	4881
897.828	4805
897.949	4698
898.07	4607
898.19	4634
898.311	4831
898.431	4694
898.552	4786
898.672	4820
898.792	4767
898.913	4759
899.033	4599
899.153	4516
899.273	4455
899.393	4512
899.513	4577
899.633	4542
899.753	4546
899.873	4481
899.993	4599
900.113	4519
900.232	4573
900.352	4504
900.472	4516
900.591	4417
900.711	4523
900.83	4447
900.95	4592
901.069	4706
901.189	4588
901.308	4375
901.427	4341
901.546	4413
901.665	4459
901.784	4531
901.904	4398
902.023	4337
902.141	4200
902.26	4131
902.379	4325
902.498	4265
902.617	4280
902.735	4390
902.854	4436
902.973	4360
903.091	4227
903.21	4265
903.328	4272
903.446	4280
903.565	4276
903.683	4398
903.801	4287
903.919	4417
904.038	4440
904.156	4318
904.274	4424
904.392	4432
904.51	4451
904.627	4474
904.745	4569
904.863	4622
904.981	4390
905.098	4344
905.216	4402
905.334	4440
905.451	4428
905.569	4478
905.686	4542
905.803	4580
905.921	4413
906.038	4577
906.155	4451
906.272	4447
906.389	4436
906.506	4356
906.623	4417
906.74	4363
906.857	4341
906.974	4424
907.091	4558
907.208	4698
907.324	4603
907.441	4519
907.557	4356
907.674	4371
907.79	4291
907.907	4390
908.023	4451
908.139	4470
908.256	4493
908.372	4504
908.488	4455
908.604	4363
908.72	4348
908.836	4455
908.952	4341
909.068	4417
909.184	4615
909.3	4470
909.415	4554
909.531	4512
909.647	4371
909.762	4398
909.878	4375
909.993	4455
910.108	4383
910.224	4390
910.339	4485
910.454	4398
910.57	4375
910.685	4276
910.8	4668
910.915	4535
911.03	4500
911.145	4348
911.259	4360
911.374	4413
911.489	4310
911.604	4299
911.718	4181
911.833	4200
911.947	4090
912.062	4059
912.176	4147
912.291	4242
912.405	4185
912.519	4481
912.633	4565
912.748	4360
912.862	4344
912.976	4177
913.09	4067
913.204	4204
913.318	4246
913.431	4375
913.545	4341
913.659	4421
913.772	4344
913.886	4234
914	4169
914.113	4409
914.226	4436
914.34	4409
914.453	4284
914.566	4440
914.68	4337
914.793	4344
914.906	4154
915.019	4116
915.132	4071
915.245	4223
915.358	4253
915.47	4249
915.583	4261
915.696	4295
915.809	4443
915.921	4466
916.034	4276
916.146	4291
916.259	4280
916.371	4398
916.483	4367
916.595	4333
916.708	4356
916.82	4329
916.932	4356
917.044	4356
917.156	4352
917.268	4265
917.38	4310
917.491	4299
917.603	4363
917.715	4478
917.826	4519
917.938	4383
918.049	4314
918.161	4455
918.272	4603
918.384	4573
918.495	4497
918.606	4360
918.717	4295
918.828	4337
918.939	4379
919.05	4284
919.161	4371
919.272	4192
919.383	4257
919.494	4497
919.604	4691
919.715	4466
919.826	4383
919.936	4474
920.047	4577
920.157	4542
920.267	4694
920.378	4573
920.488	4599
920.598	4733
920.708	4942
920.818	4820
920.928	4801
921.038	5033
921.148	4953
921.258	4691
921.368	4660
921.477	4577
921.587	4485
921.697	4421
921.806	4561
921.916	4485
922.025	4303
922.134	4333
922.244	4215
922.353	4424
922.462	4234
922.571	4166
922.68	4063
922.789	4021
922.898	4010
923.007	3998
923.116	4143
923.224	4074
923.333	4101
923.442	4055
923.55	3998
923.659	4093
923.767	4097
923.876	4059
923.984	4192
924.092	3998
924.201	4090
924.309	4116
924.417	4192
924.525	4109
924.633	4112
924.741	5067
924.849	3945
924.956	4166
925.064	3998
925.172	3949
925.279	4029
925.387	4105
925.494	4048
925.602	4242
925.709	4253
925.816	4082
925.924	4169
926.031	4272
926.138	4173
926.245	4200
926.352	4093
926.459	4310
926.566	4318
926.673	4253
926.779	4101
926.886	4147
926.993	4025
927.099	4010
927.206	3983
927.312	3994
927.419	4112
927.525	4051
927.631	4074
927.737	4032
927.843	3998
927.95	3892
928.056	3979
928.162	3987
928.267	4071
928.373	4729
928.479	4166
928.585	3903
928.69	4013
928.796	4154
928.901	4021
929.007	3850
929.112	4048
929.218	4002
929.323	4013
929.428	3994
929.533	4131
929.638	3934
929.743	3998
929.848	4036
929.953	4017
930.058	3979
930.163	3793
930.267	3873
930.372	4017
930.477	3823
930.581	4109
930.685	4021
930.79	3876
930.894	3911
930.998	3884
931.103	4090
931.207	3762
931.311	3724
931.415	3698
931.519	3587
931.623	3591
