Data from test_V78500241_1381.txt Node
Date: Fri Mar 25 16:58:36 CST 2022
User: usil
Spectrometer: V785-0024
Trigger mode: 0
Integration Time (sec): 4.000000E-1
Scans to average: 1
Nonlinearity correction enabled: false
Boxcar width: 0
Storing dark spectrum: false
XAxis mode: Wavelengths
Number of Pixels in Spectrum: 1024
>>>>>Begin Spectral Data<<<<<
801.071	8031
801.214	8027
801.356	7875
801.499	7856
801.641	7696
801.783	7719
801.926	7944
802.068	7898
802.211	7940
802.353	7978
802.496	7780
802.638	7936
802.78	7928
802.923	7902
803.065	7814
803.208	7818
803.35	7989
803.492	8062
803.635	8115
803.777	7993
803.919	8191
804.061	8385
804.204	8164
804.346	8100
804.488	7955
804.63	8065
804.773	8008
804.915	8043
805.057	8271
805.199	8145
805.341	8214
805.483	8317
805.626	8214
805.768	8107
805.91	8240
806.052	8210
806.194	8062
806.336	8320
806.478	8088
806.62	8073
806.762	8157
806.904	8271
807.046	8476
807.188	8339
807.33	8294
807.472	8290
807.614	8126
807.756	8153
807.898	7951
808.04	7917
808.182	7879
808.324	7913
808.465	7913
808.607	8130
808.749	8069
808.891	8206
809.033	8282
809.174	8126
809.316	8046
809.458	8020
809.6	7925
809.741	7955
809.883	8046
810.025	8111
810.166	8050
810.308	7959
810.45	8005
810.591	7818
810.733	7643
810.875	7651
811.016	7571
811.158	7457
811.299	7559
811.441	7715
811.582	7655
811.724	7563
811.865	7491
812.007	7518
812.148	7556
812.29	7639
812.431	7750
812.573	7917
812.714	7925
812.855	8103
812.997	8195
813.138	8233
813.279	8244
813.421	8134
813.562	7959
813.703	7852
813.845	7708
813.986	7392
814.127	7228
814.268	7202
814.41	7160
814.551	7095
814.692	7202
814.833	7088
814.974	7038
815.115	7065
815.256	7008
815.397	6943
815.539	6935
815.68	6837
815.821	6802
815.962	6856
816.103	6776
816.244	6703
816.385	6597
816.526	6570
816.666	6426
816.807	6266
816.948	6441
817.089	6433
817.23	6399
817.371	6380
817.512	6407
817.653	6311
817.793	6296
817.934	6429
818.075	6433
818.216	6448
818.356	6365
818.497	6220
818.638	6110
818.778	6079
818.919	6110
819.06	6186
819.2	6262
819.341	6308
819.481	6369
819.622	6551
819.762	6776
819.903	6662
820.043	6604
820.184	6555
820.324	6574
820.465	6749
820.605	6673
820.746	6601
820.886	6486
821.026	6608
821.167	6715
821.307	6741
821.447	6700
821.588	6669
821.728	6616
821.868	6486
822.008	6319
822.149	6426
822.289	6342
822.429	6186
822.569	6007
822.709	6136
822.849	5855
822.99	5863
823.13	5920
823.27	5874
823.41	5794
823.55	5786
823.69	5767
823.83	5737
823.97	5642
824.11	5516
824.25	5455
824.389	5535
824.529	5596
824.669	5505
824.809	5649
824.949	5600
825.089	5661
825.228	5512
825.368	5406
825.508	5280
825.648	5341
825.787	5379
825.927	5379
826.067	5299
826.206	5284
826.346	5383
826.485	5398
826.625	5448
826.765	5547
826.904	5467
827.044	5197
827.183	5201
827.323	5147
827.462	5201
827.601	5170
827.741	5147
827.88	5170
828.02	5079
828.159	5204
828.298	5326
828.437	5318
828.577	5265
828.716	5474
828.855	5330
828.994	5147
829.134	5155
829.273	5159
829.412	5140
829.551	5136
829.69	5197
829.829	5246
829.968	5372
830.107	5223
830.246	5273
830.385	5174
830.524	5105
830.663	5048
830.802	4953
830.941	4889
831.08	4870
831.219	4976
831.357	4949
831.496	5098
831.635	4946
831.774	4793
831.913	4835
832.051	4710
832.19	4717
832.329	4843
832.467	4717
832.606	4611
832.744	4702
832.883	4710
833.022	4714
833.16	4759
833.299	4763
833.437	4790
833.576	4816
833.714	4835
833.852	4873
833.991	4873
834.129	4949
834.267	4949
834.406	4896
834.544	4968
834.682	4934
834.821	4930
834.959	5102
835.097	5025
835.235	5147
835.373	5086
835.511	5048
835.65	5033
835.788	5006
835.926	4858
836.064	4862
836.202	4915
836.34	5166
836.478	5227
836.615	5041
836.753	5208
836.891	5235
837.029	5242
837.167	5208
837.305	5151
837.443	5155
837.58	5060
837.718	5284
837.856	5201
837.993	5128
838.131	5189
838.269	5197
838.406	5208
838.544	5197
838.681	5067
838.819	5029
838.956	4881
839.094	4873
839.231	5003
839.369	5033
839.506	5387
839.643	5254
839.781	5052
839.918	5037
840.055	5083
840.193	5098
840.33	5064
840.467	5124
840.604	5193
840.742	5486
840.879	5029
841.016	5048
841.153	5159
841.29	5368
841.427	5330
841.564	5307
841.701	5395
841.838	5242
841.975	5254
842.112	5315
842.249	5155
842.385	5083
842.522	5330
842.659	5162
842.796	5109
842.933	5235
843.069	5136
843.206	5151
843.343	5258
843.479	5250
843.616	5220
843.752	5010
843.889	4953
844.025	5178
844.162	4938
844.298	5178
844.435	5113
844.571	5003
844.708	5193
844.844	5277
844.98	5235
845.117	5261
845.253	5166
845.389	5067
845.525	5098
845.661	5109
845.798	5060
845.934	5117
846.07	5045
846.206	5193
846.342	5288
846.478	5128
846.614	5010
846.75	4949
846.886	4923
847.022	5143
847.158	5006
847.294	5037
847.429	5113
847.565	5018
847.701	5280
847.837	4839
847.972	4790
848.108	4934
848.244	4911
848.379	4748
848.515	4694
848.65	4721
848.786	4714
848.921	4767
849.057	4843
849.192	4885
849.328	4782
849.463	4858
849.598	4717
849.734	4744
849.869	4687
850.004	4584
850.14	4634
850.275	4611
850.41	4497
850.545	4527
850.68	4538
850.815	4626
850.95	4596
851.085	4816
851.22	4740
851.355	4649
851.49	4596
851.625	4626
851.76	4626
851.895	4516
852.03	4459
852.165	4653
852.299	4691
852.434	4763
852.569	4740
852.703	4740
852.838	4816
852.973	4889
853.107	4881
853.242	4694
853.376	4626
853.511	4527
853.645	4599
853.78	4793
853.914	4721
854.048	4668
854.183	4660
854.317	4656
854.451	4839
854.585	4637
854.72	4641
854.854	4740
854.988	4611
855.122	4660
855.256	4538
855.39	4592
855.524	4725
855.658	4714
855.792	4641
855.926	4717
856.06	4733
856.194	4797
856.327	4687
856.461	4580
856.595	4611
856.729	4622
856.862	4733
856.996	4687
857.13	4687
857.263	4721
857.397	4786
857.53	4626
857.664	4706
857.797	4748
857.931	4774
858.064	4675
858.197	4748
858.331	4656
858.464	4588
858.597	4542
858.731	4618
858.864	4626
858.997	4603
859.13	4664
859.263	4660
859.396	4668
859.529	4573
859.662	4607
859.795	4531
859.928	4607
860.061	4714
860.194	4786
860.327	4607
860.46	4561
860.592	4675
860.725	4706
860.858	4736
860.99	4580
861.123	4527
861.256	4493
861.388	4637
861.521	5429
861.653	4474
861.786	4478
861.918	4470
862.05	4489
862.183	4531
862.315	4542
862.447	4675
862.58	4546
862.712	4398
862.844	4318
862.976	4474
863.108	4455
863.24	4828
863.372	4303
863.504	4390
863.636	4379
863.768	4455
863.9	4424
864.032	4344
864.164	4386
864.296	4451
864.428	4542
864.559	4516
864.691	4554
864.823	4523
864.954	4478
865.086	4527
865.217	4462
865.349	4443
865.48	4428
865.612	4466
865.743	4634
865.875	4455
866.006	4398
866.137	4447
866.269	4436
866.4	4413
866.531	4436
866.662	4409
866.793	4417
866.924	4421
867.055	4462
867.186	4474
867.317	4329
867.448	4405
867.579	4360
867.71	4394
867.841	4363
867.972	4413
868.103	4485
868.233	4462
868.364	4462
868.495	4481
868.625	4687
868.756	4786
868.886	4523
869.017	4622
869.147	4797
869.278	4733
869.408	4653
869.539	4622
869.669	4755
869.799	4584
869.929	4710
870.06	4702
870.19	4919
870.32	4911
870.45	4915
870.58	4987
870.71	5060
870.84	5075
870.97	4896
871.1	4877
871.23	5128
871.36	5083
871.489	4984
871.619	5052
871.749	5060
871.879	5128
872.008	5132
872.138	4995
872.267	4942
872.397	4828
872.526	4771
872.656	4717
872.785	4805
872.915	4881
873.044	5045
873.173	4927
873.303	4949
873.432	4934
873.561	4946
873.69	4839
873.819	4839
873.948	4896
874.077	4816
874.206	4725
874.335	4786
874.464	4919
874.593	5075
874.722	4949
874.851	5098
874.979	5041
875.108	5025
875.237	4927
875.365	4858
875.494	4896
875.623	4991
875.751	4755
875.88	4889
876.008	4938
876.136	5056
876.265	5189
876.393	5326
876.521	5246
876.65	5212
876.778	5170
876.906	5033
877.034	5052
877.162	4995
877.29	4976
877.418	5037
877.546	5022
877.674	5041
877.802	5018
877.93	4961
878.058	4915
878.185	4896
878.313	4927
878.441	4923
878.568	4801
878.696	4908
878.824	4927
878.951	4919
879.079	5113
879.206	5273
879.333	5079
879.461	4965
879.588	4984
879.715	5079
879.842	5220
879.97	4984
880.097	4809
880.224	4733
880.351	4740
880.478	4790
880.605	4763
880.732	4759
880.859	5113
880.986	4911
881.112	4919
881.239	4755
881.366	4618
881.493	4573
881.619	4577
881.746	4645
881.872	4645
881.999	4656
882.125	4656
882.252	4767
882.378	4790
882.505	4900
882.631	4740
882.757	4660
882.883	4736
883.01	4710
883.136	4634
883.262	4592
883.388	4618
883.514	4774
883.64	4839
883.766	4790
883.892	4668
884.018	4733
884.143	4843
884.269	5037
884.395	4645
884.52	4622
884.646	4607
884.772	4554
884.897	4569
885.023	4622
885.148	4748
885.274	4873
885.399	4858
885.524	4694
885.65	4706
885.775	4702
885.9	4717
886.025	4866
886.15	4774
886.275	4710
886.4	4618
886.525	4694
886.65	4679
886.775	4660
886.9	4889
887.025	4980
887.149	4755
887.274	4641
887.399	4577
887.523	4622
887.648	4584
887.773	4607
887.897	4725
888.021	4812
888.146	4660
888.27	4793
888.395	4923
888.519	4771
888.643	4797
888.767	4778
888.891	4691
889.015	4577
889.139	4664
889.263	4630
889.387	4752
889.511	4870
889.635	4771
889.759	4596
889.883	4611
890.006	4717
890.13	4797
890.254	4618
890.377	4721
890.501	4493
890.624	4470
890.748	4637
890.871	4523
890.995	4421
891.118	4356
891.241	4580
891.364	4516
891.488	4645
891.611	4481
891.734	4531
891.857	4630
891.98	4512
892.103	4656
892.226	4618
892.349	4554
892.471	4455
892.594	4538
892.717	4561
892.839	4550
892.962	4573
893.085	4641
893.207	4573
893.33	4451
893.452	4565
893.575	4626
893.697	4561
893.819	4729
893.941	4854
894.064	4752
894.186	4588
894.308	4573
894.43	4759
894.552	4790
894.674	4752
894.796	4535
894.918	4588
895.04	4577
895.161	4637
895.283	4596
895.405	4577
895.526	4607
895.648	4679
895.769	4694
895.891	4744
896.012	4694
896.134	4706
896.255	4668
896.376	4645
896.498	4599
896.619	4702
896.74	4577
896.861	4645
896.982	4911
897.103	5033
897.224	4805
897.345	4725
897.466	4653
897.587	4706
897.708	4850
897.828	4793
897.949	4653
898.07	4538
898.19	4641
898.311	4790
898.431	4637
898.552	4706
898.672	4790
898.792	4771
898.913	4702
899.033	4603
899.153	4466
899.273	4405
899.393	4474
899.513	4527
899.633	4485
899.753	4538
899.873	4470
899.993	4565
900.113	4519
900.232	4523
900.352	4493
900.472	4451
900.591	4417
900.711	4493
900.83	4447
900.95	4607
901.069	4710
901.189	4531
901.308	4344
901.427	4314
901.546	4356
901.665	4485
901.784	4474
901.904	4379
902.023	4306
902.141	4188
902.26	4143
902.379	4284
902.498	4169
902.617	4219
902.735	4344
902.854	4367
902.973	4348
903.091	4192
903.21	4234
903.328	4306
903.446	4272
903.565	4242
903.683	4356
903.801	4272
903.919	4360
904.038	4409
904.156	4306
904.274	4360
904.392	4409
904.51	4462
904.627	4466
904.745	4538
904.863	4569
904.981	4428
905.098	4306
905.216	4394
905.334	4390
905.451	4405
905.569	4428
905.686	4565
905.803	4546
905.921	4363
906.038	4489
906.155	4516
906.272	4360
906.389	4493
906.506	4325
906.623	4341
906.74	4402
906.857	4310
906.974	4363
907.091	4500
907.208	4656
907.324	4569
907.441	4451
907.557	4344
907.674	4367
907.79	4337
907.907	4356
908.023	4447
908.139	4485
908.256	4474
908.372	4451
908.488	4379
908.604	4318
908.72	4341
908.836	4363
908.952	4356
909.068	4390
909.184	4577
909.3	4466
909.415	4599
909.531	4584
909.647	4276
909.762	4314
909.878	4310
909.993	4432
910.108	4371
910.224	4402
910.339	4440
910.454	4356
910.57	4348
910.685	4249
910.8	4637
910.915	4558
911.03	4470
911.145	4291
911.259	4291
911.374	4344
911.489	4314
911.604	4272
911.718	4166
911.833	4173
911.947	4090
912.062	4021
912.176	4219
912.291	4215
912.405	4242
912.519	4417
912.633	4481
912.748	4337
912.862	4253
912.976	4169
913.09	4135
913.204	4154
913.318	4234
913.431	4379
913.545	4383
913.659	4451
913.772	4329
913.886	4246
914	4249
914.113	4413
914.226	4440
914.34	4367
914.453	4234
914.566	4462
914.68	4295
914.793	4276
914.906	4150
915.019	4166
915.132	4071
915.245	4192
915.358	4219
915.47	4261
915.583	4280
915.696	4246
915.809	4386
915.921	4375
916.034	4249
916.146	4253
916.259	4192
916.371	4390
916.483	4341
916.595	4257
916.708	4337
916.82	4299
916.932	4352
917.044	4325
917.156	4360
917.268	4257
917.38	4272
917.491	4280
917.603	4360
917.715	4405
917.826	4432
917.938	4371
918.049	4284
918.161	4409
918.272	4626
918.384	4542
918.495	4485
918.606	4318
918.717	4261
918.828	4409
918.939	4379
919.05	4310
919.161	4375
919.272	4135
919.383	4287
919.494	4459
919.604	4672
919.715	4394
919.826	4413
919.936	4451
920.047	4554
920.157	4527
920.267	4740
920.378	4584
920.488	4531
920.598	4748
920.708	4942
920.818	4793
920.928	4782
921.038	4976
921.148	4934
921.258	4660
921.368	4630
921.477	4542
921.587	4500
921.697	4417
921.806	4573
921.916	4443
922.025	4310
922.134	4303
922.244	4287
922.353	4356
922.462	4192
922.571	4181
922.68	4044
922.789	4048
922.898	4063
923.007	4059
923.116	4128
923.224	4105
923.333	4112
923.442	4025
923.55	4002
923.659	4010
923.767	4128
923.876	4074
923.984	4139
924.092	4017
924.201	4124
924.309	4124
924.417	4158
924.525	4109
924.633	4131
924.741	5060
924.849	3915
924.956	4158
925.064	3934
925.172	3964
925.279	3964
925.387	4036
925.494	4112
925.602	4196
925.709	4227
925.816	4109
925.924	4173
926.031	4227
926.138	4169
926.245	4230
926.352	4128
926.459	4333
926.566	4356
926.673	4177
926.779	4082
926.886	4109
926.993	4025
927.099	4002
927.206	3968
927.312	4002
927.419	4044
927.525	4055
927.631	4135
927.737	3983
927.843	3937
927.95	3873
928.056	3964
928.162	4002
928.267	4097
928.373	4653
928.479	4135
928.585	3937
928.69	4017
928.796	4086
928.901	4021
929.007	3892
929.112	4029
929.218	4025
929.323	3941
929.428	3979
929.533	4150
929.638	3911
929.743	4021
929.848	4071
929.953	3979
930.058	3960
930.163	3793
930.267	3846
930.372	4029
930.477	3827
930.581	4131
930.685	4002
930.79	3812
930.894	3903
930.998	3838
931.103	4101
931.207	3789
931.311	3720
931.415	3660
931.519	3545
931.623	3515
