Data from test_V78500241_1524.txt Node
Date: Fri Mar 25 16:59:35 CST 2022
User: usil
Spectrometer: V785-0024
Trigger mode: 0
Integration Time (sec): 4.000000E-1
Scans to average: 1
Nonlinearity correction enabled: false
Boxcar width: 0
Storing dark spectrum: false
XAxis mode: Wavelengths
Number of Pixels in Spectrum: 1024
>>>>>Begin Spectral Data<<<<<
801.071	8035
801.214	8001
801.356	7894
801.499	7940
801.641	7792
801.783	7875
801.926	8012
802.068	7944
802.211	8008
802.353	7993
802.496	7814
802.638	7890
802.78	7928
802.923	8008
803.065	7822
803.208	7845
803.35	7940
803.492	8081
803.635	8252
803.777	8008
803.919	8187
804.061	8374
804.204	8172
804.346	8115
804.488	7997
804.63	8069
804.773	8062
804.915	8123
805.057	8229
805.199	8180
805.341	8256
805.483	8290
805.626	8210
805.768	8081
805.91	8210
806.052	8206
806.194	8138
806.336	8298
806.478	8176
806.62	8043
806.762	8103
806.904	8229
807.046	8526
807.188	8351
807.33	8332
807.472	8393
807.614	8199
807.756	8134
807.898	7986
808.04	7925
808.182	7909
808.324	7909
808.465	7944
808.607	8130
808.749	8115
808.891	8233
809.033	8275
809.174	8229
809.316	8046
809.458	8130
809.6	7974
809.741	8054
809.883	8092
810.025	8096
810.166	8100
810.308	8020
810.45	8001
810.591	7868
810.733	7826
810.875	7685
811.016	7502
811.158	7502
811.299	7590
811.441	7757
811.582	7674
811.724	7563
811.865	7518
812.007	7601
812.148	7597
812.29	7647
812.431	7776
812.573	7921
812.714	7944
812.855	8088
812.997	8229
813.138	8355
813.279	8214
813.421	8081
813.562	7989
813.703	7879
813.845	7769
813.986	7438
814.127	7240
814.268	7152
814.41	7179
814.551	7175
814.692	7175
814.833	7095
814.974	7164
815.115	7091
815.256	7031
815.397	6932
815.539	6905
815.68	6859
815.821	6783
815.962	6882
816.103	6798
816.244	6734
816.385	6635
816.526	6612
816.666	6456
816.807	6342
816.948	6452
817.089	6521
817.23	6429
817.371	6388
817.512	6418
817.653	6399
817.793	6414
817.934	6418
818.075	6441
818.216	6429
818.356	6372
818.497	6194
818.638	6091
818.778	6182
818.919	6163
819.06	6190
819.2	6327
819.341	6323
819.481	6429
819.622	6578
819.762	6711
819.903	6711
820.043	6589
820.184	6566
820.324	6593
820.465	6707
820.605	6734
820.746	6631
820.886	6498
821.026	6700
821.167	6700
821.307	6768
821.447	6871
821.588	6665
821.728	6604
821.868	6475
822.008	6331
822.149	6361
822.289	6456
822.429	6197
822.569	6076
822.709	6140
822.849	5988
822.99	5912
823.13	5942
823.27	5961
823.41	5771
823.55	5813
823.69	5828
823.83	5817
823.97	5688
824.11	5528
824.25	5490
824.389	5539
824.529	5615
824.669	5539
824.809	5611
824.949	5680
825.089	5619
825.228	5592
825.368	5410
825.508	5383
825.648	5349
825.787	5368
825.927	5379
826.067	5322
826.206	5288
826.346	5414
826.485	5410
826.625	5414
826.765	5543
826.904	5501
827.044	5261
827.183	5170
827.323	5128
827.462	5250
827.601	5162
827.741	5212
827.88	5239
828.02	5162
828.159	5254
828.298	5349
828.437	5391
828.577	5303
828.716	5512
828.855	5296
828.994	5159
829.134	5162
829.273	5151
829.412	5162
829.551	5162
829.69	5178
829.829	5239
829.968	5391
830.107	5292
830.246	5204
830.385	5220
830.524	5083
830.663	5124
830.802	4949
830.941	4858
831.08	4889
831.219	5018
831.357	4984
831.496	5174
831.635	4904
831.774	4790
831.913	4824
832.051	4801
832.19	4748
832.329	4862
832.467	4748
832.606	4645
832.744	4691
832.883	4744
833.022	4706
833.16	4774
833.299	4835
833.437	4820
833.576	4805
833.714	4881
833.852	4850
833.991	4908
834.129	4987
834.267	4904
834.406	4927
834.544	4934
834.682	4938
834.821	4957
834.959	5162
835.097	5010
835.235	5147
835.373	5094
835.511	5098
835.65	5018
835.788	5022
835.926	4938
836.064	4892
836.202	4881
836.34	5136
836.478	5216
836.615	5140
836.753	5197
836.891	5254
837.029	5235
837.167	5201
837.305	5162
837.443	5151
837.58	5018
837.718	5322
837.856	5159
837.993	5102
838.131	5284
838.269	5235
838.406	5265
838.544	5231
838.681	5022
838.819	4957
838.956	4873
839.094	4889
839.231	4984
839.369	5071
839.506	5395
839.643	5296
839.781	5045
839.918	5045
840.055	5113
840.193	5090
840.33	5155
840.467	5147
840.604	5162
840.742	5433
840.879	5128
841.016	5121
841.153	5155
841.29	5357
841.427	5334
841.564	5307
841.701	5379
841.838	5242
841.975	5254
842.112	5277
842.249	5109
842.385	5105
842.522	5330
842.659	5181
842.796	5174
842.933	5117
843.069	5162
843.206	5147
843.343	5292
843.479	5254
843.616	5330
843.752	5014
843.889	5006
844.025	5201
844.162	5003
844.298	5250
844.435	5037
844.571	5025
844.708	5227
844.844	5288
844.98	5372
845.117	5284
845.253	5128
845.389	5105
845.525	5174
845.661	5162
845.798	5033
845.934	5124
846.07	5022
846.206	5208
846.342	5288
846.478	5239
846.614	4984
846.75	4968
846.886	4915
847.022	5170
847.158	5033
847.294	5022
847.429	5117
847.565	4999
847.701	5315
847.837	4889
847.972	4820
848.108	4972
848.244	4942
848.379	4733
848.515	4774
848.65	4721
848.786	4763
848.921	4805
849.057	4835
849.192	4949
849.328	4774
849.463	4866
849.598	4786
849.734	4782
849.869	4679
850.004	4622
850.14	4668
850.275	4641
850.41	4550
850.545	4531
850.68	4596
850.815	4630
850.95	4615
851.085	4805
851.22	4759
851.355	4687
851.49	4611
851.625	4611
851.76	4645
851.895	4538
852.03	4497
852.165	4649
852.299	4691
852.434	4790
852.569	4759
852.703	4793
852.838	4835
852.973	4927
853.107	4957
853.242	4717
853.376	4691
853.511	4531
853.645	4607
853.78	4767
853.914	4698
854.048	4634
854.183	4664
854.317	4710
854.451	4866
854.585	4675
854.72	4675
854.854	4755
854.988	4626
855.122	4634
855.256	4512
855.39	4679
855.524	4812
855.658	4717
855.792	4748
855.926	4714
856.06	4790
856.194	4763
856.327	4683
856.461	4611
856.595	4531
856.729	4653
856.862	4755
856.996	4721
857.13	4721
857.263	4805
857.397	4812
857.53	4649
857.664	4706
857.797	4786
857.931	4725
858.064	4702
858.197	4733
858.331	4683
858.464	4615
858.597	4546
858.731	4691
858.864	4687
858.997	4531
859.13	4653
859.263	4687
859.396	4717
859.529	4565
859.662	4554
859.795	4535
859.928	4634
860.061	4801
860.194	4752
860.327	4596
860.46	4558
860.592	4687
860.725	4687
860.858	4763
860.99	4630
861.123	4519
861.256	4546
861.388	4588
861.521	5277
861.653	4497
861.786	4436
861.918	4478
862.05	4497
862.183	4531
862.315	4603
862.447	4660
862.58	4531
862.712	4386
862.844	4299
862.976	4436
863.108	4440
863.24	4698
863.372	4341
863.504	4375
863.636	4386
863.768	4478
863.9	4436
864.032	4386
864.164	4455
864.296	4489
864.428	4569
864.559	4561
864.691	4611
864.823	4519
864.954	4485
865.086	4519
865.217	4462
865.349	4424
865.48	4485
865.612	4493
865.743	4592
865.875	4451
866.006	4386
866.137	4519
866.269	4459
866.4	4443
866.531	4409
866.662	4424
866.793	4436
866.924	4421
867.055	4485
867.186	4470
867.317	4409
867.448	4367
867.579	4405
867.71	4383
867.841	4367
867.972	4478
868.103	4508
868.233	4443
868.364	4459
868.495	4470
868.625	4653
868.756	4717
868.886	4535
869.017	4588
869.147	4736
869.278	4774
869.408	4618
869.539	4653
869.669	4679
869.799	4668
869.929	4752
870.06	4702
870.19	4987
870.32	4904
870.45	4930
870.58	4991
870.71	5094
870.84	5086
870.97	4961
871.1	4908
871.23	5121
871.36	5113
871.489	5018
871.619	5041
871.749	5105
871.879	5151
872.008	5204
872.138	5060
872.267	4984
872.397	4816
872.526	4824
872.656	4740
872.785	4752
872.915	4957
873.044	5029
873.173	4961
873.303	4915
873.432	4942
873.561	4995
873.69	4801
873.819	4854
873.948	4938
874.077	4812
874.206	4729
874.335	4831
874.464	4904
874.593	5045
874.722	4946
874.851	5102
874.979	5060
875.108	5041
875.237	4953
875.365	4870
875.494	4873
875.623	4995
875.751	4824
875.88	4911
876.008	5006
876.136	4999
876.265	5181
876.393	5353
876.521	5197
876.65	5204
876.778	5147
876.906	5075
877.034	5071
877.162	5041
877.29	4972
877.418	4995
877.546	5037
877.674	5025
877.802	5025
877.93	4972
878.058	4949
878.185	4843
878.313	4953
878.441	4911
878.568	4755
878.696	4885
878.824	4949
878.951	4976
879.079	5174
879.206	5318
879.333	5022
879.461	4942
879.588	5029
879.715	5121
879.842	5246
879.97	5014
880.097	4820
880.224	4729
880.351	4801
880.478	4790
880.605	4790
880.732	4805
880.859	5048
880.986	4873
881.112	4904
881.239	4755
881.366	4664
881.493	4554
881.619	4580
881.746	4634
881.872	4668
881.999	4645
882.125	4675
882.252	4797
882.378	4824
882.505	4927
882.631	4752
882.757	4664
882.883	4691
883.01	4725
883.136	4694
883.262	4577
883.388	4596
883.514	4820
883.64	4839
883.766	4793
883.892	4694
884.018	4706
884.143	4873
884.269	5003
884.395	4672
884.52	4630
884.646	4634
884.772	4596
884.897	4504
885.023	4596
885.148	4759
885.274	4870
885.399	4831
885.524	4729
885.65	4698
885.775	4763
885.9	4698
886.025	4850
886.15	4767
886.275	4748
886.4	4653
886.525	4702
886.65	4725
886.775	4656
886.9	4870
887.025	5010
887.149	4805
887.274	4615
887.399	4634
887.523	4592
887.648	4580
887.773	4561
887.897	4755
888.021	4824
888.146	4641
888.27	4797
888.395	4908
888.519	4797
888.643	4778
888.767	4828
888.891	4683
889.015	4599
889.139	4656
889.263	4618
889.387	4778
889.511	4854
889.635	4805
889.759	4630
889.883	4645
890.006	4740
890.13	4812
890.254	4656
890.377	4630
890.501	4523
890.624	4485
890.748	4645
890.871	4500
890.995	4440
891.118	4363
891.241	4478
891.364	4554
891.488	4622
891.611	4485
891.734	4470
891.857	4607
891.98	4588
892.103	4626
892.226	4615
892.349	4550
892.471	4398
892.594	4542
892.717	4558
892.839	4531
892.962	4569
893.085	4637
893.207	4584
893.33	4409
893.452	4523
893.575	4679
893.697	4611
893.819	4820
893.941	4801
894.064	4816
894.186	4603
894.308	4558
894.43	4702
894.552	4786
894.674	4740
894.796	4535
894.918	4565
895.04	4500
895.161	4683
895.283	4645
895.405	4615
895.526	4596
895.648	4664
895.769	4653
895.891	4683
896.012	4744
896.134	4717
896.255	4675
896.376	4596
896.498	4641
896.619	4656
896.74	4584
896.861	4645
896.982	4942
897.103	5075
897.224	4843
897.345	4744
897.466	4630
897.587	4717
897.708	4850
897.828	4714
897.949	4698
898.07	4531
898.19	4603
898.311	4759
898.431	4679
898.552	4706
898.672	4797
898.792	4793
898.913	4736
899.033	4645
899.153	4497
899.273	4455
899.393	4478
899.513	4554
899.633	4474
899.753	4561
899.873	4550
899.993	4565
900.113	4531
900.232	4573
900.352	4538
900.472	4489
900.591	4375
900.711	4504
900.83	4398
900.95	4569
901.069	4683
901.189	4512
901.308	4379
901.427	4314
901.546	4318
901.665	4485
901.784	4474
901.904	4390
902.023	4322
902.141	4211
902.26	4211
902.379	4314
902.498	4215
902.617	4234
902.735	4383
902.854	4375
902.973	4318
903.091	4211
903.21	4196
903.328	4329
903.446	4230
903.565	4234
903.683	4360
903.801	4284
903.919	4428
904.038	4424
904.156	4265
904.274	4428
904.392	4409
904.51	4440
904.627	4436
904.745	4546
904.863	4664
904.981	4394
905.098	4310
905.216	4371
905.334	4417
905.451	4462
905.569	4436
905.686	4580
905.803	4561
905.921	4424
906.038	4519
906.155	4417
906.272	4386
906.389	4493
906.506	4329
906.623	4367
906.74	4417
906.857	4291
906.974	4371
907.091	4577
907.208	4645
907.324	4508
907.441	4474
907.557	4333
907.674	4356
907.79	4272
907.907	4413
908.023	4462
908.139	4516
908.256	4405
908.372	4459
908.488	4485
908.604	4360
908.72	4367
908.836	4348
908.952	4337
909.068	4443
909.184	4573
909.3	4489
909.415	4599
909.531	4489
909.647	4325
909.762	4367
909.878	4333
909.993	4379
910.108	4367
910.224	4447
910.339	4500
910.454	4428
910.57	4402
910.685	4329
910.8	4630
910.915	4615
911.03	4470
911.145	4306
911.259	4341
911.374	4363
911.489	4360
911.604	4234
911.718	4158
911.833	4185
911.947	4078
912.062	4017
912.176	4200
912.291	4230
912.405	4227
912.519	4493
912.633	4504
912.748	4405
912.862	4299
912.976	4158
913.09	4082
913.204	4131
913.318	4287
913.431	4344
913.545	4386
913.659	4462
913.772	4325
913.886	4215
914	4192
914.113	4337
914.226	4440
914.34	4367
914.453	4284
914.566	4417
914.68	4249
914.793	4329
914.906	4135
915.019	4116
915.132	4074
915.245	4192
915.358	4223
915.47	4230
915.583	4276
915.696	4287
915.809	4462
915.921	4386
916.034	4253
916.146	4257
916.259	4234
916.371	4371
916.483	4375
916.595	4299
916.708	4276
916.82	4352
916.932	4322
917.044	4356
917.156	4329
917.268	4207
917.38	4265
917.491	4284
917.603	4310
917.715	4409
917.826	4451
917.938	4314
918.049	4257
918.161	4375
918.272	4516
918.384	4512
918.495	4440
918.606	4295
918.717	4242
918.828	4356
918.939	4348
919.05	4253
919.161	4314
919.272	4093
919.383	4215
919.494	4436
919.604	4634
919.715	4424
919.826	4337
919.936	4398
920.047	4508
920.157	4421
920.267	4721
920.378	4535
920.488	4508
920.598	4721
920.708	4900
920.818	4721
920.928	4752
921.038	4930
921.148	4889
921.258	4596
921.368	4577
921.477	4512
921.587	4440
921.697	4394
921.806	4508
921.916	4432
922.025	4299
922.134	4246
922.244	4238
922.353	4322
922.462	4166
922.571	4112
922.68	3956
922.789	3968
922.898	3994
923.007	4002
923.116	4086
923.224	4040
923.333	4048
923.442	3968
923.55	3953
923.659	4040
923.767	4071
923.876	4040
923.984	4086
924.092	3972
924.201	4112
924.309	4071
924.417	4109
924.525	3983
924.633	4101
924.741	4866
924.849	3861
924.956	4097
925.064	4010
925.172	3896
925.279	3972
925.387	4074
925.494	4059
925.602	4166
925.709	4169
925.816	4036
925.924	4124
926.031	4234
926.138	4162
926.245	4185
926.352	4143
926.459	4253
926.566	4291
926.673	4109
926.779	4093
926.886	4097
926.993	3972
927.099	3945
927.206	3937
927.312	3941
927.419	4078
927.525	4051
927.631	4097
927.737	3960
927.843	3896
927.95	3835
928.056	3892
928.162	3991
928.267	4048
928.373	4618
928.479	4116
928.585	3884
928.69	4040
928.796	4101
928.901	3960
929.007	3827
929.112	3964
929.218	3934
929.323	3956
929.428	3960
929.533	4097
929.638	3899
929.743	3983
929.848	4067
929.953	3968
930.058	3926
930.163	3778
930.267	3785
930.372	3964
930.477	3816
930.581	4059
930.685	3930
930.79	3838
930.894	3857
930.998	3880
931.103	3991
931.207	3720
931.311	3690
931.415	3667
931.519	3519
931.623	3538
