Data from test_V78500241_1620.txt Node
Date: Fri Mar 25 17:00:15 CST 2022
User: usil
Spectrometer: V785-0024
Trigger mode: 0
Integration Time (sec): 4.000000E-1
Scans to average: 1
Nonlinearity correction enabled: false
Boxcar width: 0
Storing dark spectrum: false
XAxis mode: Wavelengths
Number of Pixels in Spectrum: 1024
>>>>>Begin Spectral Data<<<<<
801.071	7982
801.214	7970
801.356	7871
801.499	7906
801.641	7753
801.783	7883
801.926	7970
802.068	7906
802.211	7993
802.353	8012
802.496	7792
802.638	7852
802.78	7890
802.923	7890
803.065	7887
803.208	7883
803.35	7967
803.492	8081
803.635	8130
803.777	8001
803.919	8157
804.061	8366
804.204	8100
804.346	8065
804.488	7925
804.63	8145
804.773	8016
804.915	8142
805.057	8259
805.199	8142
805.341	8259
805.483	8271
805.626	8237
805.768	8172
805.91	8221
806.052	8244
806.194	8092
806.336	8225
806.478	8126
806.62	8016
806.762	8100
806.904	8225
807.046	8442
807.188	8317
807.33	8332
807.472	8305
807.614	8180
807.756	8096
807.898	7974
808.04	7849
808.182	7856
808.324	7868
808.465	7932
808.607	8065
808.749	8115
808.891	8206
809.033	8244
809.174	8225
809.316	8123
809.458	8024
809.6	8005
809.741	8024
809.883	7974
810.025	8130
810.166	8065
810.308	7986
810.45	7959
810.591	7841
810.733	7681
810.875	7704
811.016	7529
811.158	7430
811.299	7605
811.441	7685
811.582	7666
811.724	7567
811.865	7544
812.007	7620
812.148	7544
812.29	7620
812.431	7670
812.573	7849
812.714	7936
812.855	8119
812.997	8240
813.138	8370
813.279	8233
813.421	8092
813.562	7955
813.703	7795
813.845	7666
813.986	7441
814.127	7217
814.268	7213
814.41	7202
814.551	7194
814.692	7164
814.833	7080
814.974	7076
815.115	7198
815.256	6932
815.397	6935
815.539	6920
815.68	6802
815.821	6768
815.962	6852
816.103	6772
816.244	6703
816.385	6597
816.526	6589
816.666	6494
816.807	6304
816.948	6429
817.089	6433
817.23	6403
817.371	6361
817.512	6331
817.653	6399
817.793	6380
817.934	6437
818.075	6372
818.216	6460
818.356	6388
818.497	6247
818.638	6140
818.778	6117
818.919	6133
819.06	6125
819.2	6289
819.341	6292
819.481	6334
819.622	6551
819.762	6692
819.903	6665
820.043	6620
820.184	6563
820.324	6601
820.465	6654
820.605	6677
820.746	6658
820.886	6570
821.026	6604
821.167	6665
821.307	6844
821.447	6738
821.588	6635
821.728	6502
821.868	6498
822.008	6289
822.149	6395
822.289	6422
822.429	6114
822.569	6095
822.709	6079
822.849	5916
822.99	5863
823.13	5923
823.27	5855
823.41	5779
823.55	5817
823.69	5775
823.83	5764
823.97	5630
824.11	5512
824.25	5493
824.389	5551
824.529	5585
824.669	5516
824.809	5604
824.949	5657
825.089	5642
825.228	5524
825.368	5402
825.508	5261
825.648	5322
825.787	5353
825.927	5334
826.067	5349
826.206	5273
826.346	5395
826.485	5391
826.625	5353
826.765	5532
826.904	5486
827.044	5265
827.183	5197
827.323	5143
827.462	5246
827.601	5201
827.741	5166
827.88	5277
828.02	5098
828.159	5227
828.298	5292
828.437	5353
828.577	5265
828.716	5486
828.855	5318
828.994	5166
829.134	5159
829.273	5189
829.412	5090
829.551	5124
829.69	5117
829.829	5235
829.968	5326
830.107	5242
830.246	5223
830.385	5178
830.524	5105
830.663	5025
830.802	5006
830.941	4885
831.08	4843
831.219	4995
831.357	4968
831.496	5136
831.635	4866
831.774	4824
831.913	4812
832.051	4714
832.19	4725
832.329	4816
832.467	4679
832.606	4615
832.744	4744
832.883	4740
833.022	4714
833.16	4733
833.299	4759
833.437	4850
833.576	4843
833.714	4854
833.852	4870
833.991	4835
834.129	4946
834.267	4927
834.406	4915
834.544	4949
834.682	4946
834.821	4980
834.959	5170
835.097	5041
835.235	5143
835.373	5102
835.511	5052
835.65	5048
835.788	5041
835.926	4919
836.064	4892
836.202	4915
836.34	5178
836.478	5212
836.615	5121
836.753	5185
836.891	5273
837.029	5216
837.167	5220
837.305	5178
837.443	5124
837.58	5071
837.718	5216
837.856	5204
837.993	5166
838.131	5174
838.269	5178
838.406	5170
838.544	5121
838.681	5029
838.819	5037
838.956	4816
839.094	4885
839.231	4934
839.369	5075
839.506	5364
839.643	5246
839.781	5022
839.918	4987
840.055	5109
840.193	5086
840.33	5094
840.467	5105
840.604	5143
840.742	5391
840.879	5075
841.016	5113
841.153	5151
841.29	5357
841.427	5307
841.564	5242
841.701	5322
841.838	5242
841.975	5181
842.112	5223
842.249	5109
842.385	5064
842.522	5288
842.659	5151
842.796	5098
842.933	5181
843.069	5128
843.206	5124
843.343	5201
843.479	5299
843.616	5239
843.752	5022
843.889	4972
844.025	5242
844.162	5037
844.298	5189
844.435	5121
844.571	5010
844.708	5159
844.844	5292
844.98	5292
845.117	5311
845.253	5140
845.389	5102
845.525	5147
845.661	5098
845.798	5003
845.934	5109
846.07	5033
846.206	5220
846.342	5318
846.478	5189
846.614	5014
846.75	4953
846.886	4900
847.022	5124
847.158	5018
847.294	5006
847.429	5132
847.565	5041
847.701	5250
847.837	4866
847.972	4793
848.108	4991
848.244	4934
848.379	4710
848.515	4660
848.65	4729
848.786	4748
848.921	4801
849.057	4915
849.192	4873
849.328	4778
849.463	4843
849.598	4820
849.734	4748
849.869	4660
850.004	4592
850.14	4618
850.275	4618
850.41	4577
850.545	4538
850.68	4641
850.815	4675
850.95	4645
851.085	4843
851.22	4710
851.355	4664
851.49	4660
851.625	4637
851.76	4660
851.895	4554
852.03	4493
852.165	4656
852.299	4683
852.434	4805
852.569	4710
852.703	4797
852.838	4847
852.973	4889
853.107	4904
853.242	4717
853.376	4691
853.511	4554
853.645	4599
853.78	4763
853.914	4656
854.048	4664
854.183	4687
854.317	4702
854.451	4850
854.585	4641
854.72	4615
854.854	4790
854.988	4584
855.122	4634
855.256	4481
855.39	4660
855.524	4763
855.658	4683
855.792	4683
855.926	4714
856.06	4691
856.194	4752
856.327	4679
856.461	4596
856.595	4607
856.729	4599
856.862	4778
856.996	4649
857.13	4729
857.263	4759
857.397	4809
857.53	4653
857.664	4721
857.797	4774
857.931	4786
858.064	4683
858.197	4710
858.331	4660
858.464	4611
858.597	4470
858.731	4634
858.864	4592
858.997	4542
859.13	4656
859.263	4683
859.396	4656
859.529	4603
859.662	4546
859.795	4519
859.928	4622
860.061	4733
860.194	4725
860.327	4577
860.46	4558
860.592	4706
860.725	4702
860.858	4721
860.99	4592
861.123	4531
861.256	4523
861.388	4561
861.521	5143
861.653	4504
861.786	4424
861.918	4474
862.05	4546
862.183	4542
862.315	4641
862.447	4656
862.58	4535
862.712	4363
862.844	4310
862.976	4489
863.108	4402
863.24	4778
863.372	4314
863.504	4352
863.636	4413
863.768	4500
863.9	4451
864.032	4348
864.164	4428
864.296	4470
864.428	4504
864.559	4542
864.691	4516
864.823	4489
864.954	4478
865.086	4519
865.217	4489
865.349	4386
865.48	4440
865.612	4485
865.743	4664
865.875	4474
866.006	4424
866.137	4455
866.269	4462
866.4	4432
866.531	4394
866.662	4417
866.793	4398
866.924	4341
867.055	4474
867.186	4451
867.317	4432
867.448	4379
867.579	4402
867.71	4417
867.841	4352
867.972	4443
868.103	4478
868.233	4440
868.364	4478
868.495	4474
868.625	4653
868.756	4767
868.886	4554
869.017	4615
869.147	4790
869.278	4793
869.408	4649
869.539	4622
869.669	4702
869.799	4664
869.929	4774
870.06	4691
870.19	4961
870.32	4896
870.45	4908
870.58	5014
870.71	5064
870.84	5033
870.97	4877
871.1	4877
871.23	5151
871.36	5136
871.489	5022
871.619	5079
871.749	5079
871.879	5064
872.008	5170
872.138	5067
872.267	4984
872.397	4862
872.526	4805
872.656	4740
872.785	4771
872.915	4930
873.044	5045
873.173	4942
873.303	4915
873.432	4938
873.561	4953
873.69	4923
873.819	4877
873.948	4961
874.077	4778
874.206	4740
874.335	4809
874.464	4919
874.593	5060
874.722	4949
874.851	5052
874.979	4991
875.108	5029
875.237	4972
875.365	4877
875.494	4915
875.623	4942
875.751	4820
875.88	4900
876.008	5006
876.136	5033
876.265	5197
876.393	5341
876.521	5254
876.65	5181
876.778	5181
876.906	5056
877.034	5045
877.162	5052
877.29	4995
877.418	5071
877.546	4976
877.674	4991
877.802	5010
877.93	5003
878.058	4923
878.185	4847
878.313	4949
878.441	4854
878.568	4782
878.696	4873
878.824	4999
878.951	4930
879.079	5094
879.206	5235
879.333	5117
879.461	4961
879.588	4930
879.715	5060
879.842	5208
879.97	5014
880.097	4778
880.224	4774
880.351	4828
880.478	4828
880.605	4771
880.732	4778
880.859	5105
880.986	4870
881.112	4896
881.239	4820
881.366	4679
881.493	4592
881.619	4577
881.746	4615
881.872	4668
881.999	4630
882.125	4641
882.252	4729
882.378	4835
882.505	4972
882.631	4782
882.757	4683
882.883	4721
883.01	4672
883.136	4653
883.262	4618
883.388	4626
883.514	4752
883.64	4828
883.766	4778
883.892	4675
884.018	4691
884.143	4911
884.269	4968
884.395	4653
884.52	4634
884.646	4641
884.772	4592
884.897	4538
885.023	4675
885.148	4812
885.274	4866
885.399	4809
885.524	4771
885.65	4694
885.775	4748
885.9	4698
886.025	4801
886.15	4782
886.275	4679
886.4	4664
886.525	4706
886.65	4691
886.775	4683
886.9	4934
887.025	5018
887.149	4820
887.274	4641
887.399	4607
887.523	4584
887.648	4611
887.773	4630
887.897	4733
888.021	4790
888.146	4649
888.27	4824
888.395	4896
888.519	4767
888.643	4835
888.767	4816
888.891	4672
889.015	4584
889.139	4622
889.263	4588
889.387	4729
889.511	4843
889.635	4790
889.759	4634
889.883	4603
890.006	4691
890.13	4866
890.254	4645
890.377	4679
890.501	4558
890.624	4512
890.748	4615
890.871	4485
890.995	4447
891.118	4386
891.241	4527
891.364	4546
891.488	4634
891.611	4478
891.734	4554
891.857	4607
891.98	4565
892.103	4622
892.226	4550
892.349	4538
892.471	4424
892.594	4550
892.717	4607
892.839	4531
892.962	4615
893.085	4641
893.207	4569
893.33	4424
893.452	4535
893.575	4675
893.697	4592
893.819	4824
893.941	4797
894.064	4748
894.186	4599
894.308	4554
894.43	4774
894.552	4774
894.674	4763
894.796	4550
894.918	4546
895.04	4550
895.161	4672
895.283	4675
895.405	4527
895.526	4607
895.648	4683
895.769	4687
895.891	4698
896.012	4763
896.134	4805
896.255	4698
896.376	4618
896.498	4588
896.619	4691
896.74	4607
896.861	4660
896.982	4927
897.103	5045
897.224	4805
897.345	4786
897.466	4641
897.587	4725
897.708	4858
897.828	4809
897.949	4683
898.07	4535
898.19	4641
898.311	4843
898.431	4664
898.552	4740
898.672	4805
898.792	4759
898.913	4744
899.033	4603
899.153	4516
899.273	4432
899.393	4485
899.513	4462
899.633	4527
899.753	4569
899.873	4493
899.993	4565
900.113	4523
900.232	4561
900.352	4531
900.472	4504
900.591	4390
900.711	4485
900.83	4417
900.95	4618
901.069	4664
901.189	4565
901.308	4367
901.427	4295
901.546	4398
901.665	4527
901.784	4550
901.904	4352
902.023	4287
902.141	4185
902.26	4196
902.379	4287
902.498	4268
902.617	4227
902.735	4386
902.854	4375
902.973	4322
903.091	4192
903.21	4249
903.328	4268
903.446	4242
903.565	4276
903.683	4322
903.801	4280
903.919	4409
904.038	4390
904.156	4306
904.274	4413
904.392	4417
904.51	4451
904.627	4451
904.745	4577
904.863	4626
904.981	4375
905.098	4337
905.216	4383
905.334	4390
905.451	4440
905.569	4413
905.686	4573
905.803	4596
905.921	4390
906.038	4550
906.155	4474
906.272	4383
906.389	4424
906.506	4386
906.623	4310
906.74	4348
906.857	4348
906.974	4398
907.091	4565
907.208	4702
907.324	4538
907.441	4497
907.557	4360
907.674	4341
907.79	4322
907.907	4348
908.023	4527
908.139	4447
908.256	4398
908.372	4500
908.488	4447
908.604	4344
908.72	4314
908.836	4344
908.952	4386
909.068	4409
909.184	4523
909.3	4481
909.415	4546
909.531	4546
909.647	4360
909.762	4394
909.878	4394
909.993	4443
910.108	4383
910.224	4413
910.339	4504
910.454	4348
910.57	4344
910.685	4291
910.8	4683
910.915	4611
911.03	4489
911.145	4337
911.259	4310
911.374	4413
911.489	4284
911.604	4284
911.718	4173
911.833	4192
911.947	4051
912.062	4013
912.176	4249
912.291	4234
912.405	4284
912.519	4462
912.633	4462
912.748	4356
912.862	4310
912.976	4215
913.09	4097
913.204	4177
913.318	4238
913.431	4337
913.545	4402
913.659	4398
913.772	4344
913.886	4257
914	4246
914.113	4341
914.226	4409
914.34	4390
914.453	4219
914.566	4451
914.68	4230
914.793	4341
914.906	4120
915.019	4143
915.132	4090
915.245	4173
915.358	4196
915.47	4196
915.583	4257
915.696	4287
915.809	4356
915.921	4432
916.034	4261
916.146	4238
916.259	4227
916.371	4409
916.483	4379
916.595	4261
916.708	4287
916.82	4303
916.932	4295
917.044	4306
917.156	4356
917.268	4166
917.38	4268
917.491	4284
917.603	4360
917.715	4432
917.826	4417
917.938	4352
918.049	4242
918.161	4386
918.272	4489
918.384	4512
918.495	4459
918.606	4325
918.717	4238
918.828	4333
918.939	4360
919.05	4276
919.161	4318
919.272	4166
919.383	4265
919.494	4440
919.604	4615
919.715	4436
919.826	4337
919.936	4417
920.047	4577
920.157	4508
920.267	4641
920.378	4481
920.488	4497
920.598	4675
920.708	4850
920.818	4755
920.928	4759
921.038	4995
921.148	4949
921.258	4656
921.368	4584
921.477	4462
921.587	4413
921.697	4367
921.806	4523
921.916	4436
922.025	4246
922.134	4284
922.244	4185
922.353	4310
922.462	4169
922.571	4139
922.68	4002
922.789	3979
922.898	4002
923.007	3983
923.116	4139
923.224	4044
923.333	4086
923.442	3998
923.55	3983
923.659	4013
923.767	4078
923.876	4017
923.984	4082
924.092	3975
924.201	4078
924.309	4082
924.417	4154
924.525	4063
924.633	4051
924.741	4862
924.849	3899
924.956	4116
925.064	3964
925.172	3892
925.279	3941
925.387	4090
925.494	4002
925.602	4227
925.709	4162
925.816	3983
925.924	4109
926.031	4207
926.138	4154
926.245	4196
926.352	4078
926.459	4234
926.566	4287
926.673	4109
926.779	4074
926.886	4082
926.993	3960
927.099	3956
927.206	3922
927.312	3941
927.419	4051
927.525	4010
927.631	4097
927.737	3937
927.843	3934
927.95	3854
928.056	3987
928.162	3956
928.267	4074
928.373	4546
928.479	4090
928.585	3857
928.69	3983
928.796	4071
928.901	3941
929.007	3850
929.112	4013
929.218	3972
929.323	3911
929.428	3918
929.533	4131
929.638	3911
929.743	3953
929.848	4078
929.953	4048
930.058	3926
930.163	3762
930.267	3778
930.372	3983
930.477	3808
930.581	4112
930.685	3892
930.79	3831
930.894	3846
930.998	3842
931.103	4013
931.207	3713
931.311	3656
931.415	3606
931.519	3496
931.623	3542
