Data from test_V78500241_2089.txt Node
Date: Fri Mar 25 17:03:31 CST 2022
User: usil
Spectrometer: V785-0024
Trigger mode: 0
Integration Time (sec): 4.000000E-1
Scans to average: 1
Nonlinearity correction enabled: false
Boxcar width: 0
Storing dark spectrum: false
XAxis mode: Wavelengths
Number of Pixels in Spectrum: 1024
>>>>>Begin Spectral Data<<<<<
801.071	7928
801.214	7978
801.356	7864
801.499	7807
801.641	7803
801.783	7833
801.926	7947
802.068	7932
802.211	8054
802.353	7978
802.496	7883
802.638	7761
802.78	7868
802.923	7906
803.065	7875
803.208	7875
803.35	7963
803.492	8088
803.635	8088
803.777	8024
803.919	8092
804.061	8423
804.204	8134
804.346	7986
804.488	7925
804.63	8073
804.773	7909
804.915	8126
805.057	8294
805.199	8119
805.341	8115
805.483	8259
805.626	8225
805.768	8096
805.91	8191
806.052	8237
806.194	8119
806.336	8263
806.478	8065
806.62	8088
806.762	8130
806.904	8237
807.046	8434
807.188	8351
807.33	8313
807.472	8358
807.614	8187
807.756	8092
807.898	7978
808.04	7845
808.182	7852
808.324	7902
808.465	7898
808.607	8073
808.749	8100
808.891	8134
809.033	8313
809.174	8183
809.316	8050
809.458	8084
809.6	7993
809.741	8062
809.883	8005
810.025	8103
810.166	8027
810.308	7997
810.45	7993
810.591	7887
810.733	7715
810.875	7662
811.016	7544
811.158	7483
811.299	7499
811.441	7723
811.582	7620
811.724	7525
811.865	7533
812.007	7571
812.148	7597
812.29	7655
812.431	7712
812.573	7921
812.714	7986
812.855	8138
812.997	8206
813.138	8313
813.279	8206
813.421	8077
813.562	7959
813.703	7792
813.845	7734
813.986	7392
814.127	7175
814.268	7217
814.41	7225
814.551	7110
814.692	7225
814.833	7133
814.974	7076
815.115	7099
815.256	6989
815.397	6905
815.539	6970
815.68	6833
815.821	6707
815.962	6867
816.103	6829
816.244	6711
816.385	6623
816.526	6616
816.666	6464
816.807	6308
816.948	6456
817.089	6467
817.23	6441
817.371	6403
817.512	6308
817.653	6292
817.793	6334
817.934	6380
818.075	6437
818.216	6384
818.356	6448
818.497	6258
818.638	6106
818.778	6182
818.919	6076
819.06	6186
819.2	6289
819.341	6315
819.481	6357
819.622	6566
819.762	6719
819.903	6646
820.043	6623
820.184	6589
820.324	6582
820.465	6692
820.605	6627
820.746	6703
820.886	6486
821.026	6650
821.167	6711
821.307	6764
821.447	6734
821.588	6639
821.728	6532
821.868	6528
822.008	6342
822.149	6308
822.289	6292
822.429	6148
822.569	6167
822.709	6125
822.849	5904
822.99	5844
823.13	5923
823.27	5897
823.41	5745
823.55	5737
823.69	5745
823.83	5745
823.97	5665
824.11	5512
824.25	5509
824.389	5554
824.529	5554
824.669	5516
824.809	5589
824.949	5642
825.089	5665
825.228	5596
825.368	5417
825.508	5349
825.648	5368
825.787	5330
825.927	5368
826.067	5254
826.206	5296
826.346	5406
826.485	5383
826.625	5383
826.765	5516
826.904	5452
827.044	5273
827.183	5204
827.323	5117
827.462	5235
827.601	5220
827.741	5208
827.88	5254
828.02	5189
828.159	5212
828.298	5322
828.437	5315
828.577	5288
828.716	5532
828.855	5372
828.994	5159
829.134	5181
829.273	5166
829.412	5132
829.551	5143
829.69	5140
829.829	5220
829.968	5360
830.107	5296
830.246	5246
830.385	5155
830.524	5102
830.663	5064
830.802	4934
830.941	4873
831.08	4843
831.219	5022
831.357	4987
831.496	5204
831.635	4877
831.774	4828
831.913	4862
832.051	4786
832.19	4740
832.329	4801
832.467	4668
832.606	4599
832.744	4702
832.883	4702
833.022	4714
833.16	4763
833.299	4812
833.437	4809
833.576	4870
833.714	4839
833.852	4828
833.991	4877
834.129	4980
834.267	5006
834.406	4885
834.544	5025
834.682	4881
834.821	4938
834.959	5174
835.097	5018
835.235	5170
835.373	5060
835.511	5102
835.65	5052
835.788	5014
835.926	4885
836.064	4866
836.202	4961
836.34	5181
836.478	5189
836.615	5151
836.753	5181
836.891	5280
837.029	5258
837.167	5174
837.305	5204
837.443	5155
837.58	5064
837.718	5231
837.856	5185
837.993	5147
838.131	5254
838.269	5223
838.406	5261
838.544	5181
838.681	5025
838.819	5029
838.956	4881
839.094	4858
839.231	4934
839.369	5067
839.506	5444
839.643	5265
839.781	5060
839.918	5022
840.055	5083
840.193	5102
840.33	5098
840.467	5132
840.604	5162
840.742	5474
840.879	5075
841.016	5083
841.153	5136
841.29	5398
841.427	5311
841.564	5296
841.701	5353
841.838	5250
841.975	5185
842.112	5322
842.249	5143
842.385	5079
842.522	5341
842.659	5140
842.796	5193
842.933	5162
843.069	5121
843.206	5090
843.343	5284
843.479	5227
843.616	5277
843.752	4953
843.889	5025
844.025	5181
844.162	5048
844.298	5250
844.435	5083
844.571	5045
844.708	5231
844.844	5261
844.98	5311
845.117	5299
845.253	5117
845.389	5064
845.525	5174
845.661	5159
845.798	5060
845.934	5083
846.07	5090
846.206	5166
846.342	5273
846.478	5174
846.614	5041
846.75	4957
846.886	4942
847.022	5075
847.158	4976
847.294	5022
847.429	5105
847.565	5033
847.701	5265
847.837	4850
847.972	4835
848.108	4976
848.244	4915
848.379	4729
848.515	4691
848.65	4740
848.786	4786
848.921	4774
849.057	4881
849.192	4877
849.328	4797
849.463	4831
849.598	4816
849.734	4793
849.869	4687
850.004	4611
850.14	4672
850.275	4603
850.41	4516
850.545	4558
850.68	4538
850.815	4577
850.95	4649
851.085	4862
851.22	4763
851.355	4634
851.49	4561
851.625	4561
851.76	4630
851.895	4558
852.03	4550
852.165	4653
852.299	4721
852.434	4767
852.569	4733
852.703	4763
852.838	4847
852.973	4915
853.107	4911
853.242	4729
853.376	4679
853.511	4516
853.645	4607
853.78	4820
853.914	4668
854.048	4645
854.183	4599
854.317	4687
854.451	4790
854.585	4645
854.72	4641
854.854	4767
854.988	4565
855.122	4645
855.256	4523
855.39	4687
855.524	4752
855.658	4714
855.792	4736
855.926	4687
856.06	4748
856.194	4767
856.327	4634
856.461	4554
856.595	4561
856.729	4641
856.862	4733
856.996	4645
857.13	4710
857.263	4736
857.397	4736
857.53	4649
857.664	4729
857.797	4767
857.931	4755
858.064	4721
858.197	4733
858.331	4653
858.464	4618
858.597	4497
858.731	4668
858.864	4653
858.997	4561
859.13	4660
859.263	4698
859.396	4717
859.529	4577
859.662	4527
859.795	4497
859.928	4683
860.061	4767
860.194	4725
860.327	4603
860.46	4554
860.592	4698
860.725	4725
860.858	4679
860.99	4558
861.123	4497
861.256	4565
861.388	4565
861.521	5360
861.653	4512
861.786	4451
861.918	4455
862.05	4512
862.183	4538
862.315	4603
862.447	4675
862.58	4485
862.712	4409
862.844	4272
862.976	4451
863.108	4466
863.24	4755
863.372	4344
863.504	4421
863.636	4436
863.768	4493
863.9	4421
864.032	4337
864.164	4398
864.296	4474
864.428	4580
864.559	4538
864.691	4535
864.823	4519
864.954	4489
865.086	4542
865.217	4508
865.349	4402
865.48	4512
865.612	4489
865.743	4637
865.875	4451
866.006	4428
866.137	4474
866.269	4432
866.4	4417
866.531	4440
866.662	4428
866.793	4409
866.924	4398
867.055	4516
867.186	4421
867.317	4383
867.448	4398
867.579	4436
867.71	4413
867.841	4398
867.972	4481
868.103	4432
868.233	4443
868.364	4417
868.495	4485
868.625	4649
868.756	4759
868.886	4584
869.017	4618
869.147	4812
869.278	4755
869.408	4630
869.539	4626
869.669	4691
869.799	4668
869.929	4729
870.06	4683
870.19	4930
870.32	4976
870.45	4961
870.58	4987
870.71	5117
870.84	5064
870.97	4961
871.1	4908
871.23	5143
871.36	5178
871.489	5003
871.619	5052
871.749	5094
871.879	5094
872.008	5155
872.138	5083
872.267	4953
872.397	4847
872.526	4812
872.656	4694
872.785	4824
872.915	4938
873.044	5029
873.173	4911
873.303	4923
873.432	4938
873.561	4942
873.69	4885
873.819	4828
873.948	4911
874.077	4839
874.206	4752
874.335	4809
874.464	4938
874.593	5014
874.722	4961
874.851	5140
874.979	5056
875.108	5014
875.237	4911
875.365	4858
875.494	4915
875.623	5022
875.751	4850
875.88	4873
876.008	5033
876.136	5064
876.265	5178
876.393	5364
876.521	5242
876.65	5220
876.778	5143
876.906	4995
877.034	5018
877.162	5041
877.29	4972
877.418	5045
877.546	5033
877.674	5045
877.802	5010
877.93	5041
878.058	4908
878.185	4877
878.313	4980
878.441	4927
878.568	4812
878.696	4881
878.824	4961
878.951	4980
879.079	5109
879.206	5288
879.333	5102
879.461	4984
879.588	5060
879.715	5083
879.842	5208
879.97	5018
880.097	4824
880.224	4793
880.351	4786
880.478	4812
880.605	4812
880.732	4755
880.859	5060
880.986	4911
881.112	4873
881.239	4786
881.366	4675
881.493	4637
881.619	4577
881.746	4626
881.872	4668
881.999	4637
882.125	4634
882.252	4759
882.378	4816
882.505	4911
882.631	4805
882.757	4672
882.883	4752
883.01	4748
883.136	4714
883.262	4577
883.388	4630
883.514	4843
883.64	4866
883.766	4797
883.892	4683
884.018	4717
884.143	4866
884.269	5033
884.395	4706
884.52	4637
884.646	4630
884.772	4588
884.897	4603
885.023	4656
885.148	4725
885.274	4858
885.399	4809
885.524	4725
885.65	4645
885.775	4755
885.9	4710
886.025	4938
886.15	4816
886.275	4721
886.4	4679
886.525	4733
886.65	4721
886.775	4675
886.9	4904
887.025	5025
887.149	4801
887.274	4588
887.399	4558
887.523	4618
887.648	4565
887.773	4603
887.897	4748
888.021	4820
888.146	4645
888.27	4816
888.395	4866
888.519	4767
888.643	4786
888.767	4854
888.891	4694
889.015	4588
889.139	4668
889.263	4660
889.387	4786
889.511	4824
889.635	4752
889.759	4645
889.883	4649
890.006	4736
890.13	4801
890.254	4592
890.377	4607
890.501	4538
890.624	4516
890.748	4649
890.871	4462
890.995	4394
891.118	4394
891.241	4538
891.364	4493
891.488	4645
891.611	4504
891.734	4577
891.857	4660
891.98	4538
892.103	4664
892.226	4569
892.349	4531
892.471	4440
892.594	4565
892.717	4615
892.839	4554
892.962	4618
893.085	4725
893.207	4592
893.33	4478
893.452	4512
893.575	4630
893.697	4565
893.819	4774
893.941	4793
894.064	4797
894.186	4592
894.308	4565
894.43	4725
894.552	4771
894.674	4729
894.796	4554
894.918	4599
895.04	4577
895.161	4694
895.283	4660
895.405	4615
895.526	4634
895.648	4698
895.769	4660
895.891	4706
896.012	4691
896.134	4748
896.255	4656
896.376	4649
896.498	4588
896.619	4668
896.74	4694
896.861	4630
896.982	4927
897.103	5083
897.224	4850
897.345	4744
897.466	4672
897.587	4717
897.708	4850
897.828	4740
897.949	4660
898.07	4565
898.19	4615
898.311	4809
898.431	4672
898.552	4694
898.672	4786
898.792	4778
898.913	4725
899.033	4599
899.153	4584
899.273	4394
899.393	4459
899.513	4542
899.633	4504
899.753	4554
899.873	4462
899.993	4569
900.113	4542
900.232	4588
900.352	4561
900.472	4512
900.591	4405
900.711	4508
900.83	4432
900.95	4626
901.069	4664
901.189	4554
901.308	4367
901.427	4284
901.546	4367
901.665	4493
901.784	4565
901.904	4383
902.023	4329
902.141	4238
902.26	4173
902.379	4303
902.498	4200
902.617	4246
902.735	4344
902.854	4352
902.973	4390
903.091	4200
903.21	4204
903.328	4306
903.446	4272
903.565	4287
903.683	4280
903.801	4246
903.919	4428
904.038	4402
904.156	4268
904.274	4405
904.392	4386
904.51	4402
904.627	4512
904.745	4577
904.863	4672
904.981	4405
905.098	4306
905.216	4348
905.334	4432
905.451	4462
905.569	4436
905.686	4523
905.803	4580
905.921	4428
906.038	4580
906.155	4485
906.272	4367
906.389	4405
906.506	4325
906.623	4375
906.74	4409
906.857	4257
906.974	4352
907.091	4561
907.208	4679
907.324	4615
907.441	4478
907.557	4325
907.674	4318
907.79	4284
907.907	4375
908.023	4466
908.139	4462
908.256	4451
908.372	4432
908.488	4462
908.604	4367
908.72	4310
908.836	4329
908.952	4348
909.068	4424
909.184	4569
909.3	4493
909.415	4607
909.531	4558
909.647	4356
909.762	4352
909.878	4367
909.993	4402
910.108	4413
910.224	4424
910.339	4489
910.454	4405
910.57	4337
910.685	4344
910.8	4637
910.915	4630
911.03	4497
911.145	4318
911.259	4329
911.374	4386
911.489	4295
911.604	4284
911.718	4158
911.833	4200
911.947	4105
912.062	4048
912.176	4177
912.291	4227
912.405	4253
912.519	4413
912.633	4497
912.748	4360
912.862	4306
912.976	4173
913.09	4128
913.204	4211
913.318	4280
913.431	4344
913.545	4337
913.659	4447
913.772	4306
913.886	4230
914	4223
914.113	4386
914.226	4428
914.34	4405
914.453	4246
914.566	4478
914.68	4318
914.793	4306
914.906	4150
915.019	4097
915.132	4078
915.245	4147
915.358	4227
915.47	4242
915.583	4204
915.696	4242
915.809	4363
915.921	4440
916.034	4219
916.146	4253
916.259	4238
916.371	4367
916.483	4348
916.595	4306
916.708	4318
916.82	4306
916.932	4341
917.044	4295
917.156	4295
917.268	4181
917.38	4272
917.491	4287
917.603	4322
917.715	4459
917.826	4447
917.938	4375
918.049	4238
918.161	4379
918.272	4523
918.384	4523
918.495	4478
918.606	4246
918.717	4227
918.828	4352
918.939	4386
919.05	4272
919.161	4306
919.272	4150
919.383	4150
919.494	4447
919.604	4622
919.715	4440
919.826	4303
919.936	4371
920.047	4516
920.157	4481
920.267	4691
920.378	4523
920.488	4535
920.598	4660
920.708	4877
920.818	4771
920.928	4763
921.038	4911
921.148	4923
921.258	4607
921.368	4588
921.477	4474
921.587	4466
921.697	4356
921.806	4481
921.916	4443
922.025	4265
922.134	4310
922.244	4196
922.353	4341
922.462	4143
922.571	4112
922.68	4002
922.789	3987
922.898	4021
923.007	3983
923.116	4139
923.224	4055
923.333	4013
923.442	4006
923.55	4017
923.659	4055
923.767	4112
923.876	4013
923.984	4120
924.092	3968
924.201	4048
924.309	4063
924.417	4154
924.525	4051
924.633	4131
924.741	5132
924.849	3945
924.956	4109
925.064	3960
925.172	3926
925.279	3994
925.387	4055
925.494	4074
925.602	4219
925.709	4185
925.816	4055
925.924	4169
926.031	4215
926.138	4154
926.245	4204
926.352	4074
926.459	4230
926.566	4314
926.673	4150
926.779	4063
926.886	4082
926.993	3964
927.099	3972
927.206	3911
927.312	3915
927.419	4078
927.525	4029
927.631	4074
927.737	3949
927.843	3960
927.95	3774
928.056	3949
928.162	3960
928.267	4017
928.373	4599
928.479	4101
928.585	3873
928.69	4017
928.796	4109
928.901	3972
929.007	3797
929.112	3987
929.218	3994
929.323	3934
929.428	3994
929.533	4128
929.638	3907
929.743	3930
929.848	4048
929.953	3975
930.058	3903
930.163	3766
930.267	3789
930.372	3994
930.477	3819
930.581	4078
930.685	3991
930.79	3827
930.894	3861
930.998	3850
931.103	4044
931.207	3751
931.311	3682
931.415	3656
931.519	3538
931.623	3523
