Data from test_V78500241_2090.txt Node
Date: Fri Mar 25 17:03:32 CST 2022
User: usil
Spectrometer: V785-0024
Trigger mode: 0
Integration Time (sec): 4.000000E-1
Scans to average: 1
Nonlinearity correction enabled: false
Boxcar width: 0
Storing dark spectrum: false
XAxis mode: Wavelengths
Number of Pixels in Spectrum: 1024
>>>>>Begin Spectral Data<<<<<
801.071	8012
801.214	8020
801.356	7826
801.499	7845
801.641	7868
801.783	7803
801.926	8012
802.068	8020
802.211	8031
802.353	7997
802.496	7864
802.638	7788
802.78	7936
802.923	7917
803.065	7830
803.208	7811
803.35	8001
803.492	8073
803.635	8172
803.777	8016
803.919	8092
804.061	8480
804.204	8172
804.346	8069
804.488	8039
804.63	8130
804.773	7967
804.915	8077
805.057	8252
805.199	8237
805.341	8195
805.483	8233
805.626	8161
805.768	8176
805.91	8180
806.052	8263
806.194	8172
806.336	8259
806.478	8092
806.62	8050
806.762	8149
806.904	8229
807.046	8450
807.188	8298
807.33	8286
807.472	8271
807.614	8168
807.756	8202
807.898	7940
808.04	7879
808.182	7917
808.324	7902
808.465	7936
808.607	8111
808.749	8172
808.891	8225
809.033	8320
809.174	8206
809.316	8084
809.458	8084
809.6	8077
809.741	8077
809.883	8039
810.025	8054
810.166	8031
810.308	8035
810.45	8027
810.591	7826
810.733	7776
810.875	7685
811.016	7563
811.158	7457
811.299	7628
811.441	7628
811.582	7613
811.724	7525
811.865	7567
812.007	7559
812.148	7586
812.29	7636
812.431	7788
812.573	7917
812.714	7951
812.855	8195
812.997	8195
813.138	8290
813.279	8130
813.421	8123
813.562	7959
813.703	7871
813.845	7696
813.986	7426
814.127	7266
814.268	7179
814.41	7164
814.551	7225
814.692	7225
814.833	7156
814.974	7122
815.115	7122
815.256	6973
815.397	6897
815.539	7015
815.68	6806
815.821	6810
815.962	6852
816.103	6806
816.244	6738
816.385	6604
816.526	6623
816.666	6509
816.807	6357
816.948	6445
817.089	6452
817.23	6441
817.371	6376
817.512	6376
817.653	6429
817.793	6342
817.934	6426
818.075	6494
818.216	6410
818.356	6410
818.497	6216
818.638	6148
818.778	6175
818.919	6190
819.06	6213
819.2	6399
819.341	6384
819.481	6422
819.622	6563
819.762	6722
819.903	6738
820.043	6589
820.184	6574
820.324	6582
820.465	6711
820.605	6650
820.746	6673
820.886	6566
821.026	6726
821.167	6734
821.307	6795
821.447	6745
821.588	6726
821.728	6662
821.868	6528
822.008	6372
822.149	6350
822.289	6304
822.429	6133
822.569	6152
822.709	6159
822.849	5950
822.99	5942
823.13	5912
823.27	5908
823.41	5828
823.55	5836
823.69	5805
823.83	5783
823.97	5653
824.11	5573
824.25	5512
824.389	5589
824.529	5623
824.669	5532
824.809	5623
824.949	5657
825.089	5646
825.228	5516
825.368	5398
825.508	5402
825.648	5337
825.787	5398
825.927	5391
826.067	5322
826.206	5250
826.346	5402
826.485	5455
826.625	5349
826.765	5528
826.904	5490
827.044	5246
827.183	5239
827.323	5166
827.462	5231
827.601	5178
827.741	5208
827.88	5235
828.02	5113
828.159	5189
828.298	5280
828.437	5376
828.577	5280
828.716	5539
828.855	5315
828.994	5185
829.134	5128
829.273	5246
829.412	5151
829.551	5151
829.69	5162
829.829	5265
829.968	5368
830.107	5261
830.246	5303
830.385	5185
830.524	5102
830.663	5056
830.802	4984
830.941	4881
831.08	4904
831.219	5006
831.357	4957
831.496	5124
831.635	4961
831.774	4873
831.913	4919
832.051	4763
832.19	4736
832.329	4854
832.467	4675
832.606	4634
832.744	4748
832.883	4740
833.022	4710
833.16	4736
833.299	4850
833.437	4850
833.576	4896
833.714	4843
833.852	4843
833.991	4854
834.129	4972
834.267	4930
834.406	4870
834.544	4999
834.682	4968
834.821	4927
834.959	5159
835.097	4984
835.235	5170
835.373	5098
835.511	5124
835.65	5022
835.788	5056
835.926	4934
836.064	4862
836.202	4953
836.34	5147
836.478	5212
836.615	5143
836.753	5208
836.891	5277
837.029	5299
837.167	5189
837.305	5181
837.443	5136
837.58	5098
837.718	5231
837.856	5166
837.993	5083
838.131	5265
838.269	5212
838.406	5231
838.544	5204
838.681	5060
838.819	5003
838.956	4896
839.094	4938
839.231	4999
839.369	5083
839.506	5474
839.643	5296
839.781	5124
839.918	5037
840.055	5090
840.193	5048
840.33	5079
840.467	5094
840.604	5178
840.742	5455
840.879	5083
841.016	5075
841.153	5166
841.29	5383
841.427	5349
841.564	5330
841.701	5334
841.838	5246
841.975	5254
842.112	5239
842.249	5159
842.385	5117
842.522	5330
842.659	5166
842.796	5178
842.933	5174
843.069	5151
843.206	5121
843.343	5341
843.479	5216
843.616	5326
843.752	5003
843.889	5075
844.025	5239
844.162	4995
844.298	5235
844.435	5067
844.571	5041
844.708	5208
844.844	5315
844.98	5334
845.117	5280
845.253	5136
845.389	5151
845.525	5204
845.661	5113
845.798	5048
845.934	5136
846.07	5041
846.206	5201
846.342	5303
846.478	5166
846.614	5064
846.75	4995
846.886	4949
847.022	5105
847.158	5025
847.294	5090
847.429	5136
847.565	5022
847.701	5315
847.837	4805
847.972	4820
848.108	4927
848.244	4919
848.379	4748
848.515	4767
848.65	4733
848.786	4771
848.921	4733
849.057	4820
849.192	4900
849.328	4820
849.463	4824
849.598	4820
849.734	4763
849.869	4675
850.004	4584
850.14	4653
850.275	4615
850.41	4542
850.545	4569
850.68	4630
850.815	4565
850.95	4622
851.085	4866
851.22	4736
851.355	4664
851.49	4618
851.625	4641
851.76	4637
851.895	4558
852.03	4538
852.165	4656
852.299	4729
852.434	4782
852.569	4740
852.703	4797
852.838	4824
852.973	4949
853.107	4919
853.242	4744
853.376	4641
853.511	4561
853.645	4599
853.78	4782
853.914	4710
854.048	4721
854.183	4653
854.317	4759
854.451	4812
854.585	4691
854.72	4664
854.854	4736
854.988	4550
855.122	4637
855.256	4516
855.39	4660
855.524	4752
855.658	4736
855.792	4656
855.926	4752
856.06	4702
856.194	4816
856.327	4679
856.461	4603
856.595	4615
856.729	4588
856.862	4774
856.996	4748
857.13	4725
857.263	4816
857.397	4793
857.53	4694
857.664	4691
857.797	4733
857.931	4801
858.064	4675
858.197	4736
858.331	4630
858.464	4622
858.597	4561
858.731	4592
858.864	4653
858.997	4584
859.13	4672
859.263	4668
859.396	4714
859.529	4599
859.662	4596
859.795	4573
859.928	4561
860.061	4752
860.194	4660
860.327	4611
860.46	4516
860.592	4759
860.725	4725
860.858	4752
860.99	4592
861.123	4512
861.256	4508
861.388	4649
861.521	5391
861.653	4516
861.786	4447
861.918	4421
862.05	4516
862.183	4554
862.315	4611
862.447	4660
862.58	4561
862.712	4394
862.844	4329
862.976	4466
863.108	4443
863.24	4771
863.372	4337
863.504	4398
863.636	4428
863.768	4500
863.9	4440
864.032	4386
864.164	4409
864.296	4455
864.428	4607
864.559	4599
864.691	4577
864.823	4508
864.954	4474
865.086	4500
865.217	4455
865.349	4421
865.48	4402
865.612	4523
865.743	4611
865.875	4443
866.006	4440
866.137	4455
866.269	4455
866.4	4443
866.531	4413
866.662	4367
866.793	4462
866.924	4413
867.055	4466
867.186	4462
867.317	4417
867.448	4363
867.579	4409
867.71	4379
867.841	4360
867.972	4478
868.103	4523
868.233	4466
868.364	4409
868.495	4519
868.625	4675
868.756	4729
868.886	4569
869.017	4641
869.147	4774
869.278	4816
869.408	4672
869.539	4641
869.669	4675
869.799	4698
869.929	4755
870.06	4748
870.19	4896
870.32	4934
870.45	4976
870.58	4972
870.71	5075
870.84	5102
870.97	4927
871.1	4984
871.23	5117
871.36	5117
871.489	4968
871.619	5064
871.749	5113
871.879	5155
872.008	5223
872.138	5037
872.267	4957
872.397	4896
872.526	4782
872.656	4683
872.785	4831
872.915	4991
873.044	5003
873.173	4953
873.303	4984
873.432	4934
873.561	4908
873.69	4839
873.819	4850
873.948	4915
874.077	4793
874.206	4755
874.335	4797
874.464	4885
874.593	5037
874.722	4961
874.851	5094
874.979	5075
875.108	5025
875.237	4896
875.365	4938
875.494	4904
875.623	4987
875.751	4782
875.88	4881
876.008	4961
876.136	4999
876.265	5166
876.393	5322
876.521	5246
876.65	5223
876.778	5178
876.906	5067
877.034	5060
877.162	5067
877.29	5003
877.418	5098
877.546	5033
877.674	5010
877.802	4995
877.93	5045
878.058	4930
878.185	4873
878.313	4968
878.441	4965
878.568	4812
878.696	4885
878.824	5033
878.951	5003
879.079	5128
879.206	5345
879.333	5079
879.461	5037
879.588	4999
879.715	5128
879.842	5261
879.97	5064
880.097	4774
880.224	4759
880.351	4812
880.478	4854
880.605	4828
880.732	4812
880.859	5075
880.986	4858
881.112	4881
881.239	4771
881.366	4691
881.493	4634
881.619	4599
881.746	4664
881.872	4653
881.999	4626
882.125	4698
882.252	4797
882.378	4831
882.505	5003
882.631	4786
882.757	4698
882.883	4774
883.01	4782
883.136	4706
883.262	4561
883.388	4611
883.514	4805
883.64	4858
883.766	4774
883.892	4672
884.018	4717
884.143	4850
884.269	5010
884.395	4714
884.52	4607
884.646	4653
884.772	4622
884.897	4546
885.023	4679
885.148	4774
885.274	4824
885.399	4809
885.524	4698
885.65	4687
885.775	4736
885.9	4710
886.025	4809
886.15	4793
886.275	4740
886.4	4637
886.525	4702
886.65	4691
886.775	4668
886.9	4927
887.025	4995
887.149	4801
887.274	4615
887.399	4607
887.523	4603
887.648	4584
887.773	4622
887.897	4763
888.021	4812
888.146	4683
888.27	4782
888.395	4900
888.519	4767
888.643	4786
888.767	4870
888.891	4653
889.015	4611
889.139	4626
889.263	4580
889.387	4752
889.511	4790
889.635	4820
889.759	4592
889.883	4645
890.006	4744
890.13	4812
890.254	4615
890.377	4649
890.501	4558
890.624	4519
890.748	4599
890.871	4538
890.995	4443
891.118	4394
891.241	4535
891.364	4512
891.488	4660
891.611	4497
891.734	4512
891.857	4641
891.98	4577
892.103	4603
892.226	4599
892.349	4508
892.471	4443
892.594	4523
892.717	4588
892.839	4504
892.962	4596
893.085	4675
893.207	4588
893.33	4459
893.452	4512
893.575	4675
893.697	4577
893.819	4793
893.941	4805
894.064	4748
894.186	4592
894.308	4588
894.43	4744
894.552	4812
894.674	4733
894.796	4489
894.918	4622
895.04	4569
895.161	4687
895.283	4672
895.405	4573
895.526	4618
895.648	4664
895.769	4706
895.891	4702
896.012	4736
896.134	4729
896.255	4637
896.376	4618
896.498	4626
896.619	4683
896.74	4615
896.861	4645
896.982	4927
897.103	5060
897.224	4843
897.345	4752
897.466	4653
897.587	4725
897.708	4866
897.828	4744
897.949	4664
898.07	4577
898.19	4637
898.311	4793
898.431	4615
898.552	4706
898.672	4797
898.792	4797
898.913	4774
899.033	4615
899.153	4497
899.273	4417
899.393	4474
899.513	4550
899.633	4500
899.753	4535
899.873	4512
899.993	4588
900.113	4573
900.232	4569
900.352	4527
900.472	4481
900.591	4440
900.711	4474
900.83	4459
900.95	4611
901.069	4641
901.189	4535
901.308	4390
901.427	4337
901.546	4356
901.665	4447
901.784	4481
901.904	4383
902.023	4268
902.141	4166
902.26	4139
902.379	4280
902.498	4253
902.617	4249
902.735	4390
902.854	4383
902.973	4341
903.091	4207
903.21	4219
903.328	4306
903.446	4280
903.565	4276
903.683	4352
903.801	4284
903.919	4443
904.038	4402
904.156	4341
904.274	4428
904.392	4409
904.51	4405
904.627	4474
904.745	4558
904.863	4641
904.981	4394
905.098	4322
905.216	4333
905.334	4474
905.451	4428
905.569	4459
905.686	4527
905.803	4584
905.921	4383
906.038	4535
906.155	4440
906.272	4390
906.389	4443
906.506	4383
906.623	4383
906.74	4371
906.857	4318
906.974	4394
907.091	4535
907.208	4653
907.324	4573
907.441	4500
907.557	4348
907.674	4337
907.79	4295
907.907	4367
908.023	4451
908.139	4516
908.256	4459
908.372	4443
908.488	4451
908.604	4363
908.72	4363
908.836	4383
908.952	4322
909.068	4481
909.184	4531
909.3	4443
909.415	4569
909.531	4599
909.647	4383
909.762	4363
909.878	4352
909.993	4470
910.108	4371
910.224	4428
910.339	4440
910.454	4367
910.57	4383
910.685	4303
910.8	4596
910.915	4584
911.03	4485
911.145	4303
911.259	4306
911.374	4333
911.489	4295
911.604	4272
911.718	4143
911.833	4188
911.947	4074
912.062	4032
912.176	4185
912.291	4215
912.405	4227
912.519	4398
912.633	4470
912.748	4375
912.862	4344
912.976	4211
913.09	4105
913.204	4211
913.318	4265
913.431	4360
913.545	4341
913.659	4489
913.772	4306
913.886	4234
914	4227
914.113	4386
914.226	4424
914.34	4367
914.453	4299
914.566	4417
914.68	4367
914.793	4344
914.906	4173
915.019	4105
915.132	4097
915.245	4177
915.358	4227
915.47	4246
915.583	4306
915.696	4322
915.809	4402
915.921	4440
916.034	4291
916.146	4253
916.259	4188
916.371	4379
916.483	4386
916.595	4257
916.708	4333
916.82	4303
916.932	4295
917.044	4344
917.156	4333
917.268	4253
917.38	4276
917.491	4249
917.603	4306
917.715	4424
917.826	4405
917.938	4383
918.049	4257
918.161	4371
918.272	4531
918.384	4554
918.495	4466
918.606	4257
918.717	4257
918.828	4303
918.939	4390
919.05	4272
919.161	4303
919.272	4109
919.383	4219
919.494	4451
919.604	4596
919.715	4436
919.826	4360
919.936	4421
920.047	4523
920.157	4523
920.267	4702
920.378	4538
920.488	4485
920.598	4752
920.708	4908
920.818	4748
920.928	4744
921.038	4946
921.148	4900
921.258	4618
921.368	4554
921.477	4485
921.587	4447
921.697	4383
921.806	4577
921.916	4436
922.025	4230
922.134	4215
922.244	4257
922.353	4314
922.462	4215
922.571	4074
922.68	4040
922.789	3960
922.898	4017
923.007	3979
923.116	4105
923.224	4090
923.333	4093
923.442	3991
923.55	3918
923.659	4021
923.767	4078
923.876	3994
923.984	4116
924.092	4040
924.201	4059
924.309	4082
924.417	4147
924.525	4097
924.633	4139
924.741	5010
924.849	3918
924.956	4139
925.064	3964
925.172	3922
925.279	3899
925.387	4032
925.494	4032
925.602	4238
925.709	4177
925.816	4006
925.924	4143
926.031	4261
926.138	4131
926.245	4211
926.352	4131
926.459	4215
926.566	4337
926.673	4147
926.779	4071
926.886	4105
926.993	3937
927.099	3975
927.206	3892
927.312	3956
927.419	4048
927.525	4017
927.631	4090
927.737	3953
927.843	3937
927.95	3838
928.056	3964
928.162	4017
928.267	4055
928.373	4550
928.479	4116
928.585	3846
928.69	4025
928.796	4105
928.901	3979
929.007	3857
929.112	4048
929.218	3994
929.323	3949
929.428	3979
929.533	4109
929.638	3876
929.743	3960
929.848	4021
929.953	3991
930.058	3949
930.163	3778
930.267	3831
930.372	3998
930.477	3812
930.581	4074
930.685	3941
930.79	3804
930.894	3892
930.998	3850
931.103	4032
931.207	3705
931.311	3644
931.415	3701
931.519	3534
931.623	3526
