Data from test_V78500241_1050.txt Node
Date: Fri Mar 25 16:56:18 CST 2022
User: usil
Spectrometer: V785-0024
Trigger mode: 0
Integration Time (sec): 4.000000E-1
Scans to average: 1
Nonlinearity correction enabled: false
Boxcar width: 0
Storing dark spectrum: false
XAxis mode: Wavelengths
Number of Pixels in Spectrum: 1024
>>>>>Begin Spectral Data<<<<<
801.071	8054
801.214	8020
801.356	7860
801.499	7814
801.641	7795
801.783	7879
801.926	7974
802.068	7879
802.211	7959
802.353	7963
802.496	7792
802.638	7883
802.78	7879
802.923	7913
803.065	7883
803.208	7852
803.35	8020
803.492	8073
803.635	8195
803.777	8046
803.919	8142
804.061	8442
804.204	8153
804.346	7955
804.488	7944
804.63	8157
804.773	8027
804.915	8126
805.057	8237
805.199	8199
805.341	8202
805.483	8259
805.626	8218
805.768	8145
805.91	8202
806.052	8199
806.194	8123
806.336	8267
806.478	8077
806.62	8077
806.762	8119
806.904	8290
807.046	8495
807.188	8370
807.33	8298
807.472	8385
807.614	8221
807.756	8073
807.898	8020
808.04	7951
808.182	7871
808.324	7849
808.465	7917
808.607	8054
808.749	8130
808.891	8229
809.033	8324
809.174	8199
809.316	8115
809.458	8031
809.6	8027
809.741	7997
809.883	8035
810.025	8142
810.166	7993
810.308	8016
810.45	8039
810.591	7875
810.733	7677
810.875	7636
811.016	7495
811.158	7556
811.299	7578
811.441	7700
811.582	7693
811.724	7563
811.865	7521
812.007	7597
812.148	7616
812.29	7639
812.431	7750
812.573	7921
812.714	8031
812.855	8161
812.997	8191
813.138	8290
813.279	8286
813.421	8138
813.562	8046
813.703	7932
813.845	7792
813.986	7518
814.127	7251
814.268	7202
814.41	7164
814.551	7118
814.692	7156
814.833	7046
814.974	7084
815.115	7095
815.256	7057
815.397	6935
815.539	6951
815.68	6806
815.821	6757
815.962	6871
816.103	6897
816.244	6745
816.385	6673
816.526	6662
816.666	6551
816.807	6254
816.948	6452
817.089	6536
817.23	6464
817.371	6452
817.512	6376
817.653	6422
817.793	6369
817.934	6407
818.075	6460
818.216	6452
818.356	6429
818.497	6285
818.638	6167
818.778	6178
818.919	6163
819.06	6140
819.2	6369
819.341	6311
819.481	6353
819.622	6509
819.762	6715
819.903	6764
820.043	6642
820.184	6589
820.324	6616
820.465	6669
820.605	6673
820.746	6627
820.886	6498
821.026	6684
821.167	6692
821.307	6772
821.447	6684
821.588	6700
821.728	6589
821.868	6502
822.008	6342
822.149	6410
822.289	6308
822.429	6152
822.569	6057
822.709	6053
822.849	5878
822.99	5939
823.13	5996
823.27	5954
823.41	5809
823.55	5775
823.69	5771
823.83	5752
823.97	5691
824.11	5543
824.25	5452
824.389	5570
824.529	5657
824.669	5535
824.809	5608
824.949	5653
825.089	5615
825.228	5539
825.368	5398
825.508	5353
825.648	5391
825.787	5406
825.927	5379
826.067	5269
826.206	5318
826.346	5410
826.485	5414
826.625	5383
826.765	5509
826.904	5497
827.044	5254
827.183	5208
827.323	5170
827.462	5250
827.601	5227
827.741	5227
827.88	5242
828.02	5159
828.159	5277
828.298	5318
828.437	5368
828.577	5334
828.716	5551
828.855	5334
828.994	5162
829.134	5155
829.273	5212
829.412	5124
829.551	5155
829.69	5181
829.829	5258
829.968	5395
830.107	5223
830.246	5307
830.385	5212
830.524	5105
830.663	5117
830.802	5022
830.941	4900
831.08	4866
831.219	4980
831.357	4999
831.496	5166
831.635	4930
831.774	4904
831.913	4828
832.051	4687
832.19	4790
832.329	4866
832.467	4698
832.606	4672
832.744	4736
832.883	4710
833.022	4725
833.16	4771
833.299	4809
833.437	4889
833.576	4885
833.714	4889
833.852	4915
833.991	4896
834.129	5010
834.267	4987
834.406	4889
834.544	4995
834.682	4984
834.821	4972
834.959	5204
835.097	5003
835.235	5189
835.373	5102
835.511	5052
835.65	5037
835.788	5060
835.926	4904
836.064	4850
836.202	5022
836.34	5193
836.478	5242
836.615	5102
836.753	5208
836.891	5246
837.029	5261
837.167	5223
837.305	5201
837.443	5181
837.58	5102
837.718	5292
837.856	5216
837.993	5155
838.131	5261
838.269	5181
838.406	5227
838.544	5189
838.681	5022
838.819	5025
838.956	4854
839.094	4892
839.231	4984
839.369	5071
839.506	5482
839.643	5250
839.781	5064
839.918	5048
840.055	5113
840.193	5105
840.33	5052
840.467	5155
840.604	5189
840.742	5478
840.879	5064
841.016	5155
841.153	5178
841.29	5379
841.427	5372
841.564	5334
841.701	5372
841.838	5296
841.975	5216
842.112	5318
842.249	5113
842.385	5079
842.522	5383
842.659	5178
842.796	5197
842.933	5181
843.069	5166
843.206	5162
843.343	5330
843.479	5254
843.616	5250
843.752	5083
843.889	5045
844.025	5223
844.162	5048
844.298	5174
844.435	5090
844.571	5018
844.708	5201
844.844	5326
844.98	5337
845.117	5292
845.253	5071
845.389	5098
845.525	5117
845.661	5189
845.798	5018
845.934	5109
846.07	5033
846.206	5231
846.342	5273
846.478	5220
846.614	4995
846.75	4995
846.886	4976
847.022	5143
847.158	5041
847.294	5064
847.429	5109
847.565	5067
847.701	5334
847.837	4847
847.972	4816
848.108	4991
848.244	4911
848.379	4790
848.515	4820
848.65	4679
848.786	4748
848.921	4759
849.057	4889
849.192	4927
849.328	4782
849.463	4904
849.598	4755
849.734	4740
849.869	4717
850.004	4641
850.14	4687
850.275	4607
850.41	4478
850.545	4554
850.68	4615
850.815	4603
850.95	4626
851.085	4831
851.22	4793
851.355	4691
851.49	4626
851.625	4634
851.76	4656
851.895	4584
852.03	4538
852.165	4596
852.299	4786
852.434	4759
852.569	4744
852.703	4774
852.838	4866
852.973	4984
853.107	4904
853.242	4721
853.376	4691
853.511	4565
853.645	4687
853.78	4759
853.914	4675
854.048	4664
854.183	4622
854.317	4672
854.451	4793
854.585	4698
854.72	4588
854.854	4744
854.988	4580
855.122	4626
855.256	4527
855.39	4683
855.524	4790
855.658	4664
855.792	4706
855.926	4748
856.06	4763
856.194	4820
856.327	4733
856.461	4679
856.595	4630
856.729	4607
856.862	4733
856.996	4672
857.13	4710
857.263	4786
857.397	4824
857.53	4653
857.664	4694
857.797	4736
857.931	4771
858.064	4698
858.197	4748
858.331	4618
858.464	4645
858.597	4546
858.731	4630
858.864	4675
858.997	4630
859.13	4660
859.263	4679
859.396	4691
859.529	4550
859.662	4607
859.795	4523
859.928	4653
860.061	4790
860.194	4755
860.327	4615
860.46	4577
860.592	4748
860.725	4748
860.858	4752
860.99	4577
861.123	4542
861.256	4493
861.388	4626
861.521	5341
861.653	4504
861.786	4481
861.918	4466
862.05	4516
862.183	4607
862.315	4584
862.447	4645
862.58	4588
862.712	4398
862.844	4284
862.976	4508
863.108	4443
863.24	4866
863.372	4348
863.504	4421
863.636	4436
863.768	4466
863.9	4428
864.032	4386
864.164	4451
864.296	4428
864.428	4523
864.559	4565
864.691	4531
864.823	4546
864.954	4538
865.086	4455
865.217	4432
865.349	4402
865.48	4462
865.612	4474
865.743	4656
865.875	4489
866.006	4455
866.137	4428
866.269	4455
866.4	4409
866.531	4455
866.662	4375
866.793	4428
866.924	4432
867.055	4466
867.186	4413
867.317	4409
867.448	4394
867.579	4348
867.71	4417
867.841	4348
867.972	4466
868.103	4440
868.233	4428
868.364	4428
868.495	4451
868.625	4664
868.756	4714
868.886	4561
869.017	4615
869.147	4725
869.278	4767
869.408	4626
869.539	4626
869.669	4683
869.799	4656
869.929	4763
870.06	4721
870.19	4942
870.32	4877
870.45	4900
870.58	5022
870.71	5117
870.84	5022
870.97	4934
871.1	4896
871.23	5128
871.36	5124
871.489	5022
871.619	5098
871.749	5121
871.879	5117
872.008	5193
872.138	5056
872.267	4984
872.397	4862
872.526	4805
872.656	4706
872.785	4809
872.915	4919
873.044	5052
873.173	4957
873.303	4999
873.432	4976
873.561	4892
873.69	4850
873.819	4835
873.948	4915
874.077	4809
874.206	4790
874.335	4790
874.464	4957
874.593	5025
874.722	4915
874.851	5064
874.979	5056
875.108	5025
875.237	4927
875.365	4881
875.494	4896
875.623	4961
875.751	4839
875.88	4892
876.008	4972
876.136	4991
876.265	5223
876.393	5311
876.521	5284
876.65	5235
876.778	5159
876.906	5037
877.034	4984
877.162	5018
877.29	4961
877.418	5045
877.546	5067
877.674	4995
877.802	5010
877.93	5018
878.058	4938
878.185	4847
878.313	4934
878.441	4938
878.568	4763
878.696	4862
878.824	4927
878.951	4972
879.079	5117
879.206	5288
879.333	5067
879.461	4968
879.588	4995
879.715	5102
879.842	5181
879.97	4984
880.097	4778
880.224	4752
880.351	4782
880.478	4763
880.605	4824
880.732	4801
880.859	5086
880.986	4877
881.112	4900
881.239	4797
881.366	4683
881.493	4611
881.619	4580
881.746	4664
881.872	4645
881.999	4641
882.125	4698
882.252	4797
882.378	4850
882.505	4934
882.631	4801
882.757	4675
882.883	4778
883.01	4691
883.136	4626
883.262	4584
883.388	4584
883.514	4824
883.64	4862
883.766	4805
883.892	4664
884.018	4710
884.143	4892
884.269	5018
884.395	4675
884.52	4656
884.646	4679
884.772	4542
884.897	4558
885.023	4641
885.148	4771
885.274	4805
885.399	4809
885.524	4679
885.65	4710
885.775	4702
885.9	4752
886.025	4850
886.15	4736
886.275	4725
886.4	4615
886.525	4782
886.65	4679
886.775	4672
886.9	4862
887.025	5022
887.149	4820
887.274	4702
887.399	4588
887.523	4615
887.648	4607
887.773	4538
887.897	4790
888.021	4763
888.146	4694
888.27	4778
888.395	4885
888.519	4782
888.643	4820
888.767	4805
888.891	4694
889.015	4615
889.139	4634
889.263	4607
889.387	4793
889.511	4877
889.635	4763
889.759	4634
889.883	4630
890.006	4736
890.13	4835
890.254	4603
890.377	4664
890.501	4577
890.624	4512
890.748	4664
890.871	4516
890.995	4421
891.118	4421
891.241	4550
891.364	4561
891.488	4653
891.611	4493
891.734	4474
891.857	4603
891.98	4550
892.103	4615
892.226	4580
892.349	4493
892.471	4424
892.594	4565
892.717	4580
892.839	4565
892.962	4577
893.085	4641
893.207	4618
893.33	4436
893.452	4550
893.575	4641
893.697	4573
893.819	4774
893.941	4873
894.064	4778
894.186	4603
894.308	4527
894.43	4702
894.552	4812
894.674	4736
894.796	4493
894.918	4607
895.04	4554
895.161	4687
895.283	4653
895.405	4584
895.526	4611
895.648	4672
895.769	4675
895.891	4660
896.012	4714
896.134	4729
896.255	4672
896.376	4664
896.498	4599
896.619	4660
896.74	4618
896.861	4637
896.982	4885
897.103	5048
897.224	4778
897.345	4717
897.466	4672
897.587	4698
897.708	4862
897.828	4748
897.949	4660
898.07	4577
898.19	4641
898.311	4824
898.431	4694
898.552	4736
898.672	4820
898.792	4771
898.913	4763
899.033	4622
899.153	4493
899.273	4394
899.393	4497
899.513	4485
899.633	4516
899.753	4542
899.873	4535
899.993	4558
900.113	4504
900.232	4565
900.352	4523
900.472	4497
900.591	4417
900.711	4466
900.83	4436
900.95	4615
901.069	4603
901.189	4538
901.308	4333
901.427	4295
901.546	4367
901.665	4497
901.784	4504
901.904	4371
902.023	4303
902.141	4177
902.26	4143
902.379	4268
902.498	4230
902.617	4169
902.735	4337
902.854	4402
902.973	4398
903.091	4204
903.21	4227
903.328	4318
903.446	4265
903.565	4306
903.683	4356
903.801	4291
903.919	4402
904.038	4417
904.156	4348
904.274	4466
904.392	4383
904.51	4405
904.627	4481
904.745	4561
904.863	4653
904.981	4409
905.098	4360
905.216	4375
905.334	4459
905.451	4405
905.569	4409
905.686	4565
905.803	4561
905.921	4424
906.038	4554
906.155	4497
906.272	4424
906.389	4462
906.506	4314
906.623	4405
906.74	4375
906.857	4337
906.974	4363
907.091	4542
907.208	4641
907.324	4546
907.441	4478
907.557	4348
907.674	4329
907.79	4325
907.907	4344
908.023	4462
908.139	4428
908.256	4409
908.372	4481
908.488	4436
908.604	4386
908.72	4272
908.836	4367
908.952	4360
909.068	4390
909.184	4550
909.3	4459
909.415	4580
909.531	4523
909.647	4348
909.762	4363
909.878	4325
909.993	4443
910.108	4409
910.224	4417
910.339	4462
910.454	4405
910.57	4371
910.685	4299
910.8	4675
910.915	4592
911.03	4459
911.145	4310
911.259	4329
911.374	4348
911.489	4253
911.604	4257
911.718	4135
911.833	4181
911.947	4071
912.062	4002
912.176	4227
912.291	4249
912.405	4219
912.519	4413
912.633	4455
912.748	4341
912.862	4303
912.976	4204
913.09	4090
913.204	4173
913.318	4215
913.431	4348
913.545	4409
913.659	4466
913.772	4314
913.886	4238
914	4230
914.113	4379
914.226	4409
914.34	4367
914.453	4276
914.566	4394
914.68	4295
914.793	4333
914.906	4166
915.019	4097
915.132	4013
915.245	4196
915.358	4162
915.47	4230
915.583	4227
915.696	4306
915.809	4367
915.921	4413
916.034	4268
916.146	4261
916.259	4227
916.371	4356
916.483	4333
916.595	4253
916.708	4265
916.82	4299
916.932	4284
917.044	4310
917.156	4291
917.268	4242
917.38	4238
917.491	4284
917.603	4360
917.715	4371
917.826	4421
917.938	4363
918.049	4230
918.161	4371
918.272	4474
918.384	4531
918.495	4466
918.606	4306
918.717	4223
918.828	4291
918.939	4348
919.05	4230
919.161	4299
919.272	4135
919.383	4272
919.494	4413
919.604	4607
919.715	4436
919.826	4352
919.936	4402
920.047	4523
920.157	4478
920.267	4714
920.378	4535
920.488	4481
920.598	4656
920.708	4881
920.818	4759
920.928	4763
921.038	4968
921.148	4919
921.258	4607
921.368	4497
921.477	4519
921.587	4481
921.697	4367
921.806	4542
921.916	4394
922.025	4238
922.134	4261
922.244	4192
922.353	4325
922.462	4143
922.571	4135
922.68	3983
922.789	3953
922.898	4017
923.007	4010
923.116	4090
923.224	4044
923.333	4051
923.442	3979
923.55	3987
923.659	4010
923.767	4090
923.876	4021
923.984	4086
924.092	3972
924.201	4025
924.309	4090
924.417	4059
924.525	4025
924.633	4112
924.741	5022
924.849	3903
924.956	4147
925.064	3968
925.172	3838
925.279	3956
925.387	4051
925.494	4017
925.602	4238
925.709	4166
925.816	4036
925.924	4090
926.031	4257
926.138	4162
926.245	4249
926.352	4082
926.459	4223
926.566	4272
926.673	4158
926.779	4040
926.886	4097
926.993	3968
927.099	3979
927.206	3930
927.312	3907
927.419	4067
927.525	4044
927.631	4071
927.737	3953
927.843	3953
927.95	3846
928.056	3945
928.162	3941
928.267	4025
928.373	4672
928.479	4093
928.585	3857
928.69	3964
928.796	4048
928.901	3953
929.007	3808
929.112	3979
929.218	3983
929.323	3922
929.428	3949
929.533	4071
929.638	3896
929.743	3930
929.848	4017
929.953	3949
930.058	3896
930.163	3800
930.267	3766
930.372	3968
930.477	3797
930.581	4112
930.685	3937
930.79	3812
930.894	3907
930.998	3884
931.103	3983
931.207	3679
931.311	3755
931.415	3660
931.519	3485
931.623	3572
