Data from test_V78500241_221.txt Node
Date: Fri Mar 25 16:50:32 CST 2022
User: usil
Spectrometer: V785-0024
Trigger mode: 0
Integration Time (sec): 4.000000E-1
Scans to average: 1
Nonlinearity correction enabled: false
Boxcar width: 0
Storing dark spectrum: false
XAxis mode: Wavelengths
Number of Pixels in Spectrum: 1024
>>>>>Begin Spectral Data<<<<<
801.071	7989
801.214	7986
801.356	7833
801.499	7818
801.641	7803
801.783	7845
801.926	8001
802.068	7970
802.211	8035
802.353	7978
802.496	7875
802.638	7898
802.78	7917
802.923	7898
803.065	7887
803.208	7841
803.35	7917
803.492	8043
803.635	8096
803.777	7955
803.919	8107
804.061	8389
804.204	8103
804.346	8012
804.488	7921
804.63	8103
804.773	7963
804.915	8115
805.057	8256
805.199	8096
805.341	8176
805.483	8267
805.626	8214
805.768	8096
805.91	8161
806.052	8199
806.194	8107
806.336	8240
806.478	8130
806.62	8103
806.762	8103
806.904	8142
807.046	8438
807.188	8328
807.33	8252
807.472	8305
807.614	8134
807.756	8039
807.898	7978
808.04	7856
808.182	7852
808.324	7887
808.465	7986
808.607	8115
808.749	8187
808.891	8237
809.033	8279
809.174	8168
809.316	8088
809.458	8077
809.6	8096
809.741	8088
809.883	8100
810.025	8130
810.166	8145
810.308	8031
810.45	8088
810.591	7932
810.733	7799
810.875	7704
811.016	7537
811.158	7521
811.299	7700
811.441	7700
811.582	7670
811.724	7552
811.865	7609
812.007	7624
812.148	7655
812.29	7708
812.431	7822
812.573	7951
812.714	8077
812.855	8164
812.997	8336
813.138	8415
813.279	8290
813.421	8126
813.562	8024
813.703	7852
813.845	7727
813.986	7472
814.127	7343
814.268	7190
814.41	7221
814.551	7232
814.692	7251
814.833	7145
814.974	7149
815.115	7141
815.256	7012
815.397	6943
815.539	6977
815.68	6894
815.821	6810
815.962	6852
816.103	6791
816.244	6662
816.385	6646
816.526	6654
816.666	6551
816.807	6369
816.948	6456
817.089	6464
817.23	6471
817.371	6391
817.512	6441
817.653	6418
817.793	6342
817.934	6509
818.075	6452
818.216	6517
818.356	6433
818.497	6213
818.638	6144
818.778	6243
818.919	6106
819.06	6140
819.2	6346
819.341	6365
819.481	6338
819.622	6544
819.762	6779
819.903	6688
820.043	6616
820.184	6559
820.324	6642
820.465	6658
820.605	6662
820.746	6627
820.886	6464
821.026	6688
821.167	6760
821.307	6772
821.447	6787
821.588	6673
821.728	6616
821.868	6528
822.008	6372
822.149	6380
822.289	6346
822.429	6194
822.569	6140
822.709	6133
822.849	5923
822.99	5954
823.13	5942
823.27	5935
823.41	5832
823.55	5821
823.69	5790
823.83	5794
823.97	5661
824.11	5547
824.25	5581
824.389	5589
824.529	5665
824.669	5493
824.809	5668
824.949	5649
825.089	5638
825.228	5509
825.368	5383
825.508	5357
825.648	5395
825.787	5383
825.927	5436
826.067	5318
826.206	5280
826.346	5387
826.485	5421
826.625	5474
826.765	5543
826.904	5486
827.044	5292
827.183	5227
827.323	5162
827.462	5284
827.601	5162
827.741	5193
827.88	5246
828.02	5128
828.159	5261
828.298	5311
828.437	5368
828.577	5299
828.716	5497
828.855	5337
828.994	5174
829.134	5185
829.273	5223
829.412	5140
829.551	5174
829.69	5170
829.829	5265
829.968	5395
830.107	5273
830.246	5318
830.385	5181
830.524	5159
830.663	5018
830.802	5018
830.941	4904
831.08	4908
831.219	5041
831.357	5029
831.496	5178
831.635	4976
831.774	4858
831.913	4892
832.051	4782
832.19	4782
832.329	4801
832.467	4729
832.606	4641
832.744	4740
832.883	4763
833.022	4729
833.16	4801
833.299	4831
833.437	4862
833.576	4866
833.714	4866
833.852	4889
833.991	4946
834.129	4976
834.267	4961
834.406	4911
834.544	4957
834.682	4999
834.821	4968
834.959	5185
835.097	5018
835.235	5178
835.373	5105
835.511	5124
835.65	5045
835.788	5010
835.926	4934
836.064	4911
836.202	4911
836.34	5189
836.478	5273
836.615	5174
836.753	5185
836.891	5311
837.029	5280
837.167	5273
837.305	5166
837.443	5181
837.58	5060
837.718	5277
837.856	5208
837.993	5208
838.131	5315
838.269	5223
838.406	5254
838.544	5181
838.681	5075
838.819	5018
838.956	4953
839.094	4919
839.231	4972
839.369	5117
839.506	5414
839.643	5303
839.781	5086
839.918	5018
840.055	5140
840.193	5124
840.33	5143
840.467	5151
840.604	5143
840.742	5478
840.879	5105
841.016	5132
841.153	5143
841.29	5364
841.427	5345
841.564	5376
841.701	5391
841.838	5269
841.975	5280
842.112	5311
842.249	5102
842.385	5159
842.522	5311
842.659	5204
842.796	5193
842.933	5208
843.069	5155
843.206	5193
843.343	5303
843.479	5292
843.616	5246
843.752	5083
843.889	5014
844.025	5212
844.162	5045
844.298	5239
844.435	5056
844.571	5060
844.708	5235
844.844	5292
844.98	5368
845.117	5330
845.253	5178
845.389	5094
845.525	5147
845.661	5189
845.798	5090
845.934	5170
846.07	5018
846.206	5261
846.342	5315
846.478	5208
846.614	5041
846.75	4987
846.886	4968
847.022	5113
847.158	5056
847.294	5067
847.429	5083
847.565	5094
847.701	5337
847.837	4862
847.972	4854
848.108	4999
848.244	4984
848.379	4831
848.515	4744
848.65	4725
848.786	4767
848.921	4839
849.057	4881
849.192	4984
849.328	4824
849.463	4828
849.598	4828
849.734	4759
849.869	4706
850.004	4660
850.14	4672
850.275	4622
850.41	4542
850.545	4603
850.68	4656
850.815	4637
850.95	4698
851.085	4854
851.22	4793
851.355	4698
851.49	4596
851.625	4672
851.76	4668
851.895	4615
852.03	4580
852.165	4656
852.299	4816
852.434	4805
852.569	4782
852.703	4767
852.838	4843
852.973	4946
853.107	4923
853.242	4736
853.376	4656
853.511	4607
853.645	4656
853.78	4774
853.914	4664
854.048	4653
854.183	4664
854.317	4740
854.451	4835
854.585	4694
854.72	4615
854.854	4759
854.988	4596
855.122	4645
855.256	4584
855.39	4664
855.524	4767
855.658	4725
855.792	4710
855.926	4717
856.06	4793
856.194	4828
856.327	4748
856.461	4611
856.595	4687
856.729	4607
856.862	4744
856.996	4672
857.13	4755
857.263	4759
857.397	4831
857.53	4672
857.664	4771
857.797	4820
857.931	4771
858.064	4721
858.197	4759
858.331	4683
858.464	4596
858.597	4531
858.731	4664
858.864	4675
858.997	4637
859.13	4653
859.263	4687
859.396	4740
859.529	4618
859.662	4569
859.795	4561
859.928	4626
860.061	4809
860.194	4801
860.327	4580
860.46	4607
860.592	4683
860.725	4748
860.858	4752
860.99	4577
861.123	4580
861.256	4558
861.388	4596
861.521	5311
861.653	4519
861.786	4459
861.918	4500
862.05	4565
862.183	4580
862.315	4634
862.447	4653
862.58	4554
862.712	4405
862.844	4352
862.976	4459
863.108	4451
863.24	4889
863.372	4329
863.504	4424
863.636	4421
863.768	4466
863.9	4478
864.032	4348
864.164	4375
864.296	4504
864.428	4592
864.559	4573
864.691	4565
864.823	4531
864.954	4485
865.086	4489
865.217	4493
865.349	4455
865.48	4481
865.612	4500
865.743	4607
865.875	4478
866.006	4390
866.137	4478
866.269	4462
866.4	4462
866.531	4455
866.662	4386
866.793	4386
866.924	4371
867.055	4500
867.186	4432
867.317	4481
867.448	4402
867.579	4394
867.71	4428
867.841	4379
867.972	4481
868.103	4478
868.233	4424
868.364	4440
868.495	4516
868.625	4691
868.756	4805
868.886	4577
869.017	4668
869.147	4778
869.278	4778
869.408	4649
869.539	4687
869.669	4698
869.799	4675
869.929	4763
870.06	4748
870.19	4972
870.32	4927
870.45	4927
870.58	4995
870.71	5098
870.84	5151
870.97	4949
871.1	4934
871.23	5090
871.36	5117
871.489	5064
871.619	5117
871.749	5109
871.879	5075
872.008	5197
872.138	5060
872.267	5037
872.397	4911
872.526	4858
872.656	4714
872.785	4870
872.915	4965
873.044	5056
873.173	4934
873.303	4968
873.432	4949
873.561	4953
873.69	4904
873.819	4881
873.948	4885
874.077	4870
874.206	4820
874.335	4793
874.464	4927
874.593	5083
874.722	4965
874.851	5102
874.979	5064
875.108	5048
875.237	4896
875.365	4892
875.494	4877
875.623	5048
875.751	4850
875.88	4896
876.008	4965
876.136	5037
876.265	5189
876.393	5303
876.521	5265
876.65	5250
876.778	5151
876.906	5140
877.034	5041
877.162	5086
877.29	5041
877.418	5094
877.546	5109
877.674	5018
877.802	5064
877.93	4976
878.058	4953
878.185	4873
878.313	4965
878.441	4976
878.568	4820
878.696	4881
878.824	4930
878.951	5003
879.079	5079
879.206	5315
879.333	5090
879.461	5029
879.588	5029
879.715	5140
879.842	5273
879.97	5041
880.097	4816
880.224	4771
880.351	4843
880.478	4850
880.605	4797
880.732	4839
880.859	5071
880.986	4885
881.112	4889
881.239	4835
881.366	4714
881.493	4592
881.619	4626
881.746	4637
881.872	4664
881.999	4687
882.125	4721
882.252	4782
882.378	4809
882.505	4991
882.631	4858
882.757	4668
882.883	4706
883.01	4744
883.136	4672
883.262	4603
883.388	4618
883.514	4858
883.64	4892
883.766	4797
883.892	4706
884.018	4679
884.143	4881
884.269	5025
884.395	4733
884.52	4603
884.646	4672
884.772	4618
884.897	4538
885.023	4679
885.148	4778
885.274	4896
885.399	4843
885.524	4687
885.65	4733
885.775	4725
885.9	4736
886.025	4839
886.15	4809
886.275	4694
886.4	4618
886.525	4771
886.65	4698
886.775	4679
886.9	4953
887.025	4987
887.149	4835
887.274	4660
887.399	4573
887.523	4592
887.648	4588
887.773	4584
887.897	4763
888.021	4824
888.146	4691
888.27	4824
888.395	4847
888.519	4824
888.643	4828
888.767	4866
888.891	4725
889.015	4596
889.139	4653
889.263	4592
889.387	4786
889.511	4885
889.635	4850
889.759	4675
889.883	4668
890.006	4748
890.13	4847
890.254	4656
890.377	4668
890.501	4596
890.624	4546
890.748	4637
890.871	4569
890.995	4451
891.118	4371
891.241	4516
891.364	4573
891.488	4660
891.611	4554
891.734	4550
891.857	4622
891.98	4580
892.103	4645
892.226	4592
892.349	4516
892.471	4436
892.594	4546
892.717	4607
892.839	4607
892.962	4569
893.085	4615
893.207	4588
893.33	4504
893.452	4519
893.575	4675
893.697	4603
893.819	4847
893.941	4866
894.064	4801
894.186	4592
894.308	4611
894.43	4725
894.552	4847
894.674	4759
894.796	4577
894.918	4611
895.04	4535
895.161	4710
895.283	4656
895.405	4618
895.526	4656
895.648	4691
895.769	4733
895.891	4706
896.012	4774
896.134	4714
896.255	4653
896.376	4637
896.498	4634
896.619	4668
896.74	4668
896.861	4691
896.982	4923
897.103	5136
897.224	4870
897.345	4793
897.466	4649
897.587	4721
897.708	4831
897.828	4774
897.949	4679
898.07	4588
898.19	4683
898.311	4824
898.431	4698
898.552	4736
898.672	4820
898.792	4786
898.913	4790
899.033	4618
899.153	4512
899.273	4497
899.393	4489
899.513	4565
899.633	4512
899.753	4516
899.873	4516
899.993	4618
900.113	4546
900.232	4538
900.352	4519
900.472	4523
900.591	4367
900.711	4531
900.83	4409
900.95	4615
901.069	4660
901.189	4569
901.308	4383
901.427	4314
901.546	4398
901.665	4478
901.784	4489
901.904	4402
902.023	4329
902.141	4215
902.26	4200
902.379	4306
902.498	4223
902.617	4242
902.735	4325
902.854	4344
902.973	4371
903.091	4207
903.21	4249
903.328	4268
903.446	4284
903.565	4291
903.683	4375
903.801	4287
903.919	4398
904.038	4432
904.156	4356
904.274	4440
904.392	4379
904.51	4466
904.627	4470
904.745	4542
904.863	4672
904.981	4394
905.098	4295
905.216	4363
905.334	4390
905.451	4436
905.569	4386
905.686	4565
905.803	4561
905.921	4424
906.038	4577
906.155	4542
906.272	4405
906.389	4478
906.506	4356
906.623	4405
906.74	4363
906.857	4322
906.974	4386
907.091	4592
907.208	4733
907.324	4565
907.441	4554
907.557	4379
907.674	4363
907.79	4325
907.907	4394
908.023	4470
908.139	4531
908.256	4443
908.372	4497
908.488	4417
908.604	4325
908.72	4314
908.836	4402
908.952	4417
909.068	4447
909.184	4577
909.3	4466
909.415	4527
909.531	4580
909.647	4333
909.762	4436
909.878	4341
909.993	4466
910.108	4417
910.224	4390
910.339	4500
910.454	4440
910.57	4375
910.685	4333
910.8	4691
910.915	4653
911.03	4485
911.145	4352
911.259	4348
911.374	4371
911.489	4341
911.604	4253
911.718	4169
911.833	4223
911.947	4112
912.062	4044
912.176	4219
912.291	4223
912.405	4295
912.519	4554
912.633	4535
912.748	4371
912.862	4333
912.976	4204
913.09	4139
913.204	4185
913.318	4272
913.431	4375
913.545	4386
913.659	4421
913.772	4409
913.886	4261
914	4207
914.113	4390
914.226	4417
914.34	4390
914.453	4280
914.566	4436
914.68	4268
914.793	4348
914.906	4185
915.019	4143
915.132	4078
915.245	4196
915.358	4253
915.47	4230
915.583	4295
915.696	4341
915.809	4405
915.921	4417
916.034	4329
916.146	4249
916.259	4219
916.371	4417
916.483	4409
916.595	4287
916.708	4329
916.82	4341
916.932	4303
917.044	4344
917.156	4341
917.268	4272
917.38	4291
917.491	4306
917.603	4352
917.715	4409
917.826	4402
917.938	4375
918.049	4238
918.161	4428
918.272	4535
918.384	4554
918.495	4485
918.606	4310
918.717	4246
918.828	4337
918.939	4371
919.05	4234
919.161	4299
919.272	4204
919.383	4238
919.494	4451
919.604	4615
919.715	4417
919.826	4371
919.936	4405
920.047	4546
920.157	4523
920.267	4668
920.378	4550
920.488	4538
920.598	4721
920.708	4930
920.818	4748
920.928	4759
921.038	4980
921.148	4927
921.258	4668
921.368	4577
921.477	4523
921.587	4451
921.697	4402
921.806	4577
921.916	4462
922.025	4295
922.134	4295
922.244	4230
922.353	4306
922.462	4207
922.571	4147
922.68	4029
922.789	3998
922.898	4010
923.007	4032
923.116	4116
923.224	4051
923.333	4105
923.442	4044
923.55	3975
923.659	4059
923.767	4063
923.876	3994
923.984	4150
924.092	4006
924.201	4044
924.309	4086
924.417	4166
924.525	4044
924.633	4101
924.741	5048
924.849	3975
924.956	4135
925.064	3968
925.172	3915
925.279	4036
925.387	4059
925.494	4067
925.602	4227
925.709	4215
925.816	4063
925.924	4128
926.031	4227
926.138	4207
926.245	4185
926.352	4078
926.459	4272
926.566	4295
926.673	4185
926.779	4086
926.886	4067
926.993	3987
927.099	3968
927.206	3937
927.312	3983
927.419	4067
927.525	4055
927.631	4071
927.737	3983
927.843	3956
927.95	3808
928.056	3979
928.162	3964
928.267	4040
928.373	4691
928.479	4124
928.585	3869
928.69	4078
928.796	4078
928.901	3945
929.007	3865
929.112	4002
929.218	3975
929.323	3987
929.428	3949
929.533	4120
929.638	3930
929.743	3926
929.848	4025
929.953	3945
930.058	3960
930.163	3827
930.267	3827
930.372	4021
930.477	3846
930.581	4086
930.685	3975
930.79	3838
930.894	3896
930.998	3850
931.103	4048
931.207	3709
931.311	3698
931.415	3667
931.519	3530
931.623	3542
