Data from test_V78500241_1456.txt Node
Date: Fri Mar 25 16:59:07 CST 2022
User: usil
Spectrometer: V785-0024
Trigger mode: 0
Integration Time (sec): 4.000000E-1
Scans to average: 1
Nonlinearity correction enabled: false
Boxcar width: 0
Storing dark spectrum: false
XAxis mode: Wavelengths
Number of Pixels in Spectrum: 1024
>>>>>Begin Spectral Data<<<<<
801.071	7967
801.214	7974
801.356	7818
801.499	7833
801.641	7738
801.783	7814
801.926	7955
802.068	7921
802.211	7967
802.353	7921
802.496	7871
802.638	7898
802.78	7898
802.923	7890
803.065	7871
803.208	7811
803.35	7951
803.492	8039
803.635	7997
803.777	7967
803.919	8149
804.061	8427
804.204	8172
804.346	8035
804.488	8024
804.63	8073
804.773	8062
804.915	8081
805.057	8256
805.199	8161
805.341	8267
805.483	8202
805.626	8161
805.768	7997
805.91	8214
806.052	8218
806.194	8161
806.336	8320
806.478	8084
806.62	8084
806.762	8111
806.904	8168
807.046	8484
807.188	8362
807.33	8396
807.472	8290
807.614	8199
807.756	8164
807.898	8054
808.04	7871
808.182	7887
808.324	7871
808.465	7902
808.607	8077
808.749	8145
808.891	8145
809.033	8256
809.174	8183
809.316	8077
809.458	8031
809.6	7974
809.741	8016
809.883	8043
810.025	8043
810.166	8012
810.308	8069
810.45	7951
810.591	7814
810.733	7765
810.875	7594
811.016	7537
811.158	7457
811.299	7628
811.441	7712
811.582	7681
811.724	7521
811.865	7483
812.007	7567
812.148	7552
812.29	7639
812.431	7772
812.573	7917
812.714	7917
812.855	8115
812.997	8180
813.138	8301
813.279	8130
813.421	8050
813.562	7947
813.703	7814
813.845	7750
813.986	7438
814.127	7209
814.268	7282
814.41	7247
814.551	7190
814.692	7187
814.833	7072
814.974	7168
815.115	7107
815.256	6916
815.397	6905
815.539	6916
815.68	6802
815.821	6776
815.962	6829
816.103	6768
816.244	6753
816.385	6608
816.526	6684
816.666	6475
816.807	6331
816.948	6399
817.089	6521
817.23	6410
817.371	6418
817.512	6388
817.653	6391
817.793	6399
817.934	6361
818.075	6452
818.216	6399
818.356	6372
818.497	6254
818.638	6095
818.778	6106
818.919	6148
819.06	6125
819.2	6327
819.341	6361
819.481	6342
819.622	6486
819.762	6711
819.903	6681
820.043	6604
820.184	6635
820.324	6604
820.465	6734
820.605	6669
820.746	6593
820.886	6498
821.026	6654
821.167	6745
821.307	6806
821.447	6764
821.588	6703
821.728	6559
821.868	6513
822.008	6315
822.149	6331
822.289	6319
822.429	6114
822.569	6049
822.709	6072
822.849	5961
822.99	5920
823.13	5889
823.27	5897
823.41	5760
823.55	5817
823.69	5729
823.83	5748
823.97	5676
824.11	5490
824.25	5429
824.389	5562
824.529	5600
824.669	5532
824.809	5558
824.949	5638
825.089	5589
825.228	5516
825.368	5341
825.508	5292
825.648	5299
825.787	5379
825.927	5341
826.067	5250
826.206	5303
826.346	5360
826.485	5372
826.625	5372
826.765	5535
826.904	5482
827.044	5258
827.183	5185
827.323	5060
827.462	5185
827.601	5117
827.741	5193
827.88	5216
828.02	5166
828.159	5231
828.298	5357
828.437	5326
828.577	5284
828.716	5478
828.855	5330
828.994	5121
829.134	5178
829.273	5174
829.412	5121
829.551	5128
829.69	5109
829.829	5223
829.968	5337
830.107	5269
830.246	5239
830.385	5189
830.524	5121
830.663	5048
830.802	4968
830.941	4889
831.08	4843
831.219	4984
831.357	4980
831.496	5143
831.635	4904
831.774	4835
831.913	4820
832.051	4748
832.19	4767
832.329	4793
832.467	4679
832.606	4668
832.744	4694
832.883	4679
833.022	4717
833.16	4790
833.299	4828
833.437	4873
833.576	4816
833.714	4793
833.852	4870
833.991	4889
834.129	4968
834.267	4946
834.406	4900
834.544	4938
834.682	4938
834.821	4927
834.959	5136
835.097	4999
835.235	5197
835.373	5090
835.511	5083
835.65	5033
835.788	4991
835.926	4889
836.064	4873
836.202	4923
836.34	5159
836.478	5159
836.615	5113
836.753	5250
836.891	5292
837.029	5250
837.167	5208
837.305	5181
837.443	5086
837.58	5117
837.718	5223
837.856	5162
837.993	5140
838.131	5254
838.269	5189
838.406	5227
838.544	5162
838.681	5014
838.819	5048
838.956	4904
839.094	4904
839.231	4968
839.369	5060
839.506	5406
839.643	5220
839.781	5075
839.918	4991
840.055	5079
840.193	4999
840.33	5121
840.467	5090
840.604	5174
840.742	5417
840.879	5029
841.016	5067
841.153	5140
841.29	5307
841.427	5292
841.564	5296
841.701	5337
841.838	5292
841.975	5250
842.112	5261
842.249	5105
842.385	5166
842.522	5303
842.659	5147
842.796	5124
842.933	5204
843.069	5147
843.206	5128
843.343	5341
843.479	5242
843.616	5265
843.752	5010
843.889	5003
844.025	5185
844.162	5025
844.298	5136
844.435	5094
844.571	5060
844.708	5132
844.844	5292
844.98	5330
845.117	5284
845.253	5109
845.389	5018
845.525	5136
845.661	5136
845.798	5010
845.934	5121
846.07	5029
846.206	5155
846.342	5303
846.478	5121
846.614	4991
846.75	4999
846.886	4892
847.022	5109
847.158	5010
847.294	5045
847.429	5117
847.565	5029
847.701	5318
847.837	4847
847.972	4793
848.108	4934
848.244	4972
848.379	4786
848.515	4687
848.65	4717
848.786	4759
848.921	4771
849.057	4870
849.192	4835
849.328	4786
849.463	4793
849.598	4767
849.734	4752
849.869	4683
850.004	4592
850.14	4618
850.275	4558
850.41	4489
850.545	4554
850.68	4573
850.815	4588
850.95	4603
851.085	4820
851.22	4687
851.355	4660
851.49	4603
851.625	4584
851.76	4664
851.895	4580
852.03	4481
852.165	4649
852.299	4694
852.434	4774
852.569	4717
852.703	4786
852.838	4816
852.973	4911
853.107	4934
853.242	4748
853.376	4683
853.511	4527
853.645	4580
853.78	4801
853.914	4641
854.048	4618
854.183	4656
854.317	4656
854.451	4797
854.585	4649
854.72	4618
854.854	4759
854.988	4584
855.122	4618
855.256	4512
855.39	4656
855.524	4714
855.658	4679
855.792	4687
855.926	4733
856.06	4714
856.194	4801
856.327	4656
856.461	4577
856.595	4546
856.729	4637
856.862	4759
856.996	4683
857.13	4771
857.263	4752
857.397	4862
857.53	4649
857.664	4698
857.797	4683
857.931	4755
858.064	4672
858.197	4729
858.331	4626
858.464	4569
858.597	4542
858.731	4611
858.864	4580
858.997	4656
859.13	4611
859.263	4702
859.396	4717
859.529	4580
859.662	4588
859.795	4497
859.928	4641
860.061	4778
860.194	4786
860.327	4607
860.46	4641
860.592	4694
860.725	4736
860.858	4733
860.99	4546
861.123	4561
861.256	4470
861.388	4596
861.521	5398
861.653	4481
861.786	4394
861.918	4432
862.05	4512
862.183	4569
862.315	4573
862.447	4618
862.58	4519
862.712	4341
862.844	4325
862.976	4436
863.108	4478
863.24	4774
863.372	4333
863.504	4383
863.636	4375
863.768	4470
863.9	4394
864.032	4318
864.164	4409
864.296	4455
864.428	4538
864.559	4523
864.691	4512
864.823	4489
864.954	4470
865.086	4523
865.217	4447
865.349	4409
865.48	4462
865.612	4504
865.743	4622
865.875	4466
866.006	4379
866.137	4402
866.269	4443
866.4	4432
866.531	4451
866.662	4398
866.793	4398
866.924	4386
867.055	4531
867.186	4451
867.317	4386
867.448	4325
867.579	4390
867.71	4428
867.841	4325
867.972	4421
868.103	4493
868.233	4466
868.364	4478
868.495	4478
868.625	4679
868.756	4790
868.886	4523
869.017	4603
869.147	4771
869.278	4793
869.408	4626
869.539	4634
869.669	4736
869.799	4630
869.929	4717
870.06	4698
870.19	4968
870.32	4919
870.45	4919
870.58	4934
870.71	5102
870.84	5083
870.97	4904
871.1	4850
871.23	5128
871.36	5109
871.489	4968
871.619	5060
871.749	5098
871.879	5083
872.008	5189
872.138	5033
872.267	4938
872.397	4812
872.526	4767
872.656	4694
872.785	4782
872.915	4896
873.044	5006
873.173	4919
873.303	4984
873.432	4953
873.561	4949
873.69	4870
873.819	4839
873.948	4949
874.077	4866
874.206	4782
874.335	4797
874.464	4896
874.593	5079
874.722	4949
874.851	5083
874.979	5064
875.108	5033
875.237	4870
875.365	4870
875.494	4873
875.623	5003
875.751	4774
875.88	4873
876.008	4957
876.136	5010
876.265	5189
876.393	5280
876.521	5242
876.65	5223
876.778	5170
876.906	5033
877.034	4999
877.162	5018
877.29	4946
877.418	5003
877.546	5006
877.674	4953
877.802	4980
877.93	5045
878.058	4968
878.185	4824
878.313	4946
878.441	4889
878.568	4801
878.696	4812
878.824	4965
878.951	4949
879.079	5102
879.206	5239
879.333	5048
879.461	5014
879.588	4949
879.715	5071
879.842	5220
879.97	5006
880.097	4759
880.224	4759
880.351	4805
880.478	4824
880.605	4801
880.732	4771
880.859	5109
880.986	4900
881.112	4900
881.239	4801
881.366	4668
881.493	4675
881.619	4622
881.746	4584
881.872	4660
881.999	4649
882.125	4729
882.252	4790
882.378	4831
882.505	4949
882.631	4824
882.757	4752
882.883	4763
883.01	4721
883.136	4656
883.262	4596
883.388	4645
883.514	4828
883.64	4870
883.766	4831
883.892	4733
884.018	4774
884.143	4942
884.269	4987
884.395	4687
884.52	4649
884.646	4641
884.772	4637
884.897	4618
885.023	4733
885.148	4828
885.274	4900
885.399	4828
885.524	4698
885.65	4710
885.775	4774
885.9	4717
886.025	4873
886.15	4847
886.275	4767
886.4	4691
886.525	4763
886.65	4725
886.775	4706
886.9	4953
887.025	5079
887.149	4858
887.274	4634
887.399	4637
887.523	4611
887.648	4615
887.773	4664
887.897	4801
888.021	4824
888.146	4725
888.27	4858
888.395	4949
888.519	4812
888.643	4866
888.767	4805
888.891	4664
889.015	4630
889.139	4691
889.263	4603
889.387	4801
889.511	4866
889.635	4870
889.759	4721
889.883	4607
890.006	4729
890.13	4850
890.254	4691
890.377	4729
890.501	4596
890.624	4550
890.748	4664
890.871	4596
890.995	4481
891.118	4481
891.241	4542
891.364	4527
891.488	4664
891.611	4519
891.734	4584
891.857	4641
891.98	4546
892.103	4679
892.226	4584
892.349	4569
892.471	4462
892.594	4565
892.717	4645
892.839	4584
892.962	4664
893.085	4691
893.207	4626
893.33	4481
893.452	4542
893.575	4672
893.697	4577
893.819	4870
893.941	4904
894.064	4786
894.186	4577
894.308	4596
894.43	4767
894.552	4923
894.674	4752
894.796	4580
894.918	4653
895.04	4607
895.161	4668
895.283	4668
895.405	4603
895.526	4660
895.648	4706
895.769	4729
895.891	4771
896.012	4736
896.134	4824
896.255	4767
896.376	4679
896.498	4683
896.619	4694
896.74	4637
896.861	4637
896.982	4976
897.103	5086
897.224	4870
897.345	4786
897.466	4683
897.587	4771
897.708	4904
897.828	4782
897.949	4660
898.07	4561
898.19	4637
898.311	4866
898.431	4710
898.552	4706
898.672	4850
898.792	4805
898.913	4717
899.033	4645
899.153	4550
899.273	4447
899.393	4493
899.513	4565
899.633	4535
899.753	4558
899.873	4527
899.993	4584
900.113	4531
900.232	4596
900.352	4542
900.472	4485
900.591	4424
900.711	4447
900.83	4436
900.95	4672
901.069	4672
901.189	4538
901.308	4405
901.427	4356
901.546	4402
901.665	4523
901.784	4527
901.904	4424
902.023	4348
902.141	4219
902.26	4196
902.379	4394
902.498	4238
902.617	4276
902.735	4383
902.854	4417
902.973	4405
903.091	4227
903.21	4287
903.328	4310
903.446	4310
903.565	4265
903.683	4363
903.801	4322
903.919	4489
904.038	4459
904.156	4325
904.274	4451
904.392	4481
904.51	4470
904.627	4485
904.745	4637
904.863	4622
904.981	4409
905.098	4375
905.216	4398
905.334	4459
905.451	4417
905.569	4500
905.686	4558
905.803	4569
905.921	4470
906.038	4565
906.155	4523
906.272	4447
906.389	4504
906.506	4379
906.623	4424
906.74	4432
906.857	4352
906.974	4417
907.091	4599
907.208	4691
907.324	4603
907.441	4519
907.557	4360
907.674	4409
907.79	4341
907.907	4459
908.023	4561
908.139	4527
908.256	4466
908.372	4519
908.488	4451
908.604	4379
908.72	4398
908.836	4421
908.952	4375
909.068	4413
909.184	4558
909.3	4527
909.415	4558
909.531	4592
909.647	4379
909.762	4360
909.878	4341
909.993	4493
910.108	4413
910.224	4447
910.339	4558
910.454	4428
910.57	4409
910.685	4287
910.8	4679
910.915	4611
911.03	4489
911.145	4337
911.259	4424
911.374	4409
911.489	4337
911.604	4287
911.718	4158
911.833	4227
911.947	4097
912.062	4059
912.176	4261
912.291	4257
912.405	4314
912.519	4466
912.633	4535
912.748	4402
912.862	4394
912.976	4200
913.09	4147
913.204	4162
913.318	4295
913.431	4383
913.545	4405
913.659	4436
913.772	4363
913.886	4219
914	4242
914.113	4409
914.226	4489
914.34	4459
914.453	4280
914.566	4451
914.68	4306
914.793	4417
914.906	4177
915.019	4154
915.132	4105
915.245	4207
915.358	4215
915.47	4238
915.583	4230
915.696	4318
915.809	4409
915.921	4386
916.034	4246
916.146	4299
916.259	4192
916.371	4424
916.483	4398
916.595	4310
916.708	4322
916.82	4329
916.932	4386
917.044	4379
917.156	4318
917.268	4257
917.38	4306
917.491	4295
917.603	4318
917.715	4447
917.826	4497
917.938	4394
918.049	4234
918.161	4383
918.272	4592
918.384	4554
918.495	4504
918.606	4318
918.717	4299
918.828	4386
918.939	4413
919.05	4261
919.161	4344
919.272	4139
919.383	4246
919.494	4470
919.604	4649
919.715	4443
919.826	4333
919.936	4375
920.047	4516
920.157	4519
920.267	4675
920.378	4584
920.488	4519
920.598	4729
920.708	4934
920.818	4744
920.928	4809
921.038	4991
921.148	4870
921.258	4675
921.368	4554
921.477	4508
921.587	4500
921.697	4394
921.806	4577
921.916	4478
922.025	4295
922.134	4280
922.244	4268
922.353	4360
922.462	4200
922.571	4071
922.68	4032
922.789	3998
922.898	4059
923.007	3953
923.116	4162
923.224	4086
923.333	4105
923.442	4002
923.55	3998
923.659	4021
923.767	4093
923.876	4006
923.984	4128
924.092	4002
924.201	4105
924.309	4124
924.417	4112
924.525	4078
924.633	4109
924.741	5098
924.849	3930
924.956	4147
925.064	3991
925.172	3934
925.279	3987
925.387	4105
925.494	4071
925.602	4299
925.709	4207
925.816	4063
925.924	4086
926.031	4318
926.138	4207
926.245	4200
926.352	4101
926.459	4253
926.566	4257
926.673	4196
926.779	4093
926.886	4105
926.993	4010
927.099	3983
927.206	3945
927.312	3964
927.419	4097
927.525	4040
927.631	4029
927.737	3994
927.843	3964
927.95	3854
928.056	3960
928.162	3998
928.267	4097
928.373	4618
928.479	4135
928.585	3888
928.69	4032
928.796	4063
928.901	3972
929.007	3869
929.112	4032
929.218	3983
929.323	3994
929.428	3964
929.533	4109
929.638	3896
929.743	4032
929.848	4067
929.953	4006
930.058	3941
930.163	3778
930.267	3850
930.372	3994
930.477	3812
930.581	4063
930.685	4006
930.79	3827
930.894	3896
930.998	3873
931.103	4071
931.207	3709
931.311	3686
931.415	3686
931.519	3553
931.623	3561
