Data from test_V78500241_398.txt Node
Date: Fri Mar 25 16:51:46 CST 2022
User: usil
Spectrometer: V785-0024
Trigger mode: 0
Integration Time (sec): 4.000000E-1
Scans to average: 1
Nonlinearity correction enabled: false
Boxcar width: 0
Storing dark spectrum: false
XAxis mode: Wavelengths
Number of Pixels in Spectrum: 1024
>>>>>Begin Spectral Data<<<<<
801.071	8138
801.214	8043
801.356	7845
801.499	7887
801.641	7833
801.783	7849
801.926	8024
802.068	7989
802.211	8008
802.353	7970
802.496	7883
802.638	7875
802.78	7894
802.923	7936
803.065	7879
803.208	7849
803.35	8020
803.492	8096
803.635	8111
803.777	7963
803.919	8176
804.061	8423
804.204	8210
804.346	8058
804.488	7906
804.63	8130
804.773	7997
804.915	8161
805.057	8313
805.199	8206
805.341	8214
805.483	8309
805.626	8191
805.768	8119
805.91	8172
806.052	8229
806.194	8115
806.336	8301
806.478	8149
806.62	8161
806.762	8153
806.904	8370
807.046	8522
807.188	8374
807.33	8286
807.472	8389
807.614	8168
807.756	8183
807.898	7989
808.04	7963
808.182	7955
808.324	7978
808.465	7993
808.607	8126
808.749	8187
808.891	8206
809.033	8389
809.174	8218
809.316	8126
809.458	8073
809.6	8062
809.741	8024
809.883	8031
810.025	8126
810.166	8111
810.308	8058
810.45	8001
810.591	7974
810.733	7837
810.875	7662
811.016	7514
811.158	7552
811.299	7685
811.441	7811
811.582	7811
811.724	7597
811.865	7624
812.007	7693
812.148	7647
812.29	7636
812.431	7780
812.573	7894
812.714	8016
812.855	8168
812.997	8172
813.138	8336
813.279	8214
813.421	8050
813.562	8077
813.703	7940
813.845	7856
813.986	7518
814.127	7354
814.268	7312
814.41	7259
814.551	7198
814.692	7217
814.833	7160
814.974	7103
815.115	7206
815.256	6935
815.397	6970
815.539	7027
815.68	6890
815.821	6814
815.962	6859
816.103	6913
816.244	6757
816.385	6631
816.526	6654
816.666	6536
816.807	6380
816.948	6517
817.089	6445
817.23	6456
817.371	6334
817.512	6391
817.653	6426
817.793	6403
817.934	6490
818.075	6513
818.216	6475
818.356	6433
818.497	6285
818.638	6148
818.778	6178
818.919	6159
819.06	6194
819.2	6334
819.341	6308
819.481	6437
819.622	6612
819.762	6791
819.903	6738
820.043	6646
820.184	6597
820.324	6578
820.465	6669
820.605	6662
820.746	6654
820.886	6540
821.026	6719
821.167	6787
821.307	6783
821.447	6856
821.588	6684
821.728	6612
821.868	6464
822.008	6258
822.149	6369
822.289	6376
822.429	6136
822.569	6091
822.709	6152
822.849	5927
822.99	5931
823.13	5939
823.27	5870
823.41	5760
823.55	5764
823.69	5794
823.83	5798
823.97	5672
824.11	5497
824.25	5566
824.389	5592
824.529	5611
824.669	5566
824.809	5657
824.949	5714
825.089	5619
825.228	5566
825.368	5417
825.508	5406
825.648	5372
825.787	5391
825.927	5410
826.067	5311
826.206	5330
826.346	5372
826.485	5455
826.625	5444
826.765	5577
826.904	5516
827.044	5277
827.183	5258
827.323	5159
827.462	5273
827.601	5223
827.741	5227
827.88	5208
828.02	5193
828.159	5288
828.298	5360
828.437	5353
828.577	5273
828.716	5539
828.855	5372
828.994	5174
829.134	5216
829.273	5258
829.412	5124
829.551	5128
829.69	5136
829.829	5261
829.968	5406
830.107	5273
830.246	5307
830.385	5174
830.524	5159
830.663	5098
830.802	4976
830.941	4927
831.08	4908
831.219	5006
831.357	5025
831.496	5151
831.635	4949
831.774	4885
831.913	4881
832.051	4744
832.19	4744
832.329	4866
832.467	4668
832.606	4683
832.744	4771
832.883	4714
833.022	4744
833.16	4824
833.299	4816
833.437	4835
833.576	4870
833.714	4828
833.852	4866
833.991	4870
834.129	4923
834.267	4976
834.406	4881
834.544	4949
834.682	4953
834.821	5045
834.959	5227
835.097	5018
835.235	5178
835.373	5090
835.511	5098
835.65	5056
835.788	5041
835.926	4911
836.064	4911
836.202	4889
836.34	5223
836.478	5227
836.615	5140
836.753	5223
836.891	5326
837.029	5239
837.167	5208
837.305	5170
837.443	5124
837.58	5117
837.718	5284
837.856	5178
837.993	5117
838.131	5277
838.269	5246
838.406	5223
838.544	5178
838.681	5029
838.819	5010
838.956	4961
839.094	4900
839.231	4995
839.369	5094
839.506	5452
839.643	5250
839.781	5094
839.918	5029
840.055	5132
840.193	5083
840.33	5105
840.467	5159
840.604	5166
840.742	5486
840.879	5083
841.016	5124
841.153	5181
841.29	5383
841.427	5349
841.564	5357
841.701	5368
841.838	5269
841.975	5265
842.112	5288
842.249	5113
842.385	5083
842.522	5258
842.659	5178
842.796	5181
842.933	5201
843.069	5166
843.206	5181
843.343	5353
843.479	5261
843.616	5315
843.752	5041
843.889	5060
844.025	5201
844.162	5010
844.298	5185
844.435	5159
844.571	5109
844.708	5204
844.844	5326
844.98	5311
845.117	5284
845.253	5174
845.389	5155
845.525	5067
845.661	5178
845.798	5052
845.934	5178
846.07	5094
846.206	5201
846.342	5330
846.478	5151
846.614	5052
846.75	5003
846.886	4900
847.022	5151
847.158	5025
847.294	5083
847.429	5159
847.565	5094
847.701	5299
847.837	4904
847.972	4831
848.108	4938
848.244	4961
848.379	4782
848.515	4710
848.65	4744
848.786	4759
848.921	4816
849.057	4854
849.192	4870
849.328	4805
849.463	4812
849.598	4793
849.734	4782
849.869	4714
850.004	4645
850.14	4660
850.275	4603
850.41	4516
850.545	4569
850.68	4622
850.815	4603
850.95	4618
851.085	4820
851.22	4763
851.355	4668
851.49	4611
851.625	4622
851.76	4649
851.895	4580
852.03	4531
852.165	4603
852.299	4748
852.434	4782
852.569	4782
852.703	4805
852.838	4809
852.973	4949
853.107	4934
853.242	4725
853.376	4698
853.511	4561
853.645	4607
853.78	4873
853.914	4668
854.048	4679
854.183	4615
854.317	4672
854.451	4862
854.585	4744
854.72	4615
854.854	4771
854.988	4611
855.122	4634
855.256	4580
855.39	4645
855.524	4801
855.658	4752
855.792	4664
855.926	4748
856.06	4748
856.194	4763
856.327	4691
856.461	4603
856.595	4634
856.729	4599
856.862	4771
856.996	4653
857.13	4744
857.263	4771
857.397	4767
857.53	4656
857.664	4717
857.797	4778
857.931	4786
858.064	4683
858.197	4782
858.331	4634
858.464	4607
858.597	4569
858.731	4675
858.864	4596
858.997	4565
859.13	4641
859.263	4653
859.396	4683
859.529	4599
859.662	4546
859.795	4558
859.928	4641
860.061	4771
860.194	4809
860.327	4622
860.46	4603
860.592	4740
860.725	4714
860.858	4698
860.99	4592
861.123	4527
861.256	4577
861.388	4584
861.521	5307
861.653	4478
861.786	4451
861.918	4436
862.05	4508
862.183	4523
862.315	4615
862.447	4634
862.58	4554
862.712	4409
862.844	4322
862.976	4443
863.108	4493
863.24	4759
863.372	4333
863.504	4440
863.636	4413
863.768	4500
863.9	4394
864.032	4379
864.164	4432
864.296	4516
864.428	4565
864.559	4592
864.691	4508
864.823	4558
864.954	4519
865.086	4523
865.217	4466
865.349	4443
865.48	4436
865.612	4447
865.743	4653
865.875	4459
866.006	4440
866.137	4481
866.269	4443
866.4	4405
866.531	4466
866.662	4383
866.793	4363
866.924	4413
867.055	4531
867.186	4443
867.317	4428
867.448	4402
867.579	4348
867.71	4398
867.841	4325
867.972	4485
868.103	4443
868.233	4417
868.364	4474
868.495	4462
868.625	4706
868.756	4729
868.886	4580
869.017	4607
869.147	4767
869.278	4805
869.408	4706
869.539	4656
869.669	4698
869.799	4702
869.929	4812
870.06	4740
870.19	4991
870.32	4995
870.45	4980
870.58	5037
870.71	5075
870.84	5033
870.97	4961
871.1	4957
871.23	5128
871.36	5162
871.489	5014
871.619	5045
871.749	5159
871.879	5132
872.008	5155
872.138	5025
872.267	4968
872.397	4854
872.526	4820
872.656	4748
872.785	4847
872.915	4961
873.044	5052
873.173	4942
873.303	4968
873.432	4987
873.561	4961
873.69	4892
873.819	4843
873.948	4923
874.077	4831
874.206	4774
874.335	4831
874.464	4919
874.593	5071
874.722	4980
874.851	5178
874.979	5086
875.108	5037
875.237	4892
875.365	4896
875.494	4911
875.623	5033
875.751	4870
875.88	4835
876.008	4999
876.136	5041
876.265	5204
876.393	5360
876.521	5265
876.65	5254
876.778	5151
876.906	5113
877.034	5033
877.162	5083
877.29	4984
877.418	5071
877.546	5067
877.674	5060
877.802	5033
877.93	5022
878.058	4995
878.185	4866
878.313	4987
878.441	5010
878.568	4850
878.696	4843
878.824	4968
878.951	5014
879.079	5117
879.206	5288
879.333	5113
879.461	5003
879.588	5006
879.715	5136
879.842	5273
879.97	5018
880.097	4805
880.224	4820
880.351	4801
880.478	4850
880.605	4759
880.732	4824
880.859	5121
880.986	4927
881.112	4904
881.239	4805
881.366	4687
881.493	4637
881.619	4607
881.746	4622
881.872	4672
881.999	4637
882.125	4675
882.252	4778
882.378	4843
882.505	4953
882.631	4816
882.757	4702
882.883	4752
883.01	4748
883.136	4656
883.262	4577
883.388	4634
883.514	4850
883.64	4946
883.766	4839
883.892	4672
884.018	4668
884.143	4934
884.269	5010
884.395	4702
884.52	4668
884.646	4656
884.772	4603
884.897	4523
885.023	4664
885.148	4805
885.274	4847
885.399	4797
885.524	4710
885.65	4679
885.775	4744
885.9	4694
886.025	4885
886.15	4790
886.275	4763
886.4	4664
886.525	4691
886.65	4656
886.775	4710
886.9	4896
887.025	5003
887.149	4831
887.274	4664
887.399	4535
887.523	4607
887.648	4611
887.773	4603
887.897	4733
888.021	4801
888.146	4706
888.27	4793
888.395	4877
888.519	4805
888.643	4831
888.767	4854
888.891	4664
889.015	4630
889.139	4626
889.263	4603
889.387	4771
889.511	4900
889.635	4801
889.759	4694
889.883	4668
890.006	4748
890.13	4805
890.254	4618
890.377	4691
890.501	4535
890.624	4569
890.748	4626
890.871	4512
890.995	4432
891.118	4417
891.241	4558
891.364	4493
891.488	4675
891.611	4531
891.734	4531
891.857	4588
891.98	4573
892.103	4668
892.226	4649
892.349	4516
892.471	4421
892.594	4546
892.717	4607
892.839	4569
892.962	4607
893.085	4687
893.207	4569
893.33	4478
893.452	4489
893.575	4679
893.697	4592
893.819	4771
893.941	4854
894.064	4797
894.186	4558
894.308	4596
894.43	4793
894.552	4835
894.674	4740
894.796	4580
894.918	4577
895.04	4569
895.161	4710
895.283	4679
895.405	4626
895.526	4656
895.648	4691
895.769	4717
895.891	4744
896.012	4717
896.134	4740
896.255	4672
896.376	4618
896.498	4599
896.619	4611
896.74	4622
896.861	4634
896.982	4915
897.103	5014
897.224	4820
897.345	4721
897.466	4615
897.587	4755
897.708	4854
897.828	4733
897.949	4656
898.07	4580
898.19	4672
898.311	4812
898.431	4668
898.552	4736
898.672	4809
898.792	4828
898.913	4736
899.033	4634
899.153	4474
899.273	4443
899.393	4481
899.513	4554
899.633	4558
899.753	4561
899.873	4500
899.993	4603
900.113	4504
900.232	4607
900.352	4542
900.472	4470
900.591	4363
900.711	4478
900.83	4413
900.95	4626
901.069	4729
901.189	4584
901.308	4363
901.427	4295
901.546	4386
901.665	4474
901.784	4500
901.904	4352
902.023	4325
902.141	4215
902.26	4211
902.379	4325
902.498	4215
902.617	4227
902.735	4375
902.854	4386
902.973	4348
903.091	4230
903.21	4215
903.328	4322
903.446	4280
903.565	4230
903.683	4322
903.801	4322
903.919	4405
904.038	4459
904.156	4325
904.274	4432
904.392	4474
904.51	4481
904.627	4421
904.745	4558
904.863	4634
904.981	4371
905.098	4325
905.216	4352
905.334	4451
905.451	4466
905.569	4432
905.686	4573
905.803	4542
905.921	4443
906.038	4523
906.155	4489
906.272	4394
906.389	4443
906.506	4375
906.623	4367
906.74	4409
906.857	4303
906.974	4356
907.091	4580
907.208	4668
907.324	4588
907.441	4531
907.557	4379
907.674	4310
907.79	4329
907.907	4428
908.023	4489
908.139	4474
908.256	4455
908.372	4497
908.488	4497
908.604	4333
908.72	4318
908.836	4394
908.952	4379
909.068	4428
909.184	4618
909.3	4500
909.415	4599
909.531	4573
909.647	4341
909.762	4367
909.878	4379
909.993	4481
910.108	4413
910.224	4383
910.339	4512
910.454	4390
910.57	4344
910.685	4299
910.8	4607
910.915	4615
911.03	4523
911.145	4291
911.259	4341
911.374	4394
911.489	4337
911.604	4284
911.718	4166
911.833	4196
911.947	4086
912.062	4025
912.176	4234
912.291	4238
912.405	4253
912.519	4489
912.633	4573
912.748	4409
912.862	4303
912.976	4284
913.09	4105
913.204	4166
913.318	4188
913.431	4371
913.545	4379
913.659	4421
913.772	4386
913.886	4249
914	4253
914.113	4386
914.226	4440
914.34	4394
914.453	4234
914.566	4421
914.68	4337
914.793	4352
914.906	4158
915.019	4090
915.132	4090
915.245	4166
915.358	4230
915.47	4246
915.583	4299
915.696	4276
915.809	4417
915.921	4428
916.034	4276
916.146	4295
916.259	4238
916.371	4432
916.483	4375
916.595	4249
916.708	4310
916.82	4356
916.932	4333
917.044	4356
917.156	4325
917.268	4234
917.38	4287
917.491	4284
917.603	4363
917.715	4394
917.826	4455
917.938	4337
918.049	4207
918.161	4367
918.272	4577
918.384	4538
918.495	4500
918.606	4280
918.717	4242
918.828	4360
918.939	4344
919.05	4246
919.161	4360
919.272	4048
919.383	4200
919.494	4470
919.604	4588
919.715	4443
919.826	4371
919.936	4405
920.047	4504
920.157	4497
920.267	4717
920.378	4538
920.488	4485
920.598	4736
920.708	4919
920.818	4847
920.928	4740
921.038	4980
921.148	4930
921.258	4675
921.368	4573
921.477	4462
921.587	4428
921.697	4363
921.806	4558
921.916	4409
922.025	4234
922.134	4276
922.244	4207
922.353	4318
922.462	4207
922.571	4139
922.68	3975
922.789	3953
922.898	4063
923.007	4040
923.116	4105
923.224	4063
923.333	4082
923.442	4010
923.55	3994
923.659	4025
923.767	4105
923.876	4017
923.984	4124
924.092	4002
924.201	4063
924.309	4139
924.417	4120
924.525	4086
924.633	4116
924.741	5022
924.849	3956
924.956	4128
925.064	3987
925.172	3876
925.279	3968
925.387	4029
925.494	4048
925.602	4223
925.709	4166
925.816	4036
925.924	4173
926.031	4227
926.138	4150
926.245	4166
926.352	4090
926.459	4261
926.566	4272
926.673	4169
926.779	4040
926.886	4082
926.993	4002
927.099	3987
927.206	3975
927.312	3930
927.419	4063
927.525	4051
927.631	4109
927.737	3941
927.843	3964
927.95	3846
928.056	3972
928.162	3979
928.267	4067
928.373	4698
928.479	4109
928.585	3869
928.69	4032
928.796	4048
928.901	3987
929.007	3911
929.112	3987
929.218	3998
929.323	3918
929.428	3987
929.533	4116
929.638	3888
929.743	3968
929.848	4048
929.953	3994
930.058	3941
930.163	3770
930.267	3816
930.372	3949
930.477	3838
930.581	4055
930.685	3945
930.79	3793
930.894	3896
930.998	3854
931.103	4021
931.207	3751
931.311	3717
931.415	3686
931.519	3496
931.623	3545
