Data from test_V78500241_523.txt Node
Date: Fri Mar 25 16:52:38 CST 2022
User: usil
Spectrometer: V785-0024
Trigger mode: 0
Integration Time (sec): 4.000000E-1
Scans to average: 1
Nonlinearity correction enabled: false
Boxcar width: 0
Storing dark spectrum: false
XAxis mode: Wavelengths
Number of Pixels in Spectrum: 1024
>>>>>Begin Spectral Data<<<<<
801.071	7967
801.214	7940
801.356	7925
801.499	7852
801.641	7742
801.783	7807
801.926	7989
802.068	7970
802.211	8016
802.353	7993
802.496	7856
802.638	7909
802.78	7940
802.923	7913
803.065	7845
803.208	7826
803.35	7902
803.492	7982
803.635	8069
803.777	7982
803.919	8058
804.061	8408
804.204	8161
804.346	8008
804.488	7967
804.63	8084
804.773	7947
804.915	8039
805.057	8244
805.199	8153
805.341	8199
805.483	8202
805.626	8153
805.768	8058
805.91	8149
806.052	8126
806.194	8069
806.336	8256
806.478	8062
806.62	8069
806.762	8119
806.904	8164
807.046	8438
807.188	8309
807.33	8332
807.472	8305
807.614	8164
807.756	8084
807.898	7993
808.04	7898
808.182	7890
808.324	7909
808.465	7928
808.607	8043
808.749	8081
808.891	8183
809.033	8309
809.174	8145
809.316	8012
809.458	8012
809.6	7947
809.741	8043
809.883	7967
810.025	8062
810.166	8024
810.308	8024
810.45	7993
810.591	7837
810.733	7677
810.875	7624
811.016	7556
811.158	7502
811.299	7616
811.441	7696
811.582	7666
811.724	7586
811.865	7514
812.007	7594
812.148	7590
812.29	7666
812.431	7772
812.573	7887
812.714	7875
812.855	8069
812.997	8279
813.138	8332
813.279	8187
813.421	8214
813.562	8100
813.703	7814
813.845	7784
813.986	7472
814.127	7327
814.268	7297
814.41	7263
814.551	7168
814.692	7168
814.833	7099
814.974	7110
815.115	7156
815.256	6977
815.397	6905
815.539	6989
815.68	6802
815.821	6802
815.962	6833
816.103	6871
816.244	6734
816.385	6669
816.526	6566
816.666	6498
816.807	6315
816.948	6407
817.089	6467
817.23	6422
817.371	6380
817.512	6365
817.653	6418
817.793	6338
817.934	6426
818.075	6479
818.216	6437
818.356	6414
818.497	6186
818.638	6205
818.778	6144
818.919	6125
819.06	6098
819.2	6304
819.341	6338
819.481	6353
819.622	6467
819.762	6707
819.903	6650
820.043	6555
820.184	6532
820.324	6555
820.465	6677
820.605	6631
820.746	6566
820.886	6464
821.026	6669
821.167	6707
821.307	6753
821.447	6802
821.588	6665
821.728	6582
821.868	6399
822.008	6319
822.149	6323
822.289	6319
822.429	6087
822.569	6095
822.709	6144
822.849	5901
822.99	5901
823.13	5882
823.27	5916
823.41	5813
823.55	5695
823.69	5737
823.83	5783
823.97	5672
824.11	5532
824.25	5535
824.389	5528
824.529	5558
824.669	5490
824.809	5608
824.949	5672
825.089	5623
825.228	5543
825.368	5395
825.508	5307
825.648	5318
825.787	5383
825.927	5406
826.067	5322
826.206	5334
826.346	5364
826.485	5391
826.625	5455
826.765	5486
826.904	5467
827.044	5254
827.183	5189
827.323	5128
827.462	5261
827.601	5124
827.741	5117
827.88	5197
828.02	5083
828.159	5201
828.298	5269
828.437	5360
828.577	5277
828.716	5478
828.855	5273
828.994	5159
829.134	5208
829.273	5124
829.412	5159
829.551	5102
829.69	5204
829.829	5223
829.968	5353
830.107	5261
830.246	5250
830.385	5181
830.524	5166
830.663	5037
830.802	4972
830.941	4866
831.08	4866
831.219	5003
831.357	4927
831.496	5155
831.635	4900
831.774	4835
831.913	4835
832.051	4717
832.19	4744
832.329	4854
832.467	4702
832.606	4656
832.744	4725
832.883	4717
833.022	4710
833.16	4812
833.299	4824
833.437	4877
833.576	4805
833.714	4870
833.852	4896
833.991	4820
834.129	4984
834.267	4889
834.406	4972
834.544	4961
834.682	5029
834.821	4934
834.959	5155
835.097	4972
835.235	5147
835.373	5060
835.511	5067
835.65	4991
835.788	4984
835.926	4877
836.064	4862
836.202	4904
836.34	5178
836.478	5208
836.615	5170
836.753	5235
836.891	5277
837.029	5231
837.167	5193
837.305	5132
837.443	5147
837.58	5029
837.718	5201
837.856	5185
837.993	5094
838.131	5261
838.269	5189
838.406	5212
838.544	5185
838.681	5056
838.819	4999
838.956	4923
839.094	4919
839.231	5018
839.369	5056
839.506	5395
839.643	5250
839.781	5037
839.918	5014
840.055	5094
840.193	5151
840.33	5048
840.467	5083
840.604	5208
840.742	5467
840.879	5102
841.016	5109
841.153	5113
841.29	5379
841.427	5334
841.564	5292
841.701	5311
841.838	5269
841.975	5189
842.112	5277
842.249	5174
842.385	5155
842.522	5299
842.659	5151
842.796	5098
842.933	5162
843.069	5124
843.206	5143
843.343	5334
843.479	5284
843.616	5284
843.752	5006
843.889	4995
844.025	5227
844.162	5075
844.298	5216
844.435	5094
844.571	5025
844.708	5151
844.844	5258
844.98	5349
845.117	5265
845.253	5128
845.389	5056
845.525	5102
845.661	5140
845.798	5033
845.934	5075
846.07	5064
846.206	5162
846.342	5288
846.478	5170
846.614	5083
846.75	4995
846.886	4942
847.022	5121
847.158	4991
847.294	5060
847.429	5105
847.565	5029
847.701	5296
847.837	4835
847.972	4790
848.108	4889
848.244	4919
848.379	4805
848.515	4729
848.65	4736
848.786	4755
848.921	4793
849.057	4854
849.192	4915
849.328	4801
849.463	4850
849.598	4809
849.734	4702
849.869	4698
850.004	4569
850.14	4645
850.275	4573
850.41	4535
850.545	4508
850.68	4588
850.815	4592
850.95	4603
851.085	4812
851.22	4744
851.355	4687
851.49	4649
851.625	4653
851.76	4641
851.895	4478
852.03	4554
852.165	4630
852.299	4744
852.434	4809
852.569	4683
852.703	4778
852.838	4839
852.973	4938
853.107	4900
853.242	4729
853.376	4660
853.511	4516
853.645	4641
853.78	4771
853.914	4706
854.048	4664
854.183	4577
854.317	4702
854.451	4831
854.585	4634
854.72	4664
854.854	4740
854.988	4672
855.122	4626
855.256	4519
855.39	4694
855.524	4824
855.658	4736
855.792	4694
855.926	4710
856.06	4809
856.194	4767
856.327	4660
856.461	4588
856.595	4603
856.729	4637
856.862	4774
856.996	4748
857.13	4687
857.263	4733
857.397	4763
857.53	4656
857.664	4733
857.797	4790
857.931	4801
858.064	4717
858.197	4725
858.331	4615
858.464	4615
858.597	4485
858.731	4588
858.864	4607
858.997	4573
859.13	4656
859.263	4683
859.396	4687
859.529	4558
859.662	4592
859.795	4527
859.928	4588
860.061	4778
860.194	4717
860.327	4618
860.46	4516
860.592	4702
860.725	4729
860.858	4767
860.99	4554
861.123	4531
861.256	4550
861.388	4626
861.521	5486
861.653	4478
861.786	4394
861.918	4485
862.05	4523
862.183	4577
862.315	4554
862.447	4637
862.58	4512
862.712	4383
862.844	4367
862.976	4417
863.108	4432
863.24	4839
863.372	4337
863.504	4413
863.636	4402
863.768	4447
863.9	4424
864.032	4352
864.164	4383
864.296	4512
864.428	4580
864.559	4535
864.691	4538
864.823	4512
864.954	4493
865.086	4504
865.217	4474
865.349	4417
865.48	4447
865.612	4497
865.743	4561
865.875	4466
866.006	4436
866.137	4447
866.269	4409
866.4	4428
866.531	4402
866.662	4424
866.793	4402
866.924	4474
867.055	4500
867.186	4462
867.317	4394
867.448	4402
867.579	4383
867.71	4360
867.841	4356
867.972	4451
868.103	4436
868.233	4451
868.364	4413
868.495	4466
868.625	4679
868.756	4714
868.886	4542
869.017	4611
869.147	4782
869.278	4763
869.408	4698
869.539	4611
869.669	4679
869.799	4634
869.929	4721
870.06	4740
870.19	4949
870.32	4889
870.45	4949
870.58	5003
870.71	5079
870.84	5075
870.97	4957
871.1	4892
871.23	5094
871.36	5143
871.489	4995
871.619	5075
871.749	5102
871.879	5075
872.008	5140
872.138	5071
872.267	4915
872.397	4824
872.526	4854
872.656	4759
872.785	4824
872.915	4923
873.044	5014
873.173	4923
873.303	4949
873.432	4953
873.561	4923
873.69	4839
873.819	4866
873.948	4904
874.077	4801
874.206	4805
874.335	4801
874.464	4934
874.593	5037
874.722	4930
874.851	5090
874.979	5094
875.108	5033
875.237	4911
875.365	4854
875.494	4904
875.623	4968
875.751	4797
875.88	4885
876.008	4968
876.136	4968
876.265	5140
876.393	5326
876.521	5265
876.65	5220
876.778	5159
876.906	5060
877.034	5014
877.162	5052
877.29	4991
877.418	5045
877.546	5025
877.674	5071
877.802	5022
877.93	5025
878.058	4915
878.185	4831
878.313	4957
878.441	4908
878.568	4805
878.696	4889
878.824	4889
878.951	4987
879.079	5048
879.206	5258
879.333	5124
879.461	4995
879.588	5010
879.715	5113
879.842	5239
879.97	5003
880.097	4809
880.224	4752
880.351	4782
880.478	4839
880.605	4843
880.732	4771
880.859	5067
880.986	4896
881.112	4911
881.239	4809
881.366	4721
881.493	4645
881.619	4607
881.746	4675
881.872	4683
881.999	4683
882.125	4710
882.252	4812
882.378	4858
882.505	5025
882.631	4831
882.757	4736
882.883	4740
883.01	4763
883.136	4691
883.262	4634
883.388	4622
883.514	4885
883.64	4942
883.766	4850
883.892	4691
884.018	4778
884.143	4961
884.269	5022
884.395	4755
884.52	4706
884.646	4687
884.772	4664
884.897	4565
885.023	4733
885.148	4828
885.274	4889
885.399	4824
885.524	4786
885.65	4736
885.775	4771
885.9	4748
886.025	4858
886.15	4831
886.275	4759
886.4	4687
886.525	4767
886.65	4755
886.775	4744
886.9	4976
887.025	5079
887.149	4847
887.274	4740
887.399	4607
887.523	4694
887.648	4615
887.773	4637
887.897	4812
888.021	4847
888.146	4698
888.27	4885
888.395	4949
888.519	4828
888.643	4885
888.767	4839
888.891	4717
889.015	4607
889.139	4675
889.263	4622
889.387	4774
889.511	4919
889.635	4805
889.759	4706
889.883	4679
890.006	4782
890.13	4835
890.254	4634
890.377	4767
890.501	4565
890.624	4577
890.748	4683
890.871	4592
890.995	4512
891.118	4405
891.241	4554
891.364	4584
891.488	4656
891.611	4561
891.734	4565
891.857	4675
891.98	4599
892.103	4664
892.226	4603
892.349	4558
892.471	4421
892.594	4603
892.717	4626
892.839	4615
892.962	4645
893.085	4706
893.207	4649
893.33	4519
893.452	4596
893.575	4668
893.697	4618
893.819	4786
893.941	4858
894.064	4805
894.186	4630
894.308	4618
894.43	4736
894.552	4873
894.674	4809
894.796	4596
894.918	4596
895.04	4596
895.161	4717
895.283	4687
895.405	4580
895.526	4668
895.648	4714
895.769	4679
895.891	4748
896.012	4748
896.134	4710
896.255	4679
896.376	4645
896.498	4630
896.619	4706
896.74	4675
896.861	4672
896.982	4968
897.103	5151
897.224	4839
897.345	4797
897.466	4733
897.587	4752
897.708	4889
897.828	4790
897.949	4672
898.07	4580
898.19	4687
898.311	4900
898.431	4694
898.552	4793
898.672	4778
898.792	4816
898.913	4778
899.033	4637
899.153	4546
899.273	4409
899.393	4542
899.513	4558
899.633	4596
899.753	4512
899.873	4512
899.993	4622
900.113	4573
900.232	4641
900.352	4603
900.472	4603
900.591	4451
900.711	4504
900.83	4421
900.95	4618
901.069	4752
901.189	4565
901.308	4371
901.427	4344
901.546	4367
901.665	4565
901.784	4596
901.904	4440
902.023	4344
902.141	4253
902.26	4207
902.379	4322
902.498	4333
902.617	4261
902.735	4383
902.854	4409
902.973	4383
903.091	4284
903.21	4253
903.328	4329
903.446	4287
903.565	4303
903.683	4367
903.801	4344
903.919	4451
904.038	4455
904.156	4318
904.274	4527
904.392	4436
904.51	4447
904.627	4527
904.745	4626
904.863	4656
904.981	4440
905.098	4341
905.216	4379
905.334	4485
905.451	4474
905.569	4485
905.686	4592
905.803	4615
905.921	4466
906.038	4550
906.155	4504
906.272	4462
906.389	4527
906.506	4356
906.623	4428
906.74	4432
906.857	4367
906.974	4405
907.091	4588
907.208	4679
907.324	4618
907.441	4554
907.557	4424
907.674	4405
907.79	4348
907.907	4462
908.023	4561
908.139	4527
908.256	4478
908.372	4485
908.488	4531
908.604	4405
908.72	4383
908.836	4417
908.952	4474
909.068	4447
909.184	4577
909.3	4527
909.415	4641
909.531	4637
909.647	4394
909.762	4383
909.878	4398
909.993	4451
910.108	4459
910.224	4500
910.339	4516
910.454	4398
910.57	4413
910.685	4314
910.8	4615
910.915	4634
911.03	4489
911.145	4360
911.259	4405
911.374	4394
911.489	4352
911.604	4318
911.718	4200
911.833	4188
911.947	4116
912.062	4048
912.176	4238
912.291	4276
912.405	4265
912.519	4531
912.633	4538
912.748	4356
912.862	4363
912.976	4257
913.09	4093
913.204	4200
913.318	4276
913.431	4367
913.545	4379
913.659	4512
913.772	4405
913.886	4249
914	4227
914.113	4424
914.226	4470
914.34	4413
914.453	4268
914.566	4470
914.68	4341
914.793	4356
914.906	4185
915.019	4166
915.132	4097
915.245	4223
915.358	4200
915.47	4272
915.583	4322
915.696	4310
915.809	4474
915.921	4440
916.034	4284
916.146	4284
916.259	4261
916.371	4424
916.483	4394
916.595	4280
916.708	4367
916.82	4341
916.932	4379
917.044	4348
917.156	4390
917.268	4310
917.38	4314
917.491	4295
917.603	4360
917.715	4462
917.826	4493
917.938	4314
918.049	4238
918.161	4379
918.272	4603
918.384	4527
918.495	4493
918.606	4375
918.717	4257
918.828	4318
918.939	4417
919.05	4314
919.161	4367
919.272	4116
919.383	4242
919.494	4481
919.604	4656
919.715	4451
919.826	4436
919.936	4417
920.047	4577
920.157	4535
920.267	4710
920.378	4550
920.488	4565
920.598	4725
920.708	4919
920.818	4767
920.928	4850
921.038	4980
921.148	4965
921.258	4653
921.368	4577
921.477	4497
921.587	4516
921.697	4390
921.806	4565
921.916	4440
922.025	4291
922.134	4295
922.244	4253
922.353	4394
922.462	4246
922.571	4166
922.68	4017
922.789	3968
922.898	4017
923.007	3998
923.116	4124
923.224	4078
923.333	4074
923.442	4036
923.55	4017
923.659	4055
923.767	4131
923.876	4002
923.984	4166
924.092	4021
924.201	4071
924.309	4147
924.417	4135
924.525	4120
924.633	4139
924.741	5041
924.849	3945
924.956	4166
925.064	3991
925.172	3968
925.279	3998
925.387	4128
925.494	4101
925.602	4249
925.709	4177
925.816	4093
925.924	4188
926.031	4200
926.138	4204
926.245	4230
926.352	4112
926.459	4310
926.566	4337
926.673	4154
926.779	4101
926.886	4109
926.993	4010
927.099	3991
927.206	3949
927.312	3987
927.419	4063
927.525	4032
927.631	4124
927.737	4006
927.843	3934
927.95	3934
928.056	3930
928.162	3998
928.267	4063
928.373	4698
928.479	4139
928.585	3854
928.69	4040
928.796	4074
928.901	3949
929.007	3865
929.112	4063
929.218	3979
929.323	3934
929.428	3960
929.533	4105
929.638	3922
929.743	3987
929.848	4048
929.953	3983
930.058	3975
930.163	3812
930.267	3797
930.372	4017
930.477	3846
930.581	4101
930.685	3964
930.79	3899
930.894	3937
930.998	3892
931.103	4090
931.207	3755
931.311	3743
931.415	3694
931.519	3576
931.623	3576
