Data from test_V78500241_1360.txt Node
Date: Fri Mar 25 16:58:27 CST 2022
User: usil
Spectrometer: V785-0024
Trigger mode: 0
Integration Time (sec): 4.000000E-1
Scans to average: 1
Nonlinearity correction enabled: false
Boxcar width: 0
Storing dark spectrum: false
XAxis mode: Wavelengths
Number of Pixels in Spectrum: 1024
>>>>>Begin Spectral Data<<<<<
801.071	7982
801.214	8012
801.356	7887
801.499	7788
801.641	7826
801.783	7792
801.926	7913
802.068	7989
802.211	7997
802.353	7970
802.496	7803
802.638	7906
802.78	7841
802.923	7993
803.065	7913
803.208	7856
803.35	7963
803.492	8073
803.635	8206
803.777	8081
803.919	8210
804.061	8434
804.204	8202
804.346	8062
804.488	7913
804.63	8149
804.773	8043
804.915	8100
805.057	8313
805.199	8176
805.341	8134
805.483	8225
805.626	8225
805.768	8153
805.91	8157
806.052	8157
806.194	8073
806.336	8328
806.478	7947
806.62	8035
806.762	8123
806.904	8229
807.046	8442
807.188	8355
807.33	8256
807.472	8336
807.614	8214
807.756	8096
807.898	7955
808.04	7841
808.182	7906
808.324	7902
808.465	7928
808.607	8069
808.749	8153
808.891	8180
809.033	8229
809.174	8206
809.316	8016
809.458	8065
809.6	8001
809.741	7963
809.883	7932
810.025	8123
810.166	8103
810.308	8073
810.45	7982
810.591	7803
810.733	7582
810.875	7685
811.016	7491
811.158	7521
811.299	7582
811.441	7731
811.582	7655
811.724	7586
811.865	7518
812.007	7590
812.148	7601
812.29	7609
812.431	7757
812.573	7871
812.714	7921
812.855	8115
812.997	8180
813.138	8298
813.279	8248
813.421	8084
813.562	7928
813.703	7807
813.845	7700
813.986	7419
814.127	7221
814.268	7285
814.41	7190
814.551	7129
814.692	7217
814.833	7015
814.974	7091
815.115	7141
815.256	6943
815.397	6909
815.539	6943
815.68	6776
815.821	6703
815.962	6833
816.103	6798
816.244	6749
816.385	6574
816.526	6631
816.666	6452
816.807	6285
816.948	6395
817.089	6452
817.23	6429
817.371	6433
817.512	6391
817.653	6452
817.793	6315
817.934	6414
818.075	6403
818.216	6479
818.356	6372
818.497	6277
818.638	6175
818.778	6159
818.919	6117
819.06	6190
819.2	6331
819.341	6285
819.481	6384
819.622	6509
819.762	6703
819.903	6635
820.043	6528
820.184	6563
820.324	6547
820.465	6684
820.605	6631
820.746	6662
820.886	6471
821.026	6654
821.167	6711
821.307	6798
821.447	6711
821.588	6627
821.728	6525
821.868	6486
822.008	6308
822.149	6399
822.289	6361
822.429	6140
822.569	6136
822.709	6102
822.849	5836
822.99	5878
823.13	5965
823.27	5912
823.41	5752
823.55	5794
823.69	5722
823.83	5760
823.97	5630
824.11	5509
824.25	5512
824.389	5547
824.529	5619
824.669	5505
824.809	5604
824.949	5604
825.089	5638
825.228	5528
825.368	5395
825.508	5326
825.648	5326
825.787	5334
825.927	5391
826.067	5254
826.206	5284
826.346	5330
826.485	5414
826.625	5391
826.765	5516
826.904	5467
827.044	5193
827.183	5159
827.323	5105
827.462	5181
827.601	5143
827.741	5159
827.88	5239
828.02	5128
828.159	5220
828.298	5265
828.437	5360
828.577	5288
828.716	5455
828.855	5345
828.994	5140
829.134	5159
829.273	5204
829.412	5121
829.551	5094
829.69	5147
829.829	5254
829.968	5341
830.107	5216
830.246	5273
830.385	5201
830.524	5094
830.663	5033
830.802	5010
830.941	4839
831.08	4881
831.219	4980
831.357	4961
831.496	5143
831.635	4927
831.774	4828
831.913	4820
832.051	4759
832.19	4710
832.329	4873
832.467	4710
832.606	4649
832.744	4668
832.883	4691
833.022	4664
833.16	4782
833.299	4812
833.437	4824
833.576	4843
833.714	4847
833.852	4896
833.991	4839
834.129	4949
834.267	4930
834.406	4923
834.544	5003
834.682	4908
834.821	4923
834.959	5094
835.097	4968
835.235	5124
835.373	5124
835.511	5094
835.65	4976
835.788	5025
835.926	4927
836.064	4919
836.202	4866
836.34	5174
836.478	5220
836.615	5102
836.753	5155
836.891	5261
837.029	5246
837.167	5212
837.305	5174
837.443	5117
837.58	5060
837.718	5201
837.856	5174
837.993	5159
838.131	5208
838.269	5197
838.406	5181
838.544	5113
838.681	5064
838.819	4987
838.956	4858
839.094	4885
839.231	4961
839.369	5086
839.506	5391
839.643	5258
839.781	5018
839.918	5006
840.055	5083
840.193	5071
840.33	5109
840.467	5140
840.604	5197
840.742	5448
840.879	5090
841.016	5075
841.153	5124
841.29	5345
841.427	5357
841.564	5296
841.701	5398
841.838	5239
841.975	5201
842.112	5280
842.249	5136
842.385	5075
842.522	5322
842.659	5140
842.796	5140
842.933	5166
843.069	5147
843.206	5136
843.343	5242
843.479	5189
843.616	5273
843.752	5060
843.889	4991
844.025	5197
844.162	4999
844.298	5227
844.435	5090
844.571	5006
844.708	5208
844.844	5265
844.98	5322
845.117	5296
845.253	5090
845.389	5079
845.525	5193
845.661	5147
845.798	5025
845.934	5105
846.07	5037
846.206	5212
846.342	5292
846.478	5155
846.614	5022
846.75	4949
846.886	4995
847.022	5109
847.158	5052
847.294	5022
847.429	5075
847.565	5014
847.701	5303
847.837	4828
847.972	4828
848.108	4923
848.244	4915
848.379	4763
848.515	4748
848.65	4721
848.786	4733
848.921	4729
849.057	4900
849.192	4881
849.328	4752
849.463	4862
849.598	4824
849.734	4752
849.869	4736
850.004	4645
850.14	4698
850.275	4596
850.41	4489
850.545	4592
850.68	4611
850.815	4622
850.95	4599
851.085	4786
851.22	4759
851.355	4672
851.49	4611
851.625	4626
851.76	4618
851.895	4584
852.03	4493
852.165	4603
852.299	4710
852.434	4771
852.569	4755
852.703	4782
852.838	4847
852.973	4923
853.107	4839
853.242	4714
853.376	4672
853.511	4542
853.645	4630
853.78	4816
853.914	4634
854.048	4641
854.183	4649
854.317	4679
854.451	4797
854.585	4698
854.72	4630
854.854	4752
854.988	4634
855.122	4615
855.256	4546
855.39	4641
855.524	4763
855.658	4733
855.792	4683
855.926	4672
856.06	4748
856.194	4793
856.327	4702
856.461	4611
856.595	4592
856.729	4569
856.862	4691
856.996	4706
857.13	4706
857.263	4710
857.397	4782
857.53	4664
857.664	4721
857.797	4675
857.931	4755
858.064	4698
858.197	4733
858.331	4664
858.464	4596
858.597	4527
858.731	4577
858.864	4615
858.997	4637
859.13	4672
859.263	4649
859.396	4672
859.529	4577
859.662	4538
859.795	4542
859.928	4588
860.061	4740
860.194	4755
860.327	4618
860.46	4546
860.592	4694
860.725	4714
860.858	4672
860.99	4580
861.123	4523
861.256	4550
861.388	4607
861.521	5341
861.653	4455
861.786	4459
861.918	4424
862.05	4573
862.183	4558
862.315	4523
862.447	4645
862.58	4561
862.712	4310
862.844	4253
862.976	4417
863.108	4485
863.24	4889
863.372	4322
863.504	4440
863.636	4405
863.768	4466
863.9	4375
864.032	4394
864.164	4394
864.296	4394
864.428	4546
864.559	4588
864.691	4519
864.823	4535
864.954	4497
865.086	4527
865.217	4447
865.349	4421
865.48	4443
865.612	4470
865.743	4634
865.875	4447
866.006	4436
866.137	4428
866.269	4443
866.4	4394
866.531	4440
866.662	4371
866.793	4386
866.924	4390
867.055	4535
867.186	4443
867.317	4383
867.448	4356
867.579	4348
867.71	4363
867.841	4386
867.972	4474
868.103	4440
868.233	4428
868.364	4478
868.495	4417
868.625	4618
868.756	4752
868.886	4531
869.017	4565
869.147	4771
869.278	4763
869.408	4649
869.539	4580
869.669	4736
869.799	4622
869.929	4729
870.06	4668
870.19	4972
870.32	4919
870.45	4927
870.58	4972
870.71	5098
870.84	5083
870.97	4965
871.1	4843
871.23	5189
871.36	5090
871.489	5025
871.619	5045
871.749	5071
871.879	5132
872.008	5132
872.138	4987
872.267	4991
872.397	4885
872.526	4774
872.656	4763
872.785	4820
872.915	4930
873.044	4972
873.173	4999
873.303	4968
873.432	4961
873.561	4987
873.69	4850
873.819	4870
873.948	4858
874.077	4790
874.206	4790
874.335	4786
874.464	4896
874.593	5006
874.722	4911
874.851	5105
874.979	5037
875.108	5071
875.237	4934
875.365	4858
875.494	4854
875.623	4984
875.751	4809
875.88	4835
876.008	4949
876.136	5045
876.265	5117
876.393	5315
876.521	5216
876.65	5208
876.778	5102
876.906	5098
877.034	5022
877.162	5014
877.29	4968
877.418	5060
877.546	5045
877.674	5052
877.802	4968
877.93	4984
878.058	4896
878.185	4835
878.313	4984
878.441	4934
878.568	4786
878.696	4881
878.824	4942
878.951	4976
879.079	5132
879.206	5258
879.333	5102
879.461	4946
879.588	4938
879.715	5128
879.842	5261
879.97	5010
880.097	4767
880.224	4793
880.351	4740
880.478	4843
880.605	4740
880.732	4809
880.859	5064
880.986	4877
881.112	4927
881.239	4767
881.366	4687
881.493	4577
881.619	4558
881.746	4668
881.872	4637
881.999	4702
882.125	4683
882.252	4816
882.378	4801
882.505	4957
882.631	4816
882.757	4683
882.883	4714
883.01	4714
883.136	4668
883.262	4596
883.388	4577
883.514	4763
883.64	4820
883.766	4752
883.892	4672
884.018	4744
884.143	4881
884.269	4999
884.395	4675
884.52	4603
884.646	4622
884.772	4577
884.897	4523
885.023	4668
885.148	4755
885.274	4900
885.399	4847
885.524	4687
885.65	4714
885.775	4687
885.9	4691
886.025	4801
886.15	4786
886.275	4706
886.4	4641
886.525	4664
886.65	4675
886.775	4679
886.9	4873
887.025	5018
887.149	4793
887.274	4607
887.399	4630
887.523	4607
887.648	4558
887.773	4599
887.897	4691
888.021	4759
888.146	4630
888.27	4820
888.395	4885
888.519	4831
888.643	4801
888.767	4793
888.891	4694
889.015	4615
889.139	4630
889.263	4577
889.387	4691
889.511	4858
889.635	4824
889.759	4641
889.883	4584
890.006	4714
890.13	4831
890.254	4554
890.377	4656
890.501	4523
890.624	4504
890.748	4649
890.871	4523
890.995	4413
891.118	4379
891.241	4489
891.364	4561
891.488	4645
891.611	4508
891.734	4550
891.857	4626
891.98	4508
892.103	4626
892.226	4561
892.349	4592
892.471	4413
892.594	4497
892.717	4546
892.839	4523
892.962	4592
893.085	4653
893.207	4599
893.33	4405
893.452	4474
893.575	4626
893.697	4573
893.819	4801
893.941	4809
894.064	4771
894.186	4592
894.308	4542
894.43	4736
894.552	4824
894.674	4740
894.796	4516
894.918	4573
895.04	4558
895.161	4645
895.283	4660
895.405	4561
895.526	4626
895.648	4694
895.769	4645
895.891	4706
896.012	4725
896.134	4694
896.255	4698
896.376	4618
896.498	4577
896.619	4687
896.74	4611
896.861	4626
896.982	4919
897.103	5083
897.224	4778
897.345	4763
897.466	4626
897.587	4668
897.708	4847
897.828	4790
897.949	4611
898.07	4531
898.19	4645
898.311	4812
898.431	4687
898.552	4767
898.672	4839
898.792	4744
898.913	4774
899.033	4618
899.153	4508
899.273	4432
899.393	4470
899.513	4523
899.633	4478
899.753	4584
899.873	4512
899.993	4580
900.113	4580
900.232	4573
900.352	4478
900.472	4455
900.591	4390
900.711	4470
900.83	4394
900.95	4626
901.069	4656
901.189	4478
901.308	4367
901.427	4322
901.546	4375
901.665	4455
901.784	4516
901.904	4390
902.023	4299
902.141	4181
902.26	4154
902.379	4284
902.498	4223
902.617	4234
902.735	4413
902.854	4371
902.973	4348
903.091	4166
903.21	4169
903.328	4291
903.446	4249
903.565	4272
903.683	4363
903.801	4272
903.919	4390
904.038	4417
904.156	4318
904.274	4402
904.392	4405
904.51	4398
904.627	4459
904.745	4577
904.863	4691
904.981	4386
905.098	4303
905.216	4363
905.334	4443
905.451	4455
905.569	4421
905.686	4569
905.803	4584
905.921	4405
906.038	4535
906.155	4451
906.272	4394
906.389	4459
906.506	4356
906.623	4356
906.74	4394
906.857	4299
906.974	4379
907.091	4588
907.208	4653
907.324	4565
907.441	4500
907.557	4306
907.674	4360
907.79	4337
907.907	4383
908.023	4481
908.139	4478
908.256	4447
908.372	4459
908.488	4451
908.604	4306
908.72	4299
908.836	4386
908.952	4360
909.068	4398
909.184	4546
909.3	4455
909.415	4535
909.531	4554
909.647	4287
909.762	4348
909.878	4375
909.993	4424
910.108	4413
910.224	4386
910.339	4481
910.454	4405
910.57	4356
910.685	4306
910.8	4656
910.915	4580
911.03	4462
911.145	4318
911.259	4322
911.374	4341
911.489	4341
911.604	4337
911.718	4143
911.833	4181
911.947	4036
912.062	4021
912.176	4223
912.291	4150
912.405	4207
912.519	4428
912.633	4508
912.748	4310
912.862	4284
912.976	4223
913.09	4093
913.204	4177
913.318	4227
913.431	4329
913.545	4341
913.659	4409
913.772	4322
913.886	4276
914	4253
914.113	4375
914.226	4451
914.34	4375
914.453	4287
914.566	4413
914.68	4310
914.793	4272
914.906	4192
915.019	4109
915.132	4097
915.245	4211
915.358	4188
915.47	4238
915.583	4291
915.696	4314
915.809	4421
915.921	4440
916.034	4242
916.146	4272
916.259	4257
916.371	4386
916.483	4322
916.595	4265
916.708	4333
916.82	4306
916.932	4322
917.044	4333
917.156	4314
917.268	4227
917.38	4257
917.491	4272
917.603	4337
917.715	4356
917.826	4428
917.938	4360
918.049	4234
918.161	4383
918.272	4554
918.384	4493
918.495	4436
918.606	4303
918.717	4188
918.828	4314
918.939	4398
919.05	4242
919.161	4325
919.272	4139
919.383	4207
919.494	4436
919.604	4611
919.715	4447
919.826	4379
919.936	4432
920.047	4493
920.157	4497
920.267	4679
920.378	4542
920.488	4489
920.598	4702
920.708	4831
920.818	4714
920.928	4748
921.038	4900
921.148	4881
921.258	4611
921.368	4577
921.477	4455
921.587	4440
921.697	4402
921.806	4531
921.916	4455
922.025	4253
922.134	4207
922.244	4238
922.353	4325
922.462	4169
922.571	4128
922.68	3994
922.789	3994
922.898	4013
923.007	3968
923.116	4097
923.224	4032
923.333	4051
923.442	3968
923.55	3968
923.659	4051
923.767	4059
923.876	3949
923.984	4120
924.092	4002
924.201	4082
924.309	4048
924.417	4150
924.525	4032
924.633	4109
924.741	5018
924.849	3915
924.956	4128
925.064	3903
925.172	3922
925.279	3983
925.387	4059
925.494	4055
925.602	4200
925.709	4169
925.816	4063
925.924	4116
926.031	4207
926.138	4150
926.245	4166
926.352	4055
926.459	4249
926.566	4272
926.673	4143
926.779	4082
926.886	4078
926.993	3979
927.099	3949
927.206	3975
927.312	3926
927.419	4086
927.525	4040
927.631	4082
927.737	3930
927.843	3960
927.95	3865
928.056	3949
928.162	3983
928.267	4048
928.373	4634
928.479	4150
928.585	3892
928.69	3975
928.796	4048
928.901	4021
929.007	3846
929.112	4044
929.218	3937
929.323	3922
929.428	3926
929.533	4105
929.638	3873
929.743	3945
929.848	4074
929.953	3968
930.058	3964
930.163	3778
930.267	3819
930.372	3934
930.477	3789
930.581	4101
930.685	3899
930.79	3823
930.894	3861
930.998	3838
931.103	4017
931.207	3732
931.311	3698
931.415	3679
931.519	3511
931.623	3538
