Data from test_V78500241_451.txt Node
Date: Fri Mar 25 16:52:08 CST 2022
User: usil
Spectrometer: V785-0024
Trigger mode: 0
Integration Time (sec): 4.000000E-1
Scans to average: 1
Nonlinearity correction enabled: false
Boxcar width: 0
Storing dark spectrum: false
XAxis mode: Wavelengths
Number of Pixels in Spectrum: 1024
>>>>>Begin Spectral Data<<<<<
801.071	8088
801.214	7959
801.356	7944
801.499	7818
801.641	7811
801.783	7875
801.926	7974
802.068	8035
802.211	8024
802.353	7982
802.496	7883
802.638	7928
802.78	7925
802.923	7982
803.065	7830
803.208	7955
803.35	7967
803.492	8039
803.635	8119
803.777	8031
803.919	8088
804.061	8396
804.204	8088
804.346	8024
804.488	7947
804.63	8084
804.773	7932
804.915	8100
805.057	8286
805.199	8172
805.341	8206
805.483	8218
805.626	8107
805.768	8058
805.91	8130
806.052	8161
806.194	8107
806.336	8408
806.478	8195
806.62	8092
806.762	8149
806.904	8252
807.046	8374
807.188	8256
807.33	8267
807.472	8305
807.614	8126
807.756	8107
807.898	8046
808.04	7932
808.182	7894
808.324	7967
808.465	7989
808.607	8065
808.749	8100
808.891	8183
809.033	8286
809.174	8233
809.316	8092
809.458	8054
809.6	7997
809.741	8027
809.883	8020
810.025	8138
810.166	8119
810.308	8058
810.45	7986
810.591	7890
810.733	7807
810.875	7727
811.016	7502
811.158	7506
811.299	7662
811.441	7723
811.582	7727
811.724	7643
811.865	7620
812.007	7609
812.148	7556
812.29	7628
812.431	7792
812.573	7989
812.714	7944
812.855	8153
812.997	8259
813.138	8290
813.279	8244
813.421	8164
813.562	8088
813.703	7909
813.845	7803
813.986	7510
814.127	7339
814.268	7297
814.41	7232
814.551	7225
814.692	7198
814.833	7099
814.974	7114
815.115	7175
815.256	6977
815.397	6958
815.539	6932
815.68	6852
815.821	6798
815.962	6894
816.103	6833
816.244	6787
816.385	6639
816.526	6635
816.666	6517
816.807	6281
816.948	6494
817.089	6460
817.23	6414
817.371	6479
817.512	6372
817.653	6403
817.793	6380
817.934	6422
818.075	6486
818.216	6445
818.356	6441
818.497	6228
818.638	6098
818.778	6136
818.919	6190
819.06	6140
819.2	6220
819.341	6327
819.481	6315
819.622	6464
819.762	6768
819.903	6684
820.043	6585
820.184	6589
820.324	6532
820.465	6700
820.605	6677
820.746	6608
820.886	6502
821.026	6658
821.167	6738
821.307	6791
821.447	6818
821.588	6631
821.728	6551
821.868	6490
822.008	6289
822.149	6353
822.289	6369
822.429	6167
822.569	6083
822.709	6155
822.849	5863
822.99	5939
823.13	5946
823.27	5897
823.41	5790
823.55	5767
823.69	5794
823.83	5737
823.97	5642
824.11	5570
824.25	5505
824.389	5478
824.529	5554
824.669	5570
824.809	5638
824.949	5691
825.089	5634
825.228	5630
825.368	5349
825.508	5364
825.648	5349
825.787	5337
825.927	5353
826.067	5299
826.206	5364
826.346	5398
826.485	5421
826.625	5414
826.765	5570
826.904	5505
827.044	5227
827.183	5193
827.323	5185
827.462	5296
827.601	5162
827.741	5159
827.88	5250
828.02	5075
828.159	5204
828.298	5322
828.437	5364
828.577	5273
828.716	5490
828.855	5311
828.994	5132
829.134	5155
829.273	5220
829.412	5140
829.551	5140
829.69	5189
829.829	5239
829.968	5364
830.107	5280
830.246	5288
830.385	5235
830.524	5109
830.663	5090
830.802	5003
830.941	4953
831.08	4847
831.219	4965
831.357	4984
831.496	5128
831.635	4892
831.774	4911
831.913	4885
832.051	4748
832.19	4782
832.329	4824
832.467	4675
832.606	4626
832.744	4767
832.883	4759
833.022	4725
833.16	4759
833.299	4828
833.437	4843
833.576	4820
833.714	4828
833.852	4896
833.991	4900
834.129	4980
834.267	4965
834.406	4953
834.544	4953
834.682	4968
834.821	4942
834.959	5151
835.097	4972
835.235	5102
835.373	5056
835.511	5113
835.65	5094
835.788	5033
835.926	4923
836.064	4870
836.202	4877
836.34	5128
836.478	5250
836.615	5140
836.753	5132
836.891	5322
837.029	5242
837.167	5242
837.305	5231
837.443	5201
837.58	5079
837.718	5197
837.856	5140
837.993	5132
838.131	5216
838.269	5201
838.406	5162
838.544	5151
838.681	5048
838.819	4930
838.956	4885
839.094	4915
839.231	5003
839.369	5022
839.506	5410
839.643	5261
839.781	5056
839.918	5037
840.055	5124
840.193	5102
840.33	5086
840.467	5185
840.604	5162
840.742	5459
840.879	5090
841.016	5109
841.153	5155
841.29	5379
841.427	5330
841.564	5341
841.701	5360
841.838	5258
841.975	5258
842.112	5349
842.249	5155
842.385	5090
842.522	5368
842.659	5220
842.796	5136
842.933	5189
843.069	5216
843.206	5162
843.343	5292
843.479	5223
843.616	5288
843.752	5041
843.889	5071
844.025	5220
844.162	5037
844.298	5208
844.435	5102
844.571	5094
844.708	5223
844.844	5322
844.98	5337
845.117	5277
845.253	5147
845.389	5109
845.525	5147
845.661	5151
845.798	5003
845.934	5178
846.07	5071
846.206	5216
846.342	5311
846.478	5223
846.614	4999
846.75	4976
846.886	4942
847.022	5189
847.158	5056
847.294	5060
847.429	5056
847.565	5052
847.701	5326
847.837	4805
847.972	4862
848.108	5010
848.244	4957
848.379	4858
848.515	4706
848.65	4740
848.786	4702
848.921	4843
849.057	4843
849.192	4904
849.328	4820
849.463	4839
849.598	4801
849.734	4759
849.869	4687
850.004	4637
850.14	4660
850.275	4592
850.41	4527
850.545	4565
850.68	4634
850.815	4618
850.95	4550
851.085	4843
851.22	4714
851.355	4637
851.49	4637
851.625	4634
851.76	4675
851.895	4554
852.03	4531
852.165	4641
852.299	4736
852.434	4771
852.569	4740
852.703	4786
852.838	4850
852.973	4957
853.107	4900
853.242	4721
853.376	4721
853.511	4542
853.645	4596
853.78	4797
853.914	4702
854.048	4653
854.183	4687
854.317	4702
854.451	4881
854.585	4675
854.72	4641
854.854	4721
854.988	4618
855.122	4653
855.256	4527
855.39	4706
855.524	4801
855.658	4687
855.792	4694
855.926	4687
856.06	4767
856.194	4801
856.327	4706
856.461	4634
856.595	4592
856.729	4641
856.862	4733
856.996	4714
857.13	4740
857.263	4755
857.397	4805
857.53	4679
857.664	4740
857.797	4812
857.931	4755
858.064	4675
858.197	4729
858.331	4675
858.464	4603
858.597	4485
858.731	4626
858.864	4653
858.997	4588
859.13	4664
859.263	4668
859.396	4710
859.529	4580
859.662	4569
859.795	4516
859.928	4634
860.061	4733
860.194	4740
860.327	4615
860.46	4584
860.592	4675
860.725	4736
860.858	4721
860.99	4577
861.123	4504
861.256	4546
861.388	4611
861.521	5452
861.653	4462
861.786	4459
861.918	4470
862.05	4546
862.183	4584
862.315	4611
862.447	4626
862.58	4542
862.712	4363
862.844	4383
862.976	4531
863.108	4459
863.24	4736
863.372	4352
863.504	4443
863.636	4383
863.768	4489
863.9	4462
864.032	4413
864.164	4383
864.296	4443
864.428	4565
864.559	4615
864.691	4523
864.823	4504
864.954	4546
865.086	4527
865.217	4504
865.349	4421
865.48	4497
865.612	4481
865.743	4656
865.875	4512
866.006	4424
866.137	4447
866.269	4424
866.4	4417
866.531	4402
866.662	4402
866.793	4428
866.924	4459
867.055	4512
867.186	4481
867.317	4383
867.448	4432
867.579	4394
867.71	4402
867.841	4386
867.972	4493
868.103	4451
868.233	4459
868.364	4455
868.495	4466
868.625	4675
868.756	4793
868.886	4615
869.017	4615
869.147	4771
869.278	4778
869.408	4653
869.539	4656
869.669	4717
869.799	4729
869.929	4706
870.06	4694
870.19	4938
870.32	4927
870.45	4934
870.58	5052
870.71	5109
870.84	5128
870.97	4987
871.1	4915
871.23	5132
871.36	5109
871.489	5022
871.619	5056
871.749	5098
871.879	5102
872.008	5220
872.138	5105
872.267	4968
872.397	4847
872.526	4759
872.656	4714
872.785	4820
872.915	4930
873.044	5037
873.173	4942
873.303	4957
873.432	4942
873.561	4961
873.69	4896
873.819	4873
873.948	4919
874.077	4790
874.206	4755
874.335	4809
874.464	4946
874.593	5075
874.722	4995
874.851	5094
874.979	5048
875.108	5052
875.237	4911
875.365	4900
875.494	4862
875.623	5022
875.751	4820
875.88	4831
876.008	4995
876.136	5064
876.265	5204
876.393	5383
876.521	5231
876.65	5208
876.778	5174
876.906	5094
877.034	5014
877.162	5052
877.29	5037
877.418	5094
877.546	5022
877.674	5079
877.802	5060
877.93	5033
878.058	4965
878.185	4843
878.313	4991
878.441	4968
878.568	4835
878.696	4896
878.824	4972
878.951	5022
879.079	5117
879.206	5326
879.333	5166
879.461	4999
879.588	5018
879.715	5166
879.842	5231
879.97	5006
880.097	4854
880.224	4714
880.351	4831
880.478	4847
880.605	4828
880.732	4812
880.859	5109
880.986	4892
881.112	4885
881.239	4831
881.366	4694
881.493	4618
881.619	4554
881.746	4630
881.872	4660
881.999	4683
882.125	4630
882.252	4812
882.378	4797
882.505	4961
882.631	4786
882.757	4721
882.883	4774
883.01	4755
883.136	4683
883.262	4599
883.388	4618
883.514	4771
883.64	4881
883.766	4778
883.892	4637
884.018	4725
884.143	4934
884.269	4999
884.395	4717
884.52	4702
884.646	4618
884.772	4634
884.897	4584
885.023	4717
885.148	4778
885.274	4858
885.399	4854
885.524	4755
885.65	4653
885.775	4710
885.9	4721
886.025	4919
886.15	4786
886.275	4786
886.4	4649
886.525	4702
886.65	4759
886.775	4683
886.9	4919
887.025	5041
887.149	4809
887.274	4660
887.399	4615
887.523	4584
887.648	4577
887.773	4558
887.897	4744
888.021	4752
888.146	4668
888.27	4866
888.395	4908
888.519	4755
888.643	4828
888.767	4824
888.891	4702
889.015	4607
889.139	4664
889.263	4630
889.387	4797
889.511	4919
889.635	4866
889.759	4622
889.883	4649
890.006	4740
890.13	4831
890.254	4618
890.377	4660
890.501	4550
890.624	4580
890.748	4630
890.871	4512
890.995	4440
891.118	4390
891.241	4474
891.364	4580
891.488	4660
891.611	4489
891.734	4554
891.857	4554
891.98	4538
892.103	4668
892.226	4626
892.349	4538
892.471	4386
892.594	4569
892.717	4603
892.839	4569
892.962	4580
893.085	4660
893.207	4599
893.33	4462
893.452	4550
893.575	4675
893.697	4577
893.819	4858
893.941	4824
894.064	4778
894.186	4592
894.308	4630
894.43	4748
894.552	4778
894.674	4725
894.796	4546
894.918	4580
895.04	4550
895.161	4706
895.283	4672
895.405	4516
895.526	4656
895.648	4698
895.769	4698
895.891	4729
896.012	4725
896.134	4733
896.255	4679
896.376	4660
896.498	4615
896.619	4664
896.74	4637
896.861	4622
896.982	4900
897.103	5098
897.224	4835
897.345	4774
897.466	4694
897.587	4748
897.708	4873
897.828	4793
897.949	4729
898.07	4546
898.19	4641
898.311	4793
898.431	4702
898.552	4691
898.672	4797
898.792	4843
898.913	4698
899.033	4622
899.153	4504
899.273	4447
899.393	4493
899.513	4512
899.633	4558
899.753	4542
899.873	4516
899.993	4596
900.113	4535
900.232	4603
900.352	4519
900.472	4527
900.591	4417
900.711	4462
900.83	4424
900.95	4664
901.069	4656
901.189	4546
901.308	4371
901.427	4287
901.546	4337
901.665	4508
901.784	4550
901.904	4432
902.023	4318
902.141	4185
902.26	4181
902.379	4303
902.498	4192
902.617	4234
902.735	4371
902.854	4428
902.973	4356
903.091	4257
903.21	4268
903.328	4272
903.446	4253
903.565	4284
903.683	4379
903.801	4272
903.919	4405
904.038	4417
904.156	4314
904.274	4436
904.392	4390
904.51	4428
904.627	4405
904.745	4550
904.863	4615
904.981	4398
905.098	4295
905.216	4371
905.334	4413
905.451	4462
905.569	4466
905.686	4542
905.803	4565
905.921	4470
906.038	4554
906.155	4470
906.272	4417
906.389	4504
906.506	4314
906.623	4360
906.74	4413
906.857	4314
906.974	4363
907.091	4592
907.208	4672
907.324	4573
907.441	4497
907.557	4344
907.674	4333
907.79	4318
907.907	4409
908.023	4497
908.139	4485
908.256	4432
908.372	4421
908.488	4428
908.604	4337
908.72	4303
908.836	4367
908.952	4379
909.068	4451
909.184	4527
909.3	4474
909.415	4607
909.531	4516
909.647	4363
909.762	4379
909.878	4371
909.993	4459
910.108	4421
910.224	4432
910.339	4523
910.454	4413
910.57	4333
910.685	4325
910.8	4672
910.915	4611
911.03	4481
911.145	4360
911.259	4337
911.374	4360
911.489	4303
911.604	4215
911.718	4215
911.833	4200
911.947	4051
912.062	4078
912.176	4200
912.291	4238
912.405	4234
912.519	4462
912.633	4500
912.748	4360
912.862	4299
912.976	4223
913.09	4093
913.204	4188
913.318	4272
913.431	4375
913.545	4386
913.659	4428
913.772	4341
913.886	4204
914	4265
914.113	4375
914.226	4462
914.34	4360
914.453	4249
914.566	4417
914.68	4310
914.793	4325
914.906	4158
915.019	4093
915.132	4067
915.245	4200
915.358	4215
915.47	4227
915.583	4284
915.696	4303
915.809	4405
915.921	4443
916.034	4299
916.146	4249
916.259	4249
916.371	4325
916.483	4402
916.595	4253
916.708	4306
916.82	4314
916.932	4329
917.044	4329
917.156	4329
917.268	4238
917.38	4337
917.491	4272
917.603	4341
917.715	4436
917.826	4470
917.938	4344
918.049	4207
918.161	4424
918.272	4527
918.384	4565
918.495	4478
918.606	4322
918.717	4242
918.828	4325
918.939	4375
919.05	4257
919.161	4295
919.272	4128
919.383	4257
919.494	4489
919.604	4611
919.715	4447
919.826	4337
919.936	4390
920.047	4493
920.157	4493
920.267	4740
920.378	4554
920.488	4497
920.598	4725
920.708	4923
920.818	4763
920.928	4763
921.038	4942
921.148	4942
921.258	4626
921.368	4569
921.477	4497
921.587	4459
921.697	4386
921.806	4561
921.916	4432
922.025	4287
922.134	4325
922.244	4223
922.353	4325
922.462	4188
922.571	4162
922.68	4017
922.789	4002
922.898	4036
923.007	4017
923.116	4078
923.224	4067
923.333	4086
923.442	4017
923.55	3994
923.659	4048
923.767	4093
923.876	3945
923.984	4109
924.092	4021
924.201	4055
924.309	4147
924.417	4116
924.525	4044
924.633	4086
924.741	5037
924.849	3899
924.956	4128
925.064	3949
925.172	3926
925.279	3903
925.387	4086
925.494	4078
925.602	4185
925.709	4158
925.816	4051
925.924	4169
926.031	4246
926.138	4150
926.245	4223
926.352	4063
926.459	4230
926.566	4265
926.673	4135
926.779	4120
926.886	4071
926.993	4006
927.099	3983
927.206	3911
927.312	3960
927.419	4048
927.525	3998
927.631	4082
927.737	3960
927.843	3987
927.95	3808
928.056	3930
928.162	3964
928.267	4055
928.373	4694
928.479	4124
928.585	3838
928.69	3987
928.796	4074
928.901	3949
929.007	3850
929.112	4013
929.218	3983
929.323	3956
929.428	3926
929.533	4124
929.638	3918
929.743	3960
929.848	3972
929.953	4051
930.058	3880
930.163	3789
930.267	3854
930.372	3964
930.477	3804
930.581	4067
930.685	3888
930.79	3808
930.894	3873
930.998	3854
931.103	4036
931.207	3724
931.311	3667
931.415	3690
931.519	3488
931.623	3561
