Data from test_V78500241_2380.txt Node
Date: Fri Mar 25 17:05:33 CST 2022
User: usil
Spectrometer: V785-0024
Trigger mode: 0
Integration Time (sec): 4.000000E-1
Scans to average: 1
Nonlinearity correction enabled: false
Boxcar width: 0
Storing dark spectrum: false
XAxis mode: Wavelengths
Number of Pixels in Spectrum: 1024
>>>>>Begin Spectral Data<<<<<
801.071	8065
801.214	7970
801.356	7814
801.499	7852
801.641	7826
801.783	7818
801.926	7970
802.068	7925
802.211	7947
802.353	8077
802.496	7898
802.638	7856
802.78	7944
802.923	7959
803.065	7799
803.208	7852
803.35	8001
803.492	8062
803.635	8138
803.777	8039
803.919	8138
804.061	8480
804.204	8195
804.346	8050
804.488	8016
804.63	8138
804.773	7982
804.915	8103
805.057	8381
805.199	8180
805.341	8180
805.483	8305
805.626	8195
805.768	8149
805.91	8187
806.052	8206
806.194	8130
806.336	8305
806.478	8130
806.62	8100
806.762	8176
806.904	8324
807.046	8465
807.188	8396
807.33	8282
807.472	8290
807.614	8176
807.756	8183
807.898	8050
808.04	7906
808.182	7947
808.324	7917
808.465	7955
808.607	8027
808.749	8142
808.891	8320
809.033	8313
809.174	8187
809.316	8111
809.458	8145
809.6	8084
809.741	8107
809.883	8100
810.025	8195
810.166	8088
810.308	8065
810.45	8065
810.591	7894
810.733	7826
810.875	7788
811.016	7609
811.158	7521
811.299	7636
811.441	7822
811.582	7685
811.724	7647
811.865	7597
812.007	7677
812.148	7643
812.29	7685
812.431	7772
812.573	7852
812.714	8062
812.855	8199
812.997	8309
813.138	8374
813.279	8199
813.421	8138
813.562	8058
813.703	7883
813.845	7792
813.986	7495
814.127	7305
814.268	7225
814.41	7240
814.551	7206
814.692	7278
814.833	7118
814.974	7065
815.115	7168
815.256	6962
815.397	6977
815.539	6996
815.68	6890
815.821	6890
815.962	6939
816.103	6856
816.244	6722
816.385	6646
816.526	6692
816.666	6559
816.807	6353
816.948	6460
817.089	6433
817.23	6471
817.371	6464
817.512	6460
817.653	6471
817.793	6410
817.934	6483
818.075	6502
818.216	6486
818.356	6456
818.497	6327
818.638	6220
818.778	6171
818.919	6220
819.06	6220
819.2	6388
819.341	6372
819.481	6437
819.622	6559
819.762	6798
819.903	6757
820.043	6681
820.184	6551
820.324	6688
820.465	6776
820.605	6726
820.746	6741
820.886	6627
821.026	6700
821.167	6768
821.307	6821
821.447	6833
821.588	6749
821.728	6585
821.868	6536
822.008	6353
822.149	6418
822.289	6418
822.429	6186
822.569	6190
822.709	6159
822.849	5950
822.99	5897
823.13	5973
823.27	5912
823.41	5885
823.55	5786
823.69	5752
823.83	5798
823.97	5722
824.11	5589
824.25	5520
824.389	5570
824.529	5619
824.669	5581
824.809	5623
824.949	5714
825.089	5608
825.228	5619
825.368	5421
825.508	5337
825.648	5387
825.787	5429
825.927	5414
826.067	5288
826.206	5307
826.346	5398
826.485	5353
826.625	5429
826.765	5623
826.904	5459
827.044	5284
827.183	5261
827.323	5223
827.462	5288
827.601	5204
827.741	5204
827.88	5246
828.02	5113
828.159	5280
828.298	5360
828.437	5353
828.577	5303
828.716	5539
828.855	5368
828.994	5212
829.134	5185
829.273	5201
829.412	5136
829.551	5151
829.69	5212
829.829	5277
829.968	5402
830.107	5277
830.246	5284
830.385	5220
830.524	5197
830.663	5102
830.802	5010
830.941	4923
831.08	4892
831.219	5022
831.357	4984
831.496	5231
831.635	4919
831.774	4835
831.913	4885
832.051	4752
832.19	4805
832.329	4896
832.467	4691
832.606	4656
832.744	4786
832.883	4736
833.022	4763
833.16	4835
833.299	4896
833.437	4873
833.576	4919
833.714	4870
833.852	4934
833.991	4870
834.129	4938
834.267	4949
834.406	4930
834.544	4961
834.682	4995
834.821	5003
834.959	5197
835.097	5037
835.235	5185
835.373	5090
835.511	5140
835.65	5086
835.788	5029
835.926	4927
836.064	4900
836.202	4953
836.34	5246
836.478	5265
836.615	5159
836.753	5208
836.891	5277
837.029	5277
837.167	5197
837.305	5181
837.443	5121
837.58	5151
837.718	5292
837.856	5162
837.993	5216
838.131	5265
838.269	5208
838.406	5204
838.544	5193
838.681	5064
838.819	5033
838.956	4904
839.094	4889
839.231	5037
839.369	5121
839.506	5471
839.643	5258
839.781	5102
839.918	5067
840.055	5147
840.193	5147
840.33	5117
840.467	5208
840.604	5181
840.742	5383
840.879	5124
841.016	5098
841.153	5124
841.29	5444
841.427	5353
841.564	5398
841.701	5387
841.838	5265
841.975	5273
842.112	5330
842.249	5124
842.385	5128
842.522	5364
842.659	5204
842.796	5162
842.933	5216
843.069	5159
843.206	5162
843.343	5410
843.479	5227
843.616	5288
843.752	5098
843.889	5064
844.025	5254
844.162	5064
844.298	5220
844.435	5045
844.571	5105
844.708	5258
844.844	5326
844.98	5311
845.117	5265
845.253	5132
845.389	5075
845.525	5174
845.661	5193
845.798	5045
845.934	5159
846.07	5075
846.206	5231
846.342	5258
846.478	5159
846.614	5060
846.75	4957
846.886	4923
847.022	5071
847.158	5060
847.294	5067
847.429	5124
847.565	5083
847.701	5357
847.837	4889
847.972	4870
848.108	4991
848.244	4915
848.379	4793
848.515	4790
848.65	4771
848.786	4733
848.921	4801
849.057	4843
849.192	4900
849.328	4847
849.463	4793
849.598	4828
849.734	4778
849.869	4679
850.004	4622
850.14	4694
850.275	4599
850.41	4569
850.545	4641
850.68	4603
850.815	4679
850.95	4641
851.085	4843
851.22	4736
851.355	4626
851.49	4622
851.625	4603
851.76	4637
851.895	4611
852.03	4580
852.165	4660
852.299	4736
852.434	4763
852.569	4744
852.703	4809
852.838	4881
852.973	4915
853.107	4908
853.242	4710
853.376	4664
853.511	4607
853.645	4637
853.78	4828
853.914	4733
854.048	4706
854.183	4615
854.317	4748
854.451	4858
854.585	4702
854.72	4649
854.854	4755
854.988	4660
855.122	4683
855.256	4527
855.39	4664
855.524	4812
855.658	4736
855.792	4736
855.926	4786
856.06	4774
856.194	4828
856.327	4698
856.461	4653
856.595	4645
856.729	4645
856.862	4809
856.996	4721
857.13	4706
857.263	4729
857.397	4816
857.53	4653
857.664	4729
857.797	4755
857.931	4759
858.064	4725
858.197	4763
858.331	4664
858.464	4634
858.597	4546
858.731	4626
858.864	4656
858.997	4626
859.13	4645
859.263	4637
859.396	4668
859.529	4561
859.662	4592
859.795	4550
859.928	4603
860.061	4755
860.194	4790
860.327	4577
860.46	4611
860.592	4748
860.725	4733
860.858	4706
860.99	4584
861.123	4550
861.256	4489
861.388	4637
861.521	5311
861.653	4508
861.786	4443
861.918	4493
862.05	4512
862.183	4584
862.315	4622
862.447	4656
862.58	4538
862.712	4451
862.844	4394
862.976	4481
863.108	4485
863.24	4752
863.372	4367
863.504	4398
863.636	4432
863.768	4519
863.9	4440
864.032	4394
864.164	4451
864.296	4466
864.428	4569
864.559	4580
864.691	4622
864.823	4519
864.954	4569
865.086	4508
865.217	4485
865.349	4421
865.48	4485
865.612	4493
865.743	4660
865.875	4489
866.006	4443
866.137	4485
866.269	4455
866.4	4432
866.531	4459
866.662	4413
866.793	4447
866.924	4436
867.055	4489
867.186	4489
867.317	4447
867.448	4367
867.579	4436
867.71	4402
867.841	4360
867.972	4497
868.103	4474
868.233	4489
868.364	4455
868.495	4558
868.625	4679
868.756	4729
868.886	4592
869.017	4622
869.147	4774
869.278	4790
869.408	4656
869.539	4649
869.669	4721
869.799	4668
869.929	4809
870.06	4763
870.19	4995
870.32	4953
870.45	5003
870.58	5029
870.71	5140
870.84	5128
870.97	4961
871.1	4927
871.23	5113
871.36	5143
871.489	5048
871.619	5132
871.749	5060
871.879	5162
872.008	5181
872.138	5071
872.267	5033
872.397	4847
872.526	4816
872.656	4797
872.785	4870
872.915	4938
873.044	5060
873.173	4942
873.303	4991
873.432	4965
873.561	4927
873.69	4820
873.819	4900
873.948	4911
874.077	4843
874.206	4790
874.335	4862
874.464	4915
874.593	5056
874.722	4953
874.851	5109
874.979	5121
875.108	5052
875.237	4976
875.365	4877
875.494	4927
875.623	4953
875.751	4850
875.88	4938
876.008	5018
876.136	5067
876.265	5201
876.393	5311
876.521	5254
876.65	5288
876.778	5174
876.906	5086
877.034	5006
877.162	5022
877.29	5006
877.418	5056
877.546	5067
877.674	5075
877.802	5006
877.93	5060
878.058	4953
878.185	4896
878.313	4938
878.441	4968
878.568	4809
878.696	4919
878.824	4968
878.951	5010
879.079	5124
879.206	5334
879.333	5071
879.461	5022
879.588	5003
879.715	5159
879.842	5246
879.97	4961
880.097	4771
880.224	4752
880.351	4812
880.478	4862
880.605	4805
880.732	4831
880.859	5090
880.986	4885
881.112	4904
881.239	4824
881.366	4748
881.493	4569
881.619	4558
881.746	4607
881.872	4653
881.999	4630
882.125	4675
882.252	4812
882.378	4790
882.505	4927
882.631	4786
882.757	4630
882.883	4706
883.01	4755
883.136	4679
883.262	4641
883.388	4607
883.514	4809
883.64	4896
883.766	4755
883.892	4683
884.018	4786
884.143	4908
884.269	5022
884.395	4683
884.52	4694
884.646	4664
884.772	4569
884.897	4569
885.023	4653
885.148	4801
885.274	4862
885.399	4835
885.524	4702
885.65	4698
885.775	4752
885.9	4694
886.025	4850
886.15	4805
886.275	4710
886.4	4634
886.525	4714
886.65	4687
886.775	4725
886.9	4892
887.025	5014
887.149	4805
887.274	4668
887.399	4584
887.523	4618
887.648	4542
887.773	4558
887.897	4752
888.021	4774
888.146	4698
888.27	4790
888.395	4904
888.519	4858
888.643	4797
888.767	4835
888.891	4702
889.015	4603
889.139	4649
889.263	4603
889.387	4771
889.511	4858
889.635	4828
889.759	4656
889.883	4626
890.006	4744
890.13	4812
890.254	4637
890.377	4694
890.501	4527
890.624	4519
890.748	4607
890.871	4493
890.995	4443
891.118	4405
891.241	4550
891.364	4592
891.488	4630
891.611	4470
891.734	4580
891.857	4645
891.98	4561
892.103	4683
892.226	4569
892.349	4550
892.471	4417
892.594	4554
892.717	4573
892.839	4573
892.962	4603
893.085	4664
893.207	4618
893.33	4447
893.452	4504
893.575	4668
893.697	4558
893.819	4809
893.941	4854
894.064	4755
894.186	4546
894.308	4561
894.43	4744
894.552	4809
894.674	4752
894.796	4535
894.918	4607
895.04	4584
895.161	4702
895.283	4603
895.405	4538
895.526	4565
895.648	4698
895.769	4679
895.891	4759
896.012	4778
896.134	4744
896.255	4698
896.376	4675
896.498	4626
896.619	4656
896.74	4615
896.861	4656
896.982	4911
897.103	5094
897.224	4862
897.345	4790
897.466	4672
897.587	4759
897.708	4835
897.828	4805
897.949	4626
898.07	4535
898.19	4622
898.311	4847
898.431	4694
898.552	4725
898.672	4843
898.792	4793
898.913	4733
899.033	4599
899.153	4481
899.273	4402
899.393	4481
899.513	4497
899.633	4531
899.753	4500
899.873	4512
899.993	4618
900.113	4527
900.232	4603
900.352	4523
900.472	4462
900.591	4413
900.711	4455
900.83	4443
900.95	4618
901.069	4721
901.189	4573
901.308	4329
901.427	4268
901.546	4394
901.665	4455
901.784	4489
901.904	4383
902.023	4383
902.141	4207
902.26	4177
902.379	4348
902.498	4249
902.617	4253
902.735	4417
902.854	4424
902.973	4371
903.091	4238
903.21	4204
903.328	4310
903.446	4265
903.565	4234
903.683	4322
903.801	4306
903.919	4379
904.038	4474
904.156	4360
904.274	4485
904.392	4363
904.51	4455
904.627	4497
904.745	4561
904.863	4668
904.981	4371
905.098	4318
905.216	4379
905.334	4462
905.451	4424
905.569	4386
905.686	4535
905.803	4546
905.921	4409
906.038	4527
906.155	4459
906.272	4402
906.389	4440
906.506	4344
906.623	4409
906.74	4409
906.857	4303
906.974	4375
907.091	4527
907.208	4733
907.324	4588
907.441	4489
907.557	4306
907.674	4325
907.79	4325
907.907	4417
908.023	4504
908.139	4470
908.256	4443
908.372	4443
908.488	4466
908.604	4303
908.72	4371
908.836	4367
908.952	4367
909.068	4436
909.184	4538
909.3	4478
909.415	4637
909.531	4565
909.647	4306
909.762	4318
909.878	4344
909.993	4466
910.108	4424
910.224	4402
910.339	4485
910.454	4386
910.57	4360
910.685	4318
910.8	4634
910.915	4550
911.03	4481
911.145	4318
911.259	4287
911.374	4394
911.489	4310
911.604	4242
911.718	4112
911.833	4207
911.947	4135
912.062	4021
912.176	4207
912.291	4246
912.405	4265
912.519	4478
912.633	4497
912.748	4363
912.862	4268
912.976	4196
913.09	4116
913.204	4177
913.318	4265
913.431	4348
913.545	4409
913.659	4421
913.772	4386
913.886	4230
914	4261
914.113	4413
914.226	4459
914.34	4409
914.453	4230
914.566	4455
914.68	4344
914.793	4325
914.906	4150
915.019	4139
915.132	4055
915.245	4204
915.358	4272
915.47	4249
915.583	4295
915.696	4306
915.809	4390
915.921	4436
916.034	4246
916.146	4227
916.259	4227
916.371	4383
916.483	4356
916.595	4303
916.708	4329
916.82	4325
916.932	4295
917.044	4344
917.156	4318
917.268	4265
917.38	4253
917.491	4325
917.603	4333
917.715	4371
917.826	4436
917.938	4333
918.049	4223
918.161	4352
918.272	4550
918.384	4531
918.495	4451
918.606	4322
918.717	4169
918.828	4325
918.939	4375
919.05	4272
919.161	4299
919.272	4112
919.383	4272
919.494	4413
919.604	4618
919.715	4413
919.826	4329
919.936	4405
920.047	4497
920.157	4455
920.267	4698
920.378	4535
920.488	4523
920.598	4725
920.708	4911
920.818	4763
920.928	4717
921.038	4949
921.148	4881
921.258	4641
921.368	4573
921.477	4527
921.587	4462
921.697	4363
921.806	4500
921.916	4451
922.025	4291
922.134	4268
922.244	4177
922.353	4348
922.462	4166
922.571	4139
922.68	4010
922.789	3975
922.898	3998
923.007	3972
923.116	4082
923.224	4067
923.333	4044
923.442	4006
923.55	3960
923.659	4040
923.767	4150
923.876	3968
923.984	4071
924.092	3964
924.201	4086
924.309	4101
924.417	4162
924.525	4063
924.633	4097
924.741	5075
924.849	3888
924.956	4131
925.064	3979
925.172	3926
925.279	3975
925.387	4055
925.494	4063
925.602	4207
925.709	4173
925.816	4040
925.924	4128
926.031	4219
926.138	4150
926.245	4215
926.352	4071
926.459	4223
926.566	4325
926.673	4192
926.779	4063
926.886	4067
926.993	3983
927.099	3945
927.206	3956
927.312	3911
927.419	4032
927.525	4048
927.631	4036
927.737	3991
927.843	3945
927.95	3857
928.056	3960
928.162	3968
928.267	4067
928.373	4672
928.479	4143
928.585	3876
928.69	4032
928.796	4071
928.901	3987
929.007	3854
929.112	4006
929.218	3964
929.323	3968
929.428	3915
929.533	4090
929.638	3876
929.743	3968
929.848	4044
929.953	3945
930.058	3941
930.163	3808
930.267	3785
930.372	3964
930.477	3835
930.581	4093
930.685	3949
930.79	3831
930.894	3861
930.998	3861
931.103	4002
931.207	3743
931.311	3709
931.415	3679
931.519	3515
931.623	3576
