Data from test_V78500241_1879.txt Node
Date: Fri Mar 25 17:02:03 CST 2022
User: usil
Spectrometer: V785-0024
Trigger mode: 0
Integration Time (sec): 4.000000E-1
Scans to average: 1
Nonlinearity correction enabled: false
Boxcar width: 0
Storing dark spectrum: false
XAxis mode: Wavelengths
Number of Pixels in Spectrum: 1024
>>>>>Begin Spectral Data<<<<<
801.071	8001
801.214	7890
801.356	7883
801.499	7811
801.641	7750
801.783	7826
801.926	7925
802.068	7955
802.211	8001
802.353	8035
802.496	7913
802.638	7887
802.78	7932
802.923	7936
803.065	7890
803.208	7868
803.35	7970
803.492	8100
803.635	8157
803.777	8001
803.919	8180
804.061	8427
804.204	8191
804.346	8043
804.488	7967
804.63	8050
804.773	8062
804.915	8134
805.057	8298
805.199	8218
805.341	8259
805.483	8267
805.626	8237
805.768	8142
805.91	8210
806.052	8290
806.194	8164
806.336	8271
806.478	8126
806.62	8050
806.762	8172
806.904	8328
807.046	8526
807.188	8434
807.33	8358
807.472	8389
807.614	8145
807.756	8157
807.898	8054
808.04	7928
808.182	7913
808.324	7868
808.465	7925
808.607	8058
808.749	8130
808.891	8290
809.033	8339
809.174	8210
809.316	8138
809.458	8161
809.6	8100
809.741	8123
809.883	8035
810.025	8069
810.166	8111
810.308	8168
810.45	8050
810.591	7849
810.733	7799
810.875	7727
811.016	7594
811.158	7533
811.299	7533
811.441	7723
811.582	7689
811.724	7662
811.865	7616
812.007	7620
812.148	7601
812.29	7628
812.431	7792
812.573	7898
812.714	8031
812.855	8153
812.997	8256
813.138	8396
813.279	8164
813.421	8142
813.562	7993
813.703	7822
813.845	7772
813.986	7460
814.127	7312
814.268	7164
814.41	7240
814.551	7206
814.692	7244
814.833	7110
814.974	7149
815.115	7137
815.256	6973
815.397	6954
815.539	6973
815.68	6844
815.821	6707
815.962	6856
816.103	6867
816.244	6741
816.385	6673
816.526	6574
816.666	6551
816.807	6369
816.948	6448
817.089	6494
817.23	6464
817.371	6376
817.512	6376
817.653	6452
817.793	6372
817.934	6422
818.075	6494
818.216	6426
818.356	6464
818.497	6270
818.638	6194
818.778	6136
818.919	6171
819.06	6167
819.2	6369
819.341	6338
819.481	6429
819.622	6566
819.762	6821
819.903	6760
820.043	6673
820.184	6563
820.324	6593
820.465	6711
820.605	6776
820.746	6650
820.886	6578
821.026	6700
821.167	6814
821.307	6821
821.447	6844
821.588	6688
821.728	6578
821.868	6544
822.008	6300
822.149	6414
822.289	6327
822.429	6201
822.569	6091
822.709	6117
822.849	5969
822.99	5946
823.13	5965
823.27	5916
823.41	5752
823.55	5855
823.69	5775
823.83	5779
823.97	5691
824.11	5581
824.25	5547
824.389	5524
824.529	5604
824.669	5505
824.809	5646
824.949	5688
825.089	5638
825.228	5573
825.368	5414
825.508	5326
825.648	5360
825.787	5379
825.927	5379
826.067	5372
826.206	5273
826.346	5429
826.485	5429
826.625	5406
826.765	5589
826.904	5482
827.044	5288
827.183	5216
827.323	5181
827.462	5227
827.601	5193
827.741	5246
827.88	5296
828.02	5185
828.159	5250
828.298	5315
828.437	5337
828.577	5330
828.716	5497
828.855	5364
828.994	5193
829.134	5159
829.273	5231
829.412	5121
829.551	5159
829.69	5132
829.829	5235
829.968	5383
830.107	5292
830.246	5288
830.385	5204
830.524	5170
830.663	5079
830.802	5048
830.941	4850
831.08	4904
831.219	5060
831.357	4995
831.496	5162
831.635	4953
831.774	4870
831.913	4831
832.051	4710
832.19	4793
832.329	4870
832.467	4725
832.606	4656
832.744	4790
832.883	4721
833.022	4759
833.16	4801
833.299	4896
833.437	4850
833.576	4908
833.714	4866
833.852	4915
833.991	4930
834.129	4991
834.267	4984
834.406	4900
834.544	4987
834.682	4984
834.821	4987
834.959	5201
835.097	4980
835.235	5121
835.373	5079
835.511	5151
835.65	5033
835.788	5064
835.926	4942
836.064	4942
836.202	4980
836.34	5147
836.478	5227
836.615	5105
836.753	5227
836.891	5303
837.029	5250
837.167	5204
837.305	5174
837.443	5143
837.58	5132
837.718	5273
837.856	5174
837.993	5166
838.131	5284
838.269	5212
838.406	5242
838.544	5208
838.681	5098
838.819	5014
838.956	4942
839.094	4934
839.231	4987
839.369	5083
839.506	5436
839.643	5261
839.781	5079
839.918	5037
840.055	5094
840.193	5075
840.33	5109
840.467	5140
840.604	5204
840.742	5425
840.879	5147
841.016	5143
841.153	5231
841.29	5379
841.427	5357
841.564	5345
841.701	5372
841.838	5242
841.975	5265
842.112	5296
842.249	5140
842.385	5143
842.522	5364
842.659	5170
842.796	5143
842.933	5181
843.069	5208
843.206	5143
843.343	5296
843.479	5208
843.616	5250
843.752	5041
843.889	5041
844.025	5231
844.162	5025
844.298	5246
844.435	5098
844.571	5098
844.708	5208
844.844	5303
844.98	5337
845.117	5299
845.253	5151
845.389	5079
845.525	5185
845.661	5208
845.798	5037
845.934	5162
846.07	5064
846.206	5208
846.342	5280
846.478	5197
846.614	5022
846.75	4999
846.886	4946
847.022	5128
847.158	5094
847.294	5105
847.429	5128
847.565	5075
847.701	5368
847.837	4892
847.972	4858
848.108	4984
848.244	5022
848.379	4778
848.515	4755
848.65	4679
848.786	4759
848.921	4805
849.057	4862
849.192	4881
849.328	4809
849.463	4892
849.598	4835
849.734	4801
849.869	4687
850.004	4675
850.14	4687
850.275	4611
850.41	4561
850.545	4577
850.68	4611
850.815	4618
850.95	4660
851.085	4767
851.22	4774
851.355	4714
851.49	4588
851.625	4618
851.76	4702
851.895	4607
852.03	4538
852.165	4672
852.299	4702
852.434	4793
852.569	4664
852.703	4786
852.838	4847
852.973	4908
853.107	4938
853.242	4744
853.376	4683
853.511	4577
853.645	4592
853.78	4816
853.914	4740
854.048	4710
854.183	4664
854.317	4706
854.451	4816
854.585	4691
854.72	4588
854.854	4763
854.988	4645
855.122	4698
855.256	4546
855.39	4698
855.524	4759
855.658	4763
855.792	4733
855.926	4733
856.06	4801
856.194	4835
856.327	4736
856.461	4653
856.595	4622
856.729	4687
856.862	4797
856.996	4702
857.13	4672
857.263	4786
857.397	4797
857.53	4653
857.664	4706
857.797	4771
857.931	4755
858.064	4672
858.197	4767
858.331	4656
858.464	4626
858.597	4519
858.731	4653
858.864	4706
858.997	4634
859.13	4683
859.263	4702
859.396	4714
859.529	4626
859.662	4573
859.795	4538
859.928	4615
860.061	4774
860.194	4790
860.327	4634
860.46	4603
860.592	4729
860.725	4729
860.858	4706
860.99	4554
861.123	4546
861.256	4558
861.388	4634
861.521	5376
861.653	4497
861.786	4485
861.918	4470
862.05	4546
862.183	4554
862.315	4611
862.447	4630
862.58	4542
862.712	4428
862.844	4379
862.976	4478
863.108	4436
863.24	4942
863.372	4333
863.504	4398
863.636	4409
863.768	4474
863.9	4451
864.032	4348
864.164	4402
864.296	4489
864.428	4523
864.559	4550
864.691	4542
864.823	4531
864.954	4489
865.086	4550
865.217	4462
865.349	4447
865.48	4455
865.612	4527
865.743	4626
865.875	4485
866.006	4470
866.137	4474
866.269	4447
866.4	4440
866.531	4383
866.662	4432
866.793	4413
866.924	4455
867.055	4542
867.186	4489
867.317	4424
867.448	4405
867.579	4421
867.71	4417
867.841	4432
867.972	4443
868.103	4489
868.233	4474
868.364	4443
868.495	4531
868.625	4668
868.756	4744
868.886	4569
869.017	4607
869.147	4812
869.278	4782
869.408	4736
869.539	4603
869.669	4740
869.799	4649
869.929	4759
870.06	4763
870.19	4961
870.32	4961
870.45	5006
870.58	5025
870.71	5113
870.84	5105
870.97	4946
871.1	4938
871.23	5132
871.36	5140
871.489	5060
871.619	5098
871.749	5086
871.879	5136
872.008	5197
872.138	5029
872.267	5014
872.397	4835
872.526	4809
872.656	4755
872.785	4820
872.915	4987
873.044	5010
873.173	4915
873.303	5018
873.432	4961
873.561	4987
873.69	4900
873.819	4911
873.948	4873
874.077	4835
874.206	4759
874.335	4850
874.464	4930
874.593	5075
874.722	4980
874.851	5105
874.979	5048
875.108	5014
875.237	4896
875.365	4885
875.494	4850
875.623	4984
875.751	4820
875.88	4839
876.008	4984
876.136	4980
876.265	5181
876.393	5337
876.521	5284
876.65	5223
876.778	5147
876.906	5056
877.034	5006
877.162	5033
877.29	5029
877.418	5071
877.546	5029
877.674	5014
877.802	5025
877.93	5018
878.058	4949
878.185	4870
878.313	4904
878.441	4942
878.568	4812
878.696	4839
878.824	4942
878.951	4991
879.079	5151
879.206	5296
879.333	5136
879.461	4987
879.588	5022
879.715	5128
879.842	5197
879.97	5022
880.097	4816
880.224	4774
880.351	4771
880.478	4866
880.605	4786
880.732	4755
880.859	5113
880.986	4927
881.112	4881
881.239	4786
881.366	4645
881.493	4592
881.619	4603
881.746	4588
881.872	4679
881.999	4630
882.125	4717
882.252	4797
882.378	4786
882.505	4968
882.631	4801
882.757	4679
882.883	4729
883.01	4694
883.136	4656
883.262	4584
883.388	4592
883.514	4790
883.64	4858
883.766	4771
883.892	4679
884.018	4706
884.143	4961
884.269	4991
884.395	4698
884.52	4607
884.646	4672
884.772	4611
884.897	4512
885.023	4672
885.148	4759
885.274	4870
885.399	4835
885.524	4702
885.65	4675
885.775	4759
885.9	4694
886.025	4850
886.15	4805
886.275	4691
886.4	4653
886.525	4736
886.65	4679
886.775	4691
886.9	4839
887.025	5048
887.149	4835
887.274	4660
887.399	4569
887.523	4569
887.648	4630
887.773	4580
887.897	4755
888.021	4748
888.146	4702
888.27	4816
888.395	4934
888.519	4820
888.643	4801
888.767	4809
888.891	4679
889.015	4607
889.139	4691
889.263	4592
889.387	4748
889.511	4847
889.635	4786
889.759	4630
889.883	4611
890.006	4752
890.13	4854
890.254	4622
890.377	4683
890.501	4588
890.624	4535
890.748	4641
890.871	4519
890.995	4459
891.118	4402
891.241	4474
891.364	4474
891.488	4622
891.611	4516
891.734	4523
891.857	4615
891.98	4561
892.103	4622
892.226	4592
892.349	4538
892.471	4398
892.594	4538
892.717	4573
892.839	4516
892.962	4554
893.085	4649
893.207	4588
893.33	4455
893.452	4470
893.575	4683
893.697	4626
893.819	4812
893.941	4759
894.064	4740
894.186	4603
894.308	4577
894.43	4687
894.552	4786
894.674	4797
894.796	4531
894.918	4588
895.04	4565
895.161	4672
895.283	4664
895.405	4588
895.526	4634
895.648	4687
895.769	4645
895.891	4706
896.012	4706
896.134	4683
896.255	4653
896.376	4630
896.498	4634
896.619	4653
896.74	4599
896.861	4630
896.982	4900
897.103	5086
897.224	4847
897.345	4763
897.466	4637
897.587	4698
897.708	4854
897.828	4786
897.949	4672
898.07	4554
898.19	4603
898.311	4831
898.431	4664
898.552	4740
898.672	4828
898.792	4782
898.913	4721
899.033	4618
899.153	4512
899.273	4443
899.393	4493
899.513	4523
899.633	4554
899.753	4516
899.873	4584
899.993	4611
900.113	4478
900.232	4588
900.352	4512
900.472	4455
900.591	4371
900.711	4493
900.83	4417
900.95	4634
901.069	4683
901.189	4527
901.308	4363
901.427	4295
901.546	4394
901.665	4459
901.784	4504
901.904	4405
902.023	4280
902.141	4204
902.26	4200
902.379	4287
902.498	4227
902.617	4246
902.735	4360
902.854	4405
902.973	4348
903.091	4227
903.21	4223
903.328	4287
903.446	4249
903.565	4215
903.683	4325
903.801	4291
903.919	4371
904.038	4432
904.156	4306
904.274	4421
904.392	4375
904.51	4409
904.627	4451
904.745	4573
904.863	4634
904.981	4371
905.098	4280
905.216	4352
905.334	4413
905.451	4451
905.569	4447
905.686	4523
905.803	4588
905.921	4417
906.038	4538
906.155	4459
906.272	4413
906.389	4478
906.506	4341
906.623	4394
906.74	4348
906.857	4318
906.974	4398
907.091	4512
907.208	4668
907.324	4577
907.441	4474
907.557	4352
907.674	4318
907.79	4280
907.907	4432
908.023	4489
908.139	4447
908.256	4421
908.372	4440
908.488	4413
908.604	4356
908.72	4287
908.836	4348
908.952	4386
909.068	4424
909.184	4561
909.3	4432
909.415	4611
909.531	4538
909.647	4375
909.762	4394
909.878	4314
909.993	4436
910.108	4428
910.224	4402
910.339	4451
910.454	4428
910.57	4333
910.685	4322
910.8	4618
910.915	4580
911.03	4462
911.145	4371
911.259	4287
911.374	4398
911.489	4276
911.604	4295
911.718	4166
911.833	4215
911.947	4086
912.062	4036
912.176	4215
912.291	4234
912.405	4242
912.519	4455
912.633	4519
912.748	4352
912.862	4306
912.976	4246
913.09	4135
913.204	4192
913.318	4246
913.431	4310
913.545	4344
913.659	4474
913.772	4344
913.886	4265
914	4196
914.113	4344
914.226	4428
914.34	4379
914.453	4192
914.566	4459
914.68	4268
914.793	4280
914.906	4135
915.019	4082
915.132	4112
915.245	4242
915.358	4215
915.47	4230
915.583	4257
915.696	4276
915.809	4383
915.921	4402
916.034	4211
916.146	4234
916.259	4215
916.371	4371
916.483	4352
916.595	4238
916.708	4314
916.82	4329
916.932	4322
917.044	4306
917.156	4348
917.268	4276
917.38	4246
917.491	4261
917.603	4337
917.715	4421
917.826	4386
917.938	4325
918.049	4219
918.161	4371
918.272	4580
918.384	4561
918.495	4474
918.606	4265
918.717	4276
918.828	4344
918.939	4344
919.05	4215
919.161	4287
919.272	4093
919.383	4230
919.494	4455
919.604	4649
919.715	4417
919.826	4344
919.936	4386
920.047	4523
920.157	4462
920.267	4664
920.378	4550
920.488	4493
920.598	4706
920.708	4934
920.818	4782
920.928	4675
921.038	4927
921.148	4923
921.258	4592
921.368	4527
921.477	4523
921.587	4428
921.697	4367
921.806	4542
921.916	4344
922.025	4242
922.134	4257
922.244	4177
922.353	4303
922.462	4196
922.571	4093
922.68	4063
922.789	3972
922.898	4048
923.007	3964
923.116	4124
923.224	4025
923.333	4086
923.442	3972
923.55	3998
923.659	4036
923.767	4105
923.876	3979
923.984	4120
924.092	4002
924.201	4029
924.309	4055
924.417	4116
924.525	4036
924.633	4093
924.741	5048
924.849	3911
924.956	4154
925.064	3937
925.172	3854
925.279	3953
925.387	4040
925.494	4032
925.602	4173
925.709	4215
925.816	4086
925.924	4124
926.031	4207
926.138	4135
926.245	4211
926.352	4101
926.459	4246
926.566	4337
926.673	4162
926.779	4055
926.886	4017
926.993	3956
927.099	3953
927.206	3964
927.312	3956
927.419	4063
927.525	4002
927.631	4097
927.737	3968
927.843	3926
927.95	3873
928.056	3934
928.162	3972
928.267	4032
928.373	4561
928.479	4154
928.585	3861
928.69	3983
928.796	4086
928.901	3987
929.007	3823
929.112	4051
929.218	3975
929.323	3956
929.428	3934
929.533	4093
929.638	3903
929.743	3953
929.848	4017
929.953	3972
930.058	3918
930.163	3781
930.267	3854
930.372	3930
930.477	3819
930.581	4105
930.685	3934
930.79	3808
930.894	3892
930.998	3865
931.103	4013
931.207	3717
931.311	3694
931.415	3686
931.519	3534
931.623	3576
