Data from test_V78500241_20.txt Node
Date: Fri Mar 25 16:49:08 CST 2022
User: usil
Spectrometer: V785-0024
Trigger mode: 0
Integration Time (sec): 4.000000E-1
Scans to average: 1
Nonlinearity correction enabled: false
Boxcar width: 0
Storing dark spectrum: false
XAxis mode: Wavelengths
Number of Pixels in Spectrum: 1024
>>>>>Begin Spectral Data<<<<<
801.071	8130
801.214	8107
801.356	8016
801.499	7913
801.641	7822
801.783	7913
801.926	7997
802.068	8005
802.211	8035
802.353	8084
802.496	7936
802.638	7951
802.78	7978
802.923	7970
803.065	7879
803.208	7890
803.35	8027
803.492	8164
803.635	8123
803.777	8024
803.919	8149
804.061	8457
804.204	8149
804.346	8123
804.488	7967
804.63	8065
804.773	7989
804.915	8092
805.057	8301
805.199	8221
805.341	8267
805.483	8313
805.626	8298
805.768	8153
805.91	8233
806.052	8252
806.194	8164
806.336	8259
806.478	8103
806.62	8092
806.762	8157
806.904	8252
807.046	8480
807.188	8385
807.33	8210
807.472	8347
807.614	8191
807.756	8153
807.898	8069
808.04	7936
808.182	7909
808.324	7959
808.465	7879
808.607	8062
808.749	8100
808.891	8195
809.033	8237
809.174	8210
809.316	8096
809.458	8027
809.6	7967
809.741	7993
809.883	8020
810.025	8077
810.166	8096
810.308	8069
810.45	8077
810.591	7925
810.733	7841
810.875	7723
811.016	7544
811.158	7518
811.299	7700
811.441	7811
811.582	7776
811.724	7620
811.865	7594
812.007	7696
812.148	7674
812.29	7651
812.431	7814
812.573	7913
812.714	7989
812.855	8062
812.997	8206
813.138	8301
813.279	8244
813.421	8176
813.562	8126
813.703	7883
813.845	7792
813.986	7499
814.127	7362
814.268	7278
814.41	7244
814.551	7251
814.692	7228
814.833	7145
814.974	7118
815.115	7149
815.256	6970
815.397	6939
815.539	6989
815.68	6795
815.821	6863
815.962	6962
816.103	6856
816.244	6776
816.385	6677
816.526	6703
816.666	6513
816.807	6399
816.948	6460
817.089	6532
817.23	6448
817.371	6422
817.512	6426
817.653	6460
817.793	6471
817.934	6471
818.075	6525
818.216	6452
818.356	6445
818.497	6315
818.638	6232
818.778	6152
818.919	6254
819.06	6220
819.2	6369
819.341	6433
819.481	6422
819.622	6620
819.762	6772
819.903	6741
820.043	6585
820.184	6589
820.324	6597
820.465	6749
820.605	6700
820.746	6726
820.886	6528
821.026	6726
821.167	6776
821.307	6837
821.447	6768
821.588	6719
821.728	6601
821.868	6490
822.008	6407
822.149	6395
822.289	6437
822.429	6285
822.569	6125
822.709	6178
822.849	5973
822.99	5969
823.13	5920
823.27	5931
823.41	5836
823.55	5794
823.69	5828
823.83	5813
823.97	5691
824.11	5577
824.25	5505
824.389	5653
824.529	5634
824.669	5581
824.809	5688
824.949	5695
825.089	5661
825.228	5627
825.368	5467
825.508	5391
825.648	5368
825.787	5497
825.927	5417
826.067	5334
826.206	5364
826.346	5474
826.485	5406
826.625	5463
826.765	5592
826.904	5501
827.044	5311
827.183	5223
827.323	5162
827.462	5284
827.601	5204
827.741	5223
827.88	5227
828.02	5147
828.159	5322
828.298	5372
828.437	5379
828.577	5322
828.716	5543
828.855	5364
828.994	5193
829.134	5166
829.273	5201
829.412	5170
829.551	5147
829.69	5212
829.829	5265
829.968	5444
830.107	5284
830.246	5284
830.385	5220
830.524	5239
830.663	5117
830.802	5010
830.941	4915
831.08	4892
831.219	5037
831.357	5022
831.496	5166
831.635	5010
831.774	4908
831.913	4858
832.051	4778
832.19	4733
832.329	4881
832.467	4721
832.606	4733
832.744	4755
832.883	4748
833.022	4767
833.16	4805
833.299	4839
833.437	4866
833.576	4870
833.714	4923
833.852	4934
833.991	4938
834.129	4972
834.267	4957
834.406	4980
834.544	5006
834.682	5056
834.821	5033
834.959	5181
835.097	5033
835.235	5181
835.373	5124
835.511	5132
835.65	5098
835.788	5033
835.926	4930
836.064	4930
836.202	4968
836.34	5216
836.478	5261
836.615	5174
836.753	5223
836.891	5322
837.029	5261
837.167	5288
837.305	5159
837.443	5197
837.58	5121
837.718	5288
837.856	5265
837.993	5201
838.131	5212
838.269	5273
838.406	5235
838.544	5204
838.681	5064
838.819	5056
838.956	4938
839.094	4930
839.231	5064
839.369	5105
839.506	5463
839.643	5364
839.781	5162
839.918	5102
840.055	5121
840.193	5136
840.33	5121
840.467	5193
840.604	5280
840.742	5463
840.879	5128
841.016	5178
841.153	5193
841.29	5391
841.427	5345
841.564	5379
841.701	5387
841.838	5277
841.975	5208
842.112	5292
842.249	5166
842.385	5147
842.522	5417
842.659	5181
842.796	5136
842.933	5231
843.069	5223
843.206	5216
843.343	5280
843.479	5261
843.616	5292
843.752	5071
843.889	5060
844.025	5242
844.162	5060
844.298	5254
844.435	5102
844.571	5094
844.708	5201
844.844	5364
844.98	5383
845.117	5334
845.253	5185
845.389	5121
845.525	5227
845.661	5105
845.798	5045
845.934	5189
846.07	5098
846.206	5258
846.342	5334
846.478	5231
846.614	5064
846.75	5033
846.886	4984
847.022	5178
847.158	5033
847.294	5162
847.429	5121
847.565	5113
847.701	5398
847.837	4908
847.972	4847
848.108	4972
848.244	5006
848.379	4850
848.515	4763
848.65	4763
848.786	4793
848.921	4782
849.057	4885
849.192	4942
849.328	4885
849.463	4896
849.598	4812
849.734	4774
849.869	4717
850.004	4675
850.14	4698
850.275	4615
850.41	4569
850.545	4599
850.68	4641
850.815	4634
850.95	4649
851.085	4873
851.22	4778
851.355	4717
851.49	4714
851.625	4698
851.76	4637
851.895	4580
852.03	4542
852.165	4691
852.299	4740
852.434	4828
852.569	4736
852.703	4801
852.838	4896
852.973	4961
853.107	4946
853.242	4786
853.376	4702
853.511	4611
853.645	4649
853.78	4820
853.914	4740
854.048	4702
854.183	4702
854.317	4717
854.451	4923
854.585	4717
854.72	4664
854.854	4801
854.988	4634
855.122	4702
855.256	4580
855.39	4759
855.524	4850
855.658	4759
855.792	4755
855.926	4786
856.06	4793
856.194	4824
856.327	4748
856.461	4675
856.595	4687
856.729	4664
856.862	4782
856.996	4706
857.13	4736
857.263	4793
857.397	4873
857.53	4714
857.664	4771
857.797	4767
857.931	4820
858.064	4691
858.197	4805
858.331	4706
858.464	4656
858.597	4527
858.731	4660
858.864	4687
858.997	4664
859.13	4656
859.263	4744
859.396	4721
859.529	4592
859.662	4649
859.795	4569
859.928	4679
860.061	4847
860.194	4744
860.327	4637
860.46	4630
860.592	4744
860.725	4778
860.858	4748
860.99	4641
861.123	4546
861.256	4588
861.388	4641
861.521	5448
861.653	4493
861.786	4417
861.918	4489
862.05	4554
862.183	4592
862.315	4634
862.447	4721
862.58	4603
862.712	4417
862.844	4348
862.976	4500
863.108	4500
863.24	4923
863.372	4337
863.504	4443
863.636	4394
863.768	4516
863.9	4474
864.032	4394
864.164	4383
864.296	4558
864.428	4596
864.559	4596
864.691	4584
864.823	4584
864.954	4527
865.086	4550
865.217	4485
865.349	4447
865.48	4523
865.612	4558
865.743	4668
865.875	4478
866.006	4531
866.137	4500
866.269	4504
866.4	4409
866.531	4428
866.662	4432
866.793	4443
866.924	4478
867.055	4546
867.186	4424
867.317	4451
867.448	4398
867.579	4428
867.71	4451
867.841	4451
867.972	4527
868.103	4504
868.233	4508
868.364	4516
868.495	4531
868.625	4702
868.756	4782
868.886	4615
869.017	4615
869.147	4778
869.278	4778
869.408	4740
869.539	4668
869.669	4767
869.799	4683
869.929	4790
870.06	4797
870.19	5045
870.32	5037
870.45	4942
870.58	5018
870.71	5121
870.84	5162
870.97	5033
871.1	4946
871.23	5170
871.36	5189
871.489	5041
871.619	5109
871.749	5185
871.879	5162
872.008	5235
872.138	5067
872.267	5052
872.397	4927
872.526	4774
872.656	4797
872.785	4854
872.915	5010
873.044	5079
873.173	4984
873.303	4991
873.432	5033
873.561	4995
873.69	4915
873.819	4866
873.948	5022
874.077	4877
874.206	4831
874.335	4824
874.464	5003
874.593	5121
874.722	4968
874.851	5185
874.979	5083
875.108	5067
875.237	4965
875.365	4908
875.494	4965
875.623	5056
875.751	4843
875.88	4942
876.008	5033
876.136	5086
876.265	5220
876.393	5398
876.521	5261
876.65	5296
876.778	5181
876.906	5128
877.034	5025
877.162	5090
877.29	5086
877.418	5052
877.546	5064
877.674	5071
877.802	5052
877.93	5022
878.058	4927
878.185	4930
878.313	4942
878.441	4991
878.568	4873
878.696	4896
878.824	4995
878.951	4999
879.079	5136
879.206	5345
879.333	5143
879.461	5056
879.588	5041
879.715	5185
879.842	5261
879.97	5045
880.097	4870
880.224	4778
880.351	4774
880.478	4892
880.605	4854
880.732	4793
880.859	5124
880.986	4919
881.112	4923
881.239	4854
881.366	4744
881.493	4603
881.619	4607
881.746	4668
881.872	4679
881.999	4717
882.125	4687
882.252	4812
882.378	4854
882.505	5018
882.631	4854
882.757	4752
882.883	4725
883.01	4744
883.136	4698
883.262	4592
883.388	4668
883.514	4816
883.64	4850
883.766	4854
883.892	4702
884.018	4755
884.143	4919
884.269	5037
884.395	4721
884.52	4645
884.646	4687
884.772	4634
884.897	4649
885.023	4679
885.148	4820
885.274	4885
885.399	4839
885.524	4755
885.65	4736
885.775	4782
885.9	4717
886.025	4877
886.15	4858
886.275	4767
886.4	4679
886.525	4744
886.65	4778
886.775	4706
886.9	4934
887.025	5113
887.149	4858
887.274	4702
887.399	4615
887.523	4653
887.648	4615
887.773	4660
887.897	4843
888.021	4904
888.146	4710
888.27	4873
888.395	4991
888.519	4889
888.643	4889
888.767	4870
888.891	4748
889.015	4675
889.139	4755
889.263	4694
889.387	4850
889.511	4908
889.635	4824
889.759	4721
889.883	4675
890.006	4778
890.13	4889
890.254	4694
890.377	4778
890.501	4577
890.624	4584
890.748	4736
890.871	4584
890.995	4523
891.118	4493
891.241	4592
891.364	4611
891.488	4744
891.611	4618
891.734	4626
891.857	4653
891.98	4679
892.103	4725
892.226	4698
892.349	4599
892.471	4516
892.594	4653
892.717	4675
892.839	4702
892.962	4691
893.085	4744
893.207	4725
893.33	4474
893.452	4569
893.575	4763
893.697	4687
893.819	4892
893.941	4923
894.064	4854
894.186	4675
894.308	4656
894.43	4854
894.552	4911
894.674	4889
894.796	4634
894.918	4710
895.04	4653
895.161	4816
895.283	4740
895.405	4653
895.526	4721
895.648	4809
895.769	4748
895.891	4797
896.012	4839
896.134	4812
896.255	4771
896.376	4714
896.498	4721
896.619	4748
896.74	4683
896.861	4736
896.982	4965
897.103	5151
897.224	4915
897.345	4790
897.466	4744
897.587	4850
897.708	4968
897.828	4862
897.949	4759
898.07	4656
898.19	4736
898.311	4934
898.431	4744
898.552	4820
898.672	4904
898.792	4889
898.913	4831
899.033	4714
899.153	4584
899.273	4527
899.393	4599
899.513	4622
899.633	4569
899.753	4630
899.873	4634
899.993	4630
900.113	4645
900.232	4668
900.352	4558
900.472	4580
900.591	4478
900.711	4599
900.83	4516
900.95	4660
901.069	4786
901.189	4675
901.308	4432
901.427	4363
901.546	4516
901.665	4531
901.784	4611
901.904	4489
902.023	4386
902.141	4287
902.26	4276
902.379	4379
902.498	4306
902.617	4291
902.735	4455
902.854	4474
902.973	4478
903.091	4287
903.21	4303
903.328	4402
903.446	4333
903.565	4322
903.683	4421
903.801	4322
903.919	4535
904.038	4478
904.156	4375
904.274	4508
904.392	4451
904.51	4508
904.627	4542
904.745	4656
904.863	4683
904.981	4432
905.098	4432
905.216	4417
905.334	4481
905.451	4516
905.569	4546
905.686	4653
905.803	4622
905.921	4459
906.038	4637
906.155	4569
906.272	4478
906.389	4542
906.506	4402
906.623	4417
906.74	4451
906.857	4428
906.974	4455
907.091	4675
907.208	4790
907.324	4675
907.441	4558
907.557	4360
907.674	4440
907.79	4383
907.907	4485
908.023	4561
908.139	4519
908.256	4535
908.372	4523
908.488	4500
908.604	4428
908.72	4409
908.836	4440
908.952	4455
909.068	4512
909.184	4645
909.3	4615
909.415	4664
909.531	4656
909.647	4421
909.762	4443
909.878	4428
909.993	4512
910.108	4485
910.224	4512
910.339	4527
910.454	4478
910.57	4455
910.685	4371
910.8	4748
910.915	4702
911.03	4592
911.145	4424
911.259	4421
911.374	4466
911.489	4367
911.604	4325
911.718	4272
911.833	4268
911.947	4173
912.062	4120
912.176	4318
912.291	4268
912.405	4341
912.519	4565
912.633	4577
912.748	4485
912.862	4375
912.976	4299
913.09	4227
913.204	4234
913.318	4299
913.431	4436
913.545	4413
913.659	4512
913.772	4481
913.886	4341
914	4329
914.113	4402
914.226	4523
914.34	4459
914.453	4303
914.566	4538
914.68	4379
914.793	4398
914.906	4207
915.019	4200
915.132	4185
915.245	4261
915.358	4276
915.47	4329
915.583	4352
915.696	4394
915.809	4493
915.921	4508
916.034	4344
916.146	4299
916.259	4333
916.371	4443
916.483	4398
916.595	4325
916.708	4440
916.82	4363
916.932	4432
917.044	4421
917.156	4409
917.268	4287
917.38	4318
917.491	4363
917.603	4462
917.715	4538
917.826	4523
917.938	4390
918.049	4329
918.161	4451
918.272	4618
918.384	4603
918.495	4550
918.606	4409
918.717	4306
918.828	4432
918.939	4451
919.05	4322
919.161	4405
919.272	4188
919.383	4303
919.494	4504
919.604	4767
919.715	4485
919.826	4462
919.936	4470
920.047	4569
920.157	4573
920.267	4752
920.378	4622
920.488	4588
920.598	4809
920.708	4957
920.818	4847
920.928	4839
921.038	5056
921.148	5041
921.258	4687
921.368	4634
921.477	4523
921.587	4569
921.697	4451
921.806	4599
921.916	4485
922.025	4383
922.134	4348
922.244	4329
922.353	4413
922.462	4227
922.571	4192
922.68	4078
922.789	4078
922.898	4101
923.007	4074
923.116	4158
923.224	4177
923.333	4166
923.442	4036
923.55	4044
923.659	4105
923.767	4177
923.876	4101
923.984	4230
924.092	4055
924.201	4124
924.309	4150
924.417	4234
924.525	4150
924.633	4166
924.741	5117
924.849	4017
924.956	4200
925.064	4048
925.172	3964
925.279	4071
925.387	4143
925.494	4139
925.602	4299
925.709	4272
925.816	4093
925.924	4192
926.031	4310
926.138	4246
926.245	4299
926.352	4162
926.459	4333
926.566	4390
926.673	4272
926.779	4150
926.886	4154
926.993	4090
927.099	4006
927.206	3983
927.312	4013
927.419	4154
927.525	4093
927.631	4166
927.737	4071
927.843	3979
927.95	3956
928.056	4044
928.162	4044
928.267	4128
928.373	4774
928.479	4223
928.585	3888
928.69	4090
928.796	4059
928.901	4082
929.007	3915
929.112	4124
929.218	4071
929.323	4051
929.428	4029
929.533	4211
929.638	3987
929.743	4051
929.848	4109
929.953	4059
930.058	4032
930.163	3854
930.267	3876
930.372	4048
930.477	3915
930.581	4101
930.685	4067
930.79	3907
930.894	3949
930.998	3934
931.103	4078
931.207	3808
931.311	3755
931.415	3709
931.519	3587
931.623	3580
