Data from test_V78500241_963.txt Node
Date: Fri Mar 25 16:55:41 CST 2022
User: usil
Spectrometer: V785-0024
Trigger mode: 0
Integration Time (sec): 4.000000E-1
Scans to average: 1
Nonlinearity correction enabled: false
Boxcar width: 0
Storing dark spectrum: false
XAxis mode: Wavelengths
Number of Pixels in Spectrum: 1024
>>>>>Begin Spectral Data<<<<<
801.071	8103
801.214	8001
801.356	7841
801.499	7868
801.641	7822
801.783	7826
801.926	7993
802.068	7963
802.211	8005
802.353	7970
802.496	7868
802.638	7898
802.78	7887
802.923	7947
803.065	7860
803.208	7841
803.35	8031
803.492	8062
803.635	8157
803.777	8027
803.919	8164
804.061	8400
804.204	8172
804.346	7997
804.488	7944
804.63	8115
804.773	8008
804.915	8088
805.057	8248
805.199	8172
805.341	8225
805.483	8294
805.626	8180
805.768	8088
805.91	8172
806.052	8214
806.194	8115
806.336	8221
806.478	8103
806.62	8084
806.762	8126
806.904	8248
807.046	8488
807.188	8332
807.33	8366
807.472	8309
807.614	8157
807.756	8020
807.898	7982
808.04	7887
808.182	7913
808.324	7944
808.465	7902
808.607	8088
808.749	8088
808.891	8267
809.033	8275
809.174	8202
809.316	8092
809.458	8096
809.6	8008
809.741	8062
809.883	8031
810.025	8058
810.166	8100
810.308	8005
810.45	8065
810.591	7890
810.733	7738
810.875	7655
811.016	7544
811.158	7430
811.299	7552
811.441	7769
811.582	7681
811.724	7548
811.865	7533
812.007	7609
812.148	7575
812.29	7575
812.431	7704
812.573	7837
812.714	8016
812.855	8092
812.997	8221
813.138	8252
813.279	8145
813.421	8100
813.562	8062
813.703	7921
813.845	7700
813.986	7499
814.127	7362
814.268	7198
814.41	7171
814.551	7137
814.692	7164
814.833	7042
814.974	7069
815.115	6993
815.256	6966
815.397	6924
815.539	6954
815.68	6821
815.821	6840
815.962	6863
816.103	6844
816.244	6741
816.385	6654
816.526	6654
816.666	6464
816.807	6304
816.948	6437
817.089	6544
817.23	6467
817.371	6338
817.512	6315
817.653	6399
817.793	6350
817.934	6429
818.075	6456
818.216	6456
818.356	6369
818.497	6228
818.638	6133
818.778	6144
818.919	6091
819.06	6171
819.2	6277
819.341	6323
819.481	6357
819.622	6486
819.762	6757
819.903	6692
820.043	6639
820.184	6589
820.324	6555
820.465	6696
820.605	6642
820.746	6662
820.886	6513
821.026	6620
821.167	6707
821.307	6753
821.447	6772
821.588	6631
821.728	6631
821.868	6467
822.008	6327
822.149	6311
822.289	6369
822.429	6155
822.569	6098
822.709	6144
822.849	5897
822.99	5897
823.13	5901
823.27	5897
823.41	5733
823.55	5752
823.69	5794
823.83	5790
823.97	5627
824.11	5558
824.25	5512
824.389	5532
824.529	5535
824.669	5520
824.809	5623
824.949	5630
825.089	5596
825.228	5547
825.368	5429
825.508	5326
825.648	5307
825.787	5376
825.927	5353
826.067	5322
826.206	5258
826.346	5360
826.485	5395
826.625	5417
826.765	5562
826.904	5414
827.044	5311
827.183	5185
827.323	5162
827.462	5208
827.601	5113
827.741	5147
827.88	5181
828.02	5083
828.159	5201
828.298	5246
828.437	5337
828.577	5334
828.716	5467
828.855	5322
828.994	5151
829.134	5121
829.273	5212
829.412	5121
829.551	5121
829.69	5147
829.829	5231
829.968	5372
830.107	5258
830.246	5258
830.385	5201
830.524	5178
830.663	5105
830.802	4980
830.941	4873
831.08	4858
831.219	4976
831.357	4957
831.496	5128
831.635	4915
831.774	4782
831.913	4839
832.051	4748
832.19	4793
832.329	4835
832.467	4660
832.606	4580
832.744	4717
832.883	4679
833.022	4702
833.16	4778
833.299	4828
833.437	4850
833.576	4831
833.714	4839
833.852	4900
833.991	4870
834.129	5003
834.267	4976
834.406	4923
834.544	4911
834.682	4930
834.821	4972
834.959	5159
835.097	4968
835.235	5105
835.373	5067
835.511	5124
835.65	5033
835.788	5022
835.926	4930
836.064	4847
836.202	4911
836.34	5189
836.478	5197
836.615	5067
836.753	5170
836.891	5280
837.029	5239
837.167	5204
837.305	5166
837.443	5140
837.58	5060
837.718	5223
837.856	5170
837.993	5117
838.131	5235
838.269	5166
838.406	5181
838.544	5235
838.681	4987
838.819	5014
838.956	4938
839.094	4877
839.231	4949
839.369	5048
839.506	5410
839.643	5227
839.781	5090
839.918	5003
840.055	5151
840.193	5098
840.33	5083
840.467	5105
840.604	5166
840.742	5414
840.879	5079
841.016	5117
841.153	5098
841.29	5353
841.427	5273
841.564	5292
841.701	5337
841.838	5269
841.975	5242
842.112	5246
842.249	5105
842.385	5086
842.522	5315
842.659	5140
842.796	5174
842.933	5166
843.069	5159
843.206	5155
843.343	5277
843.479	5204
843.616	5223
843.752	4968
843.889	5010
844.025	5258
844.162	4995
844.298	5178
844.435	5109
844.571	5010
844.708	5181
844.844	5315
844.98	5292
845.117	5280
845.253	5140
845.389	5132
845.525	5170
845.661	5102
845.798	5025
845.934	5132
846.07	5064
846.206	5204
846.342	5250
846.478	5220
846.614	4984
846.75	4968
846.886	4934
847.022	5117
847.158	4991
847.294	5029
847.429	5113
847.565	4999
847.701	5318
847.837	4854
847.972	4805
848.108	4930
848.244	4866
848.379	4748
848.515	4733
848.65	4679
848.786	4725
848.921	4717
849.057	4850
849.192	4843
849.328	4744
849.463	4805
849.598	4725
849.734	4812
849.869	4710
850.004	4603
850.14	4672
850.275	4596
850.41	4538
850.545	4558
850.68	4561
850.815	4580
850.95	4649
851.085	4839
851.22	4755
851.355	4672
851.49	4577
851.625	4569
851.76	4626
851.895	4523
852.03	4493
852.165	4637
852.299	4729
852.434	4759
852.569	4725
852.703	4717
852.838	4820
852.973	4908
853.107	4904
853.242	4744
853.376	4664
853.511	4535
853.645	4637
853.78	4736
853.914	4660
854.048	4664
854.183	4634
854.317	4706
854.451	4797
854.585	4698
854.72	4588
854.854	4717
854.988	4573
855.122	4592
855.256	4558
855.39	4679
855.524	4721
855.658	4668
855.792	4672
855.926	4698
856.06	4752
856.194	4797
856.327	4664
856.461	4626
856.595	4649
856.729	4615
856.862	4698
856.996	4656
857.13	4679
857.263	4733
857.397	4786
857.53	4672
857.664	4687
857.797	4771
857.931	4702
858.064	4588
858.197	4694
858.331	4660
858.464	4603
858.597	4516
858.731	4588
858.864	4645
858.997	4656
859.13	4664
859.263	4660
859.396	4675
859.529	4558
859.662	4485
859.795	4554
859.928	4599
860.061	4771
860.194	4763
860.327	4588
860.46	4489
860.592	4721
860.725	4691
860.858	4725
860.99	4554
861.123	4485
861.256	4523
861.388	4599
861.521	5231
861.653	4466
861.786	4462
861.918	4466
862.05	4500
862.183	4519
862.315	4569
862.447	4637
862.58	4519
862.712	4405
862.844	4325
862.976	4481
863.108	4421
863.24	4862
863.372	4303
863.504	4398
863.636	4390
863.768	4462
863.9	4386
864.032	4348
864.164	4398
864.296	4455
864.428	4565
864.559	4538
864.691	4531
864.823	4508
864.954	4504
865.086	4497
865.217	4421
865.349	4367
865.48	4363
865.612	4504
865.743	4618
865.875	4459
866.006	4436
866.137	4500
866.269	4443
866.4	4402
866.531	4417
866.662	4390
866.793	4363
866.924	4386
867.055	4512
867.186	4478
867.317	4383
867.448	4356
867.579	4371
867.71	4371
867.841	4325
867.972	4424
868.103	4417
868.233	4409
868.364	4409
868.495	4474
868.625	4634
868.756	4717
868.886	4561
869.017	4607
869.147	4691
869.278	4797
869.408	4694
869.539	4630
869.669	4698
869.799	4675
869.929	4740
870.06	4714
870.19	4904
870.32	4923
870.45	4927
870.58	4965
870.71	5121
870.84	5067
870.97	4949
871.1	4904
871.23	5094
871.36	5067
871.489	5025
871.619	5075
871.749	5090
871.879	5090
872.008	5143
872.138	5064
872.267	4961
872.397	4839
872.526	4744
872.656	4694
872.785	4786
872.915	4957
873.044	4987
873.173	4930
873.303	4961
873.432	4942
873.561	4980
873.69	4824
873.819	4892
873.948	4881
874.077	4816
874.206	4744
874.335	4786
874.464	4938
874.593	5052
874.722	4949
874.851	5029
874.979	5033
875.108	4987
875.237	4870
875.365	4835
875.494	4904
875.623	4938
875.751	4809
875.88	4843
876.008	4991
876.136	5025
876.265	5162
876.393	5368
876.521	5250
876.65	5220
876.778	5105
876.906	5098
877.034	5022
877.162	5003
877.29	4968
877.418	5033
877.546	5045
877.674	5014
877.802	5052
877.93	5018
878.058	4942
878.185	4911
878.313	4946
878.441	4934
878.568	4744
878.696	4828
878.824	4949
878.951	4995
879.079	5143
879.206	5292
879.333	5117
879.461	4942
879.588	4980
879.715	5121
879.842	5250
879.97	5041
880.097	4778
880.224	4755
880.351	4774
880.478	4809
880.605	4828
880.732	4782
880.859	5067
880.986	4835
881.112	4862
881.239	4752
881.366	4653
881.493	4611
881.619	4519
881.746	4668
881.872	4626
881.999	4668
882.125	4714
882.252	4809
882.378	4820
882.505	4915
882.631	4744
882.757	4641
882.883	4717
883.01	4717
883.136	4664
883.262	4615
883.388	4607
883.514	4748
883.64	4850
883.766	4740
883.892	4675
884.018	4710
884.143	4892
884.269	5037
884.395	4645
884.52	4626
884.646	4660
884.772	4561
884.897	4554
885.023	4698
885.148	4714
885.274	4854
885.399	4767
885.524	4687
885.65	4733
885.775	4706
885.9	4702
886.025	4843
886.15	4725
886.275	4721
886.4	4656
886.525	4706
886.65	4694
886.775	4641
886.9	4889
887.025	5022
887.149	4797
887.274	4668
887.399	4577
887.523	4569
887.648	4592
887.773	4516
887.897	4771
888.021	4812
888.146	4691
888.27	4839
888.395	4881
888.519	4793
888.643	4801
888.767	4786
888.891	4664
889.015	4565
889.139	4706
889.263	4637
889.387	4725
889.511	4850
889.635	4812
889.759	4577
889.883	4653
890.006	4698
890.13	4835
890.254	4618
890.377	4687
890.501	4565
890.624	4489
890.748	4618
890.871	4478
890.995	4440
891.118	4363
891.241	4489
891.364	4546
891.488	4645
891.611	4417
891.734	4519
891.857	4675
891.98	4550
892.103	4580
892.226	4565
892.349	4481
892.471	4428
892.594	4550
892.717	4607
892.839	4573
892.962	4580
893.085	4645
893.207	4561
893.33	4451
893.452	4519
893.575	4653
893.697	4550
893.819	4778
893.941	4816
894.064	4721
894.186	4554
894.308	4588
894.43	4694
894.552	4847
894.674	4752
894.796	4554
894.918	4607
895.04	4519
895.161	4634
895.283	4607
895.405	4554
895.526	4630
895.648	4656
895.769	4694
895.891	4714
896.012	4721
896.134	4714
896.255	4664
896.376	4637
896.498	4558
896.619	4645
896.74	4584
896.861	4729
896.982	4908
897.103	5037
897.224	4820
897.345	4694
897.466	4664
897.587	4675
897.708	4847
897.828	4759
897.949	4672
898.07	4531
898.19	4683
898.311	4835
898.431	4626
898.552	4721
898.672	4736
898.792	4763
898.913	4721
899.033	4561
899.153	4516
899.273	4428
899.393	4508
899.513	4508
899.633	4580
899.753	4527
899.873	4493
899.993	4542
900.113	4519
900.232	4573
900.352	4527
900.472	4440
900.591	4409
900.711	4512
900.83	4459
900.95	4618
901.069	4656
901.189	4546
901.308	4356
901.427	4299
901.546	4360
901.665	4443
901.784	4512
901.904	4371
902.023	4325
902.141	4200
902.26	4131
902.379	4287
902.498	4227
902.617	4200
902.735	4371
902.854	4367
902.973	4303
903.091	4158
903.21	4192
903.328	4242
903.446	4272
903.565	4246
903.683	4299
903.801	4249
903.919	4421
904.038	4424
904.156	4268
904.274	4394
904.392	4428
904.51	4413
904.627	4440
904.745	4550
904.863	4596
904.981	4333
905.098	4329
905.216	4363
905.334	4409
905.451	4428
905.569	4405
905.686	4516
905.803	4497
905.921	4417
906.038	4523
906.155	4478
906.272	4352
906.389	4470
906.506	4375
906.623	4402
906.74	4371
906.857	4295
906.974	4371
907.091	4527
907.208	4649
907.324	4599
907.441	4516
907.557	4344
907.674	4329
907.79	4325
907.907	4367
908.023	4485
908.139	4424
908.256	4451
908.372	4451
908.488	4436
908.604	4363
908.72	4329
908.836	4352
908.952	4344
909.068	4417
909.184	4561
909.3	4493
909.415	4577
909.531	4561
909.647	4348
909.762	4367
909.878	4303
909.993	4443
910.108	4413
910.224	4383
910.339	4443
910.454	4360
910.57	4409
910.685	4265
910.8	4618
910.915	4599
911.03	4519
911.145	4341
911.259	4337
911.374	4344
911.489	4238
911.604	4257
911.718	4143
911.833	4181
911.947	4101
912.062	4025
912.176	4185
912.291	4291
912.405	4291
912.519	4504
912.633	4516
912.748	4344
912.862	4303
912.976	4219
913.09	4086
913.204	4169
913.318	4265
913.431	4367
913.545	4383
913.659	4405
913.772	4341
913.886	4196
914	4211
914.113	4363
914.226	4470
914.34	4398
914.453	4257
914.566	4432
914.68	4276
914.793	4287
914.906	4143
915.019	4090
915.132	4093
915.245	4200
915.358	4166
915.47	4238
915.583	4284
915.696	4257
915.809	4455
915.921	4409
916.034	4230
916.146	4246
916.259	4234
916.371	4371
916.483	4337
916.595	4211
916.708	4310
916.82	4337
916.932	4367
917.044	4356
917.156	4314
917.268	4200
917.38	4246
917.491	4295
917.603	4306
917.715	4405
917.826	4394
917.938	4329
918.049	4246
918.161	4348
918.272	4584
918.384	4489
918.495	4432
918.606	4295
918.717	4227
918.828	4348
918.939	4360
919.05	4276
919.161	4299
919.272	4147
919.383	4223
919.494	4413
919.604	4653
919.715	4398
919.826	4333
919.936	4386
920.047	4554
920.157	4478
920.267	4687
920.378	4531
920.488	4489
920.598	4714
920.708	4889
920.818	4714
920.928	4736
921.038	4942
921.148	4850
921.258	4622
921.368	4523
921.477	4455
921.587	4470
921.697	4367
921.806	4504
921.916	4440
922.025	4295
922.134	4261
922.244	4234
922.353	4291
922.462	4219
922.571	4120
922.68	3956
922.789	3975
922.898	4029
923.007	3937
923.116	4082
923.224	4071
923.333	4078
923.442	4006
923.55	3983
923.659	4017
923.767	4124
923.876	3975
923.984	4162
924.092	3979
924.201	4112
924.309	4090
924.417	4116
924.525	4021
924.633	4078
924.741	5014
924.849	3907
924.956	4139
925.064	3930
925.172	3937
925.279	3972
925.387	4082
925.494	4067
925.602	4204
925.709	4192
925.816	4071
925.924	4105
926.031	4173
926.138	4173
926.245	4238
926.352	4067
926.459	4261
926.566	4295
926.673	4128
926.779	4090
926.886	4078
926.993	3975
927.099	3949
927.206	3911
927.312	3907
927.419	4051
927.525	4017
927.631	4093
927.737	3956
927.843	3941
927.95	3823
928.056	3964
928.162	3991
928.267	4055
928.373	4641
928.479	4093
928.585	3838
928.69	3991
928.796	4029
928.901	3994
929.007	3808
929.112	3979
929.218	3994
929.323	3953
929.428	3896
929.533	4074
929.638	3861
929.743	4006
929.848	4059
929.953	4032
930.058	3888
930.163	3804
930.267	3850
930.372	3998
930.477	3789
930.581	4055
930.685	3930
930.79	3751
930.894	3884
930.998	3846
931.103	4055
931.207	3728
931.311	3690
931.415	3625
931.519	3545
931.623	3545
