Data from test_V78500241_509.txt Node
Date: Fri Mar 25 16:52:32 CST 2022
User: usil
Spectrometer: V785-0024
Trigger mode: 0
Integration Time (sec): 4.000000E-1
Scans to average: 1
Nonlinearity correction enabled: false
Boxcar width: 0
Storing dark spectrum: false
XAxis mode: Wavelengths
Number of Pixels in Spectrum: 1024
>>>>>Begin Spectral Data<<<<<
801.071	8084
801.214	8012
801.356	7852
801.499	7814
801.641	7784
801.783	7894
801.926	8050
802.068	8016
802.211	7997
802.353	8016
802.496	7913
802.638	7890
802.78	7906
802.923	7944
803.065	7928
803.208	7803
803.35	8012
803.492	8035
803.635	8176
803.777	8065
803.919	8115
804.061	8484
804.204	8142
804.346	8062
804.488	7989
804.63	8126
804.773	7982
804.915	8149
805.057	8259
805.199	8153
805.341	8252
805.483	8343
805.626	8195
805.768	8054
805.91	8187
806.052	8183
806.194	8134
806.336	8343
806.478	8210
806.62	8008
806.762	8153
806.904	8275
807.046	8423
807.188	8396
807.33	8240
807.472	8328
807.614	8149
807.756	8130
807.898	8073
808.04	7940
808.182	7970
808.324	7947
808.465	7902
808.607	8081
808.749	8084
808.891	8180
809.033	8263
809.174	8172
809.316	8050
809.458	8073
809.6	8027
809.741	8046
809.883	8054
810.025	8084
810.166	8058
810.308	8050
810.45	8001
810.591	7898
810.733	7742
810.875	7719
811.016	7548
811.158	7521
811.299	7647
811.441	7719
811.582	7757
811.724	7597
811.865	7533
812.007	7689
812.148	7605
812.29	7708
812.431	7753
812.573	7864
812.714	8008
812.855	8180
812.997	8343
813.138	8396
813.279	8195
813.421	8157
813.562	8058
813.703	7986
813.845	7807
813.986	7464
814.127	7282
814.268	7365
814.41	7259
814.551	7194
814.692	7225
814.833	7080
814.974	7088
815.115	7129
815.256	7004
815.397	6924
815.539	6932
815.68	6837
815.821	6795
815.962	6882
816.103	6840
816.244	6734
816.385	6623
816.526	6642
816.666	6559
816.807	6338
816.948	6502
817.089	6555
817.23	6399
817.371	6433
817.512	6399
817.653	6342
817.793	6399
817.934	6437
818.075	6521
818.216	6445
818.356	6376
818.497	6323
818.638	6129
818.778	6163
818.919	6186
819.06	6171
819.2	6251
819.341	6254
819.481	6311
819.622	6563
819.762	6738
819.903	6715
820.043	6559
820.184	6593
820.324	6528
820.465	6662
820.605	6646
820.746	6589
820.886	6486
821.026	6688
821.167	6703
821.307	6768
821.447	6753
821.588	6673
821.728	6578
821.868	6525
822.008	6296
822.149	6365
822.289	6361
822.429	6140
822.569	6106
822.709	6129
822.849	5946
822.99	5935
823.13	5912
823.27	5885
823.41	5870
823.55	5802
823.69	5733
823.83	5794
823.97	5661
824.11	5596
824.25	5505
824.389	5566
824.529	5547
824.669	5501
824.809	5646
824.949	5699
825.089	5589
825.228	5554
825.368	5417
825.508	5395
825.648	5391
825.787	5417
825.927	5417
826.067	5341
826.206	5368
826.346	5372
826.485	5425
826.625	5425
826.765	5592
826.904	5433
827.044	5269
827.183	5204
827.323	5151
827.462	5280
827.601	5174
827.741	5193
827.88	5231
828.02	5083
828.159	5273
828.298	5284
828.437	5387
828.577	5269
828.716	5562
828.855	5254
828.994	5201
829.134	5185
829.273	5212
829.412	5162
829.551	5128
829.69	5193
829.829	5204
829.968	5383
830.107	5269
830.246	5292
830.385	5143
830.524	5159
830.663	5056
830.802	5041
830.941	4866
831.08	4866
831.219	4984
831.357	4961
831.496	5140
831.635	4953
831.774	4892
831.913	4889
832.051	4702
832.19	4755
832.329	4850
832.467	4675
832.606	4592
832.744	4733
832.883	4782
833.022	4748
833.16	4820
833.299	4843
833.437	4839
833.576	4877
833.714	4835
833.852	4896
833.991	4873
834.129	4923
834.267	4965
834.406	4987
834.544	4999
834.682	4965
834.821	4968
834.959	5162
835.097	5006
835.235	5159
835.373	5098
835.511	5147
835.65	5056
835.788	5018
835.926	4923
836.064	4923
836.202	4900
836.34	5212
836.478	5223
836.615	5117
836.753	5231
836.891	5296
837.029	5239
837.167	5162
837.305	5174
837.443	5159
837.58	5102
837.718	5254
837.856	5189
837.993	5178
838.131	5277
838.269	5201
838.406	5193
838.544	5242
838.681	5094
838.819	5022
838.956	4904
839.094	4930
839.231	4968
839.369	5048
839.506	5395
839.643	5212
839.781	5064
839.918	5003
840.055	5136
840.193	5140
840.33	5143
840.467	5102
840.604	5178
840.742	5505
840.879	5094
841.016	5113
841.153	5159
841.29	5337
841.427	5326
841.564	5341
841.701	5334
841.838	5269
841.975	5242
842.112	5227
842.249	5147
842.385	5143
842.522	5364
842.659	5178
842.796	5181
842.933	5204
843.069	5147
843.206	5147
843.343	5337
843.479	5227
843.616	5269
843.752	5060
843.889	5003
844.025	5242
844.162	5045
844.298	5239
844.435	5052
844.571	5052
844.708	5231
844.844	5299
844.98	5307
845.117	5299
845.253	5208
845.389	5094
845.525	5128
845.661	5117
845.798	4946
845.934	5159
846.07	5105
846.206	5189
846.342	5227
846.478	5227
846.614	5037
846.75	4991
846.886	4957
847.022	5170
847.158	5010
847.294	5094
847.429	5102
847.565	5071
847.701	5383
847.837	4812
847.972	4793
848.108	4946
848.244	4987
848.379	4809
848.515	4721
848.65	4721
848.786	4793
848.921	4782
849.057	4923
849.192	4938
849.328	4847
849.463	4911
849.598	4824
849.734	4755
849.869	4744
850.004	4664
850.14	4740
850.275	4653
850.41	4550
850.545	4577
850.68	4683
850.815	4622
850.95	4637
851.085	4850
851.22	4729
851.355	4698
851.49	4672
851.625	4656
851.76	4691
851.895	4618
852.03	4565
852.165	4679
852.299	4782
852.434	4824
852.569	4771
852.703	4797
852.838	4930
852.973	4961
853.107	4919
853.242	4748
853.376	4721
853.511	4596
853.645	4691
853.78	4896
853.914	4733
854.048	4721
854.183	4714
854.317	4748
854.451	4908
854.585	4725
854.72	4679
854.854	4820
854.988	4668
855.122	4675
855.256	4577
855.39	4694
855.524	4828
855.658	4755
855.792	4740
855.926	4721
856.06	4839
856.194	4843
856.327	4748
856.461	4664
856.595	4645
856.729	4664
856.862	4752
856.996	4694
857.13	4790
857.263	4793
857.397	4854
857.53	4710
857.664	4763
857.797	4877
857.931	4835
858.064	4725
858.197	4805
858.331	4653
858.464	4622
858.597	4550
858.731	4649
858.864	4683
858.997	4634
859.13	4675
859.263	4710
859.396	4714
859.529	4626
859.662	4565
859.795	4558
859.928	4660
860.061	4793
860.194	4786
860.327	4645
860.46	4592
860.592	4793
860.725	4778
860.858	4774
860.99	4588
861.123	4554
861.256	4569
861.388	4645
861.521	5337
861.653	4500
861.786	4466
861.918	4504
862.05	4535
862.183	4603
862.315	4653
862.447	4763
862.58	4653
862.712	4436
862.844	4413
862.976	4527
863.108	4497
863.24	4930
863.372	4367
863.504	4451
863.636	4440
863.768	4535
863.9	4512
864.032	4352
864.164	4462
864.296	4478
864.428	4607
864.559	4599
864.691	4611
864.823	4538
864.954	4569
865.086	4577
865.217	4481
865.349	4466
865.48	4512
865.612	4535
865.743	4588
865.875	4466
866.006	4493
866.137	4527
866.269	4519
866.4	4497
866.531	4462
866.662	4440
866.793	4344
866.924	4459
867.055	4531
867.186	4512
867.317	4455
867.448	4409
867.579	4428
867.71	4413
867.841	4417
867.972	4497
868.103	4508
868.233	4504
868.364	4455
868.495	4512
868.625	4733
868.756	4778
868.886	4611
869.017	4706
869.147	4816
869.278	4831
869.408	4653
869.539	4714
869.669	4763
869.799	4714
869.929	4801
870.06	4752
870.19	4984
870.32	4892
870.45	5029
870.58	5022
870.71	5178
870.84	5136
870.97	5010
871.1	4972
871.23	5151
871.36	5181
871.489	5079
871.619	5151
871.749	5079
871.879	5132
872.008	5201
872.138	5041
872.267	4995
872.397	4843
872.526	4877
872.656	4771
872.785	4847
872.915	5010
873.044	5086
873.173	4957
873.303	5025
873.432	5018
873.561	5003
873.69	4927
873.819	4900
873.948	4927
874.077	4843
874.206	4786
874.335	4835
874.464	4953
874.593	5086
874.722	4991
874.851	5166
874.979	5090
875.108	5067
875.237	4961
875.365	4839
875.494	4934
875.623	5025
875.751	4866
875.88	4900
876.008	5029
876.136	5102
876.265	5216
876.393	5353
876.521	5239
876.65	5265
876.778	5178
876.906	5098
877.034	5041
877.162	5098
877.29	5022
877.418	5124
877.546	5060
877.674	5086
877.802	5083
877.93	5090
878.058	4999
878.185	4927
878.313	5041
878.441	4999
878.568	4850
878.696	4930
878.824	5003
878.951	5067
879.079	5132
879.206	5322
879.333	5166
879.461	4999
879.588	5052
879.715	5155
879.842	5265
879.97	4980
880.097	4831
880.224	4812
880.351	4843
880.478	4889
880.605	4889
880.732	4786
880.859	5086
880.986	4927
881.112	4942
881.239	4805
881.366	4729
881.493	4664
881.619	4618
881.746	4656
881.872	4710
881.999	4759
882.125	4744
882.252	4843
882.378	4873
882.505	5003
882.631	4866
882.757	4694
882.883	4790
883.01	4782
883.136	4706
883.262	4603
883.388	4637
883.514	4843
883.64	4885
883.766	4824
883.892	4714
884.018	4755
884.143	4911
884.269	5025
884.395	4714
884.52	4656
884.646	4694
884.772	4626
884.897	4626
885.023	4691
885.148	4831
885.274	4919
885.399	4854
885.524	4717
885.65	4725
885.775	4847
885.9	4721
886.025	4896
886.15	4790
886.275	4717
886.4	4672
886.525	4801
886.65	4694
886.775	4664
886.9	4885
887.025	5041
887.149	4858
887.274	4649
887.399	4599
887.523	4599
887.648	4626
887.773	4558
887.897	4759
888.021	4850
888.146	4744
888.27	4831
888.395	4930
888.519	4862
888.643	4847
888.767	4858
888.891	4702
889.015	4618
889.139	4664
889.263	4622
889.387	4778
889.511	4911
889.635	4873
889.759	4717
889.883	4637
890.006	4763
890.13	4839
890.254	4634
890.377	4774
890.501	4538
890.624	4535
890.748	4675
890.871	4550
890.995	4421
891.118	4451
891.241	4550
891.364	4558
891.488	4637
891.611	4516
891.734	4569
891.857	4615
891.98	4573
892.103	4714
892.226	4664
892.349	4523
892.471	4432
892.594	4550
892.717	4634
892.839	4603
892.962	4611
893.085	4733
893.207	4634
893.33	4497
893.452	4580
893.575	4706
893.697	4565
893.819	4850
893.941	4908
894.064	4877
894.186	4596
894.308	4561
894.43	4752
894.552	4816
894.674	4755
894.796	4592
894.918	4603
895.04	4577
895.161	4755
895.283	4653
895.405	4584
895.526	4664
895.648	4710
895.769	4721
895.891	4702
896.012	4698
896.134	4725
896.255	4698
896.376	4691
896.498	4641
896.619	4649
896.74	4611
896.861	4687
896.982	4991
897.103	5086
897.224	4881
897.345	4748
897.466	4694
897.587	4774
897.708	4854
897.828	4771
897.949	4672
898.07	4558
898.19	4656
898.311	4873
898.431	4744
898.552	4801
898.672	4839
898.792	4850
898.913	4778
899.033	4664
899.153	4531
899.273	4451
899.393	4523
899.513	4569
899.633	4500
899.753	4508
899.873	4504
899.993	4622
900.113	4599
900.232	4584
900.352	4588
900.472	4489
900.591	4432
900.711	4466
900.83	4481
900.95	4664
901.069	4668
901.189	4546
901.308	4405
901.427	4322
901.546	4421
901.665	4508
901.784	4519
901.904	4470
902.023	4325
902.141	4242
902.26	4219
902.379	4363
902.498	4238
902.617	4249
902.735	4379
902.854	4398
902.973	4337
903.091	4223
903.21	4272
903.328	4325
903.446	4291
903.565	4322
903.683	4363
903.801	4306
903.919	4432
904.038	4436
904.156	4295
904.274	4466
904.392	4402
904.51	4440
904.627	4542
904.745	4615
904.863	4626
904.981	4436
905.098	4325
905.216	4356
905.334	4417
905.451	4489
905.569	4443
905.686	4554
905.803	4569
905.921	4443
906.038	4535
906.155	4512
906.272	4413
906.389	4462
906.506	4375
906.623	4402
906.74	4428
906.857	4344
906.974	4443
907.091	4569
907.208	4710
907.324	4569
907.441	4504
907.557	4360
907.674	4341
907.79	4386
907.907	4428
908.023	4500
908.139	4508
908.256	4481
908.372	4493
908.488	4462
908.604	4371
908.72	4367
908.836	4440
908.952	4402
909.068	4466
909.184	4618
909.3	4497
909.415	4607
909.531	4592
909.647	4390
909.762	4394
909.878	4341
909.993	4459
910.108	4390
910.224	4421
910.339	4519
910.454	4394
910.57	4367
910.685	4333
910.8	4679
910.915	4626
911.03	4558
911.145	4314
911.259	4322
911.374	4379
911.489	4375
911.604	4341
911.718	4188
911.833	4230
911.947	4036
912.062	4006
912.176	4219
912.291	4215
912.405	4257
912.519	4550
912.633	4546
912.748	4360
912.862	4352
912.976	4223
913.09	4109
913.204	4234
913.318	4234
913.431	4390
913.545	4459
913.659	4474
913.772	4421
913.886	4230
914	4284
914.113	4371
914.226	4451
914.34	4375
914.453	4234
914.566	4489
914.68	4329
914.793	4329
914.906	4150
915.019	4169
915.132	4090
915.245	4196
915.358	4223
915.47	4207
915.583	4314
915.696	4284
915.809	4436
915.921	4424
916.034	4265
916.146	4291
916.259	4246
916.371	4386
916.483	4390
916.595	4287
916.708	4344
916.82	4318
916.932	4356
917.044	4383
917.156	4325
917.268	4291
917.38	4287
917.491	4287
917.603	4375
917.715	4409
917.826	4436
917.938	4352
918.049	4291
918.161	4413
918.272	4535
918.384	4550
918.495	4413
918.606	4295
918.717	4242
918.828	4360
918.939	4398
919.05	4246
919.161	4344
919.272	4150
919.383	4249
919.494	4459
919.604	4641
919.715	4432
919.826	4341
919.936	4383
920.047	4512
920.157	4478
920.267	4714
920.378	4550
920.488	4531
920.598	4717
920.708	4892
920.818	4778
920.928	4733
921.038	4949
921.148	4938
921.258	4618
921.368	4584
921.477	4508
921.587	4462
921.697	4386
921.806	4527
921.916	4371
922.025	4299
922.134	4329
922.244	4227
922.353	4337
922.462	4192
922.571	4162
922.68	4006
922.789	4010
922.898	4036
923.007	4051
923.116	4143
923.224	4097
923.333	4071
923.442	3994
923.55	4021
923.659	4017
923.767	4105
923.876	3998
923.984	4147
924.092	3994
924.201	4116
924.309	4090
924.417	4131
924.525	4082
924.633	4143
924.741	5056
924.849	3892
924.956	4139
925.064	3930
925.172	3926
925.279	4006
925.387	4051
925.494	4093
925.602	4242
925.709	4207
925.816	4082
925.924	4169
926.031	4230
926.138	4207
926.245	4192
926.352	4109
926.459	4185
926.566	4287
926.673	4150
926.779	4109
926.886	4051
926.993	3998
927.099	3930
927.206	3987
927.312	3911
927.419	4067
927.525	3975
927.631	4093
927.737	3972
927.843	3953
927.95	3854
928.056	3968
928.162	4059
928.267	4082
928.373	4683
928.479	4166
928.585	3846
928.69	4036
928.796	4071
928.901	4021
929.007	3873
929.112	3987
929.218	3998
929.323	3934
929.428	3934
929.533	4112
929.638	3922
929.743	3975
929.848	4086
929.953	3994
930.058	3937
930.163	3759
930.267	3823
930.372	3956
930.477	3846
930.581	4109
930.685	3937
930.79	3808
930.894	3880
930.998	3899
931.103	4002
931.207	3751
931.311	3705
931.415	3671
931.519	3542
931.623	3553
