Data from test_V78500241_2758.txt Node
Date: Fri Mar 25 17:08:10 CST 2022
User: usil
Spectrometer: V785-0024
Trigger mode: 0
Integration Time (sec): 4.000000E-1
Scans to average: 1
Nonlinearity correction enabled: false
Boxcar width: 0
Storing dark spectrum: false
XAxis mode: Wavelengths
Number of Pixels in Spectrum: 1024
>>>>>Begin Spectral Data<<<<<
801.071	8054
801.214	8001
801.356	7913
801.499	7879
801.641	7814
801.783	7837
801.926	8008
802.068	7951
802.211	7974
802.353	8077
802.496	7868
802.638	7871
802.78	7879
802.923	8001
803.065	7852
803.208	7849
803.35	7936
803.492	8115
803.635	8187
803.777	8107
803.919	8138
804.061	8412
804.204	8176
804.346	8043
804.488	7967
804.63	8202
804.773	8054
804.915	8119
805.057	8336
805.199	8191
805.341	8183
805.483	8263
805.626	8256
805.768	8187
805.91	8240
806.052	8202
806.194	8142
806.336	8355
806.478	8088
806.62	8027
806.762	8149
806.904	8218
807.046	8427
807.188	8400
807.33	8313
807.472	8370
807.614	8153
807.756	8142
807.898	8020
808.04	7875
808.182	7906
808.324	7906
808.465	7986
808.607	8119
808.749	8096
808.891	8271
809.033	8286
809.174	8210
809.316	8073
809.458	8062
809.6	8043
809.741	8012
809.883	8092
810.025	8050
810.166	8103
810.308	8046
810.45	7967
810.591	7913
810.733	7723
810.875	7693
811.016	7571
811.158	7533
811.299	7628
811.441	7792
811.582	7674
811.724	7559
811.865	7552
812.007	7639
812.148	7559
812.29	7609
812.431	7769
812.573	7917
812.714	7974
812.855	8161
812.997	8195
813.138	8301
813.279	8187
813.421	8130
813.562	8008
813.703	7856
813.845	7811
813.986	7472
814.127	7274
814.268	7240
814.41	7175
814.551	7175
814.692	7175
814.833	7057
814.974	7076
815.115	7122
815.256	6970
815.397	6913
815.539	6905
815.68	6840
815.821	6741
815.962	6859
816.103	6848
816.244	6722
816.385	6601
816.526	6585
816.666	6490
816.807	6281
816.948	6479
817.089	6483
817.23	6418
817.371	6403
817.512	6353
817.653	6410
817.793	6369
817.934	6426
818.075	6464
818.216	6456
818.356	6388
818.497	6247
818.638	6140
818.778	6175
818.919	6144
819.06	6121
819.2	6300
819.341	6289
819.481	6353
819.622	6555
819.762	6722
819.903	6711
820.043	6631
820.184	6601
820.324	6635
820.465	6722
820.605	6658
820.746	6658
820.886	6509
821.026	6707
821.167	6726
821.307	6837
821.447	6730
821.588	6673
821.728	6566
821.868	6506
822.008	6376
822.149	6338
822.289	6388
822.429	6110
822.569	6140
822.709	6136
822.849	5901
822.99	5904
823.13	5927
823.27	5927
823.41	5832
823.55	5779
823.69	5752
823.83	5805
823.97	5672
824.11	5528
824.25	5493
824.389	5688
824.529	5535
824.669	5512
824.809	5642
824.949	5627
825.089	5589
825.228	5562
825.368	5349
825.508	5311
825.648	5353
825.787	5364
825.927	5376
826.067	5296
826.206	5277
826.346	5406
826.485	5383
826.625	5372
826.765	5543
826.904	5471
827.044	5303
827.183	5246
827.323	5094
827.462	5280
827.601	5128
827.741	5193
827.88	5208
828.02	5151
828.159	5212
828.298	5311
828.437	5391
828.577	5254
828.716	5482
828.855	5364
828.994	5151
829.134	5155
829.273	5185
829.412	5178
829.551	5124
829.69	5162
829.829	5204
829.968	5334
830.107	5292
830.246	5296
830.385	5166
830.524	5124
830.663	5079
830.802	4972
830.941	4870
831.08	4892
831.219	4987
831.357	4976
831.496	5159
831.635	4934
831.774	4877
831.913	4839
832.051	4771
832.19	4740
832.329	4816
832.467	4687
832.606	4622
832.744	4714
832.883	4714
833.022	4721
833.16	4805
833.299	4820
833.437	4831
833.576	4828
833.714	4862
833.852	4831
833.991	4892
834.129	5003
834.267	4984
834.406	4873
834.544	4961
834.682	5003
834.821	4949
834.959	5136
835.097	4949
835.235	5174
835.373	5083
835.511	5022
835.65	5045
835.788	5003
835.926	4919
836.064	4892
836.202	4961
836.34	5140
836.478	5197
836.615	5128
836.753	5189
836.891	5296
837.029	5246
837.167	5201
837.305	5178
837.443	5075
837.58	5121
837.718	5269
837.856	5204
837.993	5132
838.131	5239
838.269	5178
838.406	5208
838.544	5166
838.681	5033
838.819	5025
838.956	4904
839.094	4877
839.231	5006
839.369	5132
839.506	5440
839.643	5277
839.781	5071
839.918	5018
840.055	5124
840.193	5132
840.33	5079
840.467	5102
840.604	5159
840.742	5440
840.879	5090
841.016	5079
841.153	5094
841.29	5383
841.427	5311
841.564	5292
841.701	5357
841.838	5296
841.975	5189
842.112	5220
842.249	5124
842.385	5094
842.522	5383
842.659	5189
842.796	5162
842.933	5201
843.069	5151
843.206	5174
843.343	5353
843.479	5254
843.616	5220
843.752	5037
843.889	5006
844.025	5223
844.162	4995
844.298	5204
844.435	5056
844.571	5067
844.708	5235
844.844	5292
844.98	5303
845.117	5242
845.253	5132
845.389	5117
845.525	5178
845.661	5121
845.798	5048
845.934	5155
846.07	5094
846.206	5181
846.342	5307
846.478	5174
846.614	5003
846.75	4976
846.886	5010
847.022	5105
847.158	4980
847.294	5098
847.429	5090
847.565	5067
847.701	5337
847.837	4843
847.972	4755
848.108	4984
848.244	4930
848.379	4820
848.515	4714
848.65	4774
848.786	4767
848.921	4778
849.057	4782
849.192	4870
849.328	4862
849.463	4824
849.598	4843
849.734	4767
849.869	4687
850.004	4618
850.14	4672
850.275	4596
850.41	4550
850.545	4584
850.68	4596
850.815	4660
850.95	4641
851.085	4873
851.22	4729
851.355	4618
851.49	4649
851.625	4626
851.76	4641
851.895	4535
852.03	4519
852.165	4664
852.299	4736
852.434	4812
852.569	4702
852.703	4752
852.838	4847
852.973	4942
853.107	4915
853.242	4763
853.376	4641
853.511	4508
853.645	4611
853.78	4835
853.914	4729
854.048	4634
854.183	4630
854.317	4691
854.451	4835
854.585	4645
854.72	4607
854.854	4801
854.988	4592
855.122	4656
855.256	4493
855.39	4683
855.524	4767
855.658	4717
855.792	4668
855.926	4748
856.06	4752
856.194	4767
856.327	4698
856.461	4603
856.595	4618
856.729	4611
856.862	4771
856.996	4698
857.13	4740
857.263	4694
857.397	4801
857.53	4611
857.664	4740
857.797	4782
857.931	4816
858.064	4702
858.197	4717
858.331	4672
858.464	4615
858.597	4489
858.731	4645
858.864	4679
858.997	4622
859.13	4634
859.263	4679
859.396	4714
859.529	4618
859.662	4538
859.795	4565
859.928	4607
860.061	4748
860.194	4725
860.327	4611
860.46	4573
860.592	4725
860.725	4660
860.858	4706
860.99	4580
861.123	4527
861.256	4558
861.388	4641
861.521	5337
861.653	4474
861.786	4470
861.918	4504
862.05	4519
862.183	4554
862.315	4618
862.447	4618
862.58	4546
862.712	4398
862.844	4379
862.976	4485
863.108	4459
863.24	4755
863.372	4352
863.504	4409
863.636	4390
863.768	4508
863.9	4466
864.032	4295
864.164	4363
864.296	4443
864.428	4546
864.559	4558
864.691	4558
864.823	4531
864.954	4481
865.086	4481
865.217	4478
865.349	4447
865.48	4424
865.612	4466
865.743	4588
865.875	4504
866.006	4443
866.137	4493
866.269	4462
866.4	4421
866.531	4436
866.662	4436
866.793	4356
866.924	4405
867.055	4474
867.186	4470
867.317	4379
867.448	4318
867.579	4375
867.71	4333
867.841	4390
867.972	4451
868.103	4504
868.233	4443
868.364	4432
868.495	4508
868.625	4645
868.756	4744
868.886	4615
869.017	4573
869.147	4748
869.278	4721
869.408	4729
869.539	4664
869.669	4694
869.799	4668
869.929	4790
870.06	4725
870.19	4923
870.32	4877
870.45	4942
870.58	5022
870.71	5086
870.84	5064
870.97	4908
871.1	4885
871.23	5113
871.36	5166
871.489	5094
871.619	5060
871.749	5121
871.879	5155
872.008	5193
872.138	5064
872.267	4934
872.397	4801
872.526	4828
872.656	4675
872.785	4786
872.915	4904
873.044	5029
873.173	4915
873.303	5003
873.432	4934
873.561	4987
873.69	4889
873.819	4870
873.948	4900
874.077	4763
874.206	4786
874.335	4771
874.464	4911
874.593	5025
874.722	4961
874.851	5067
874.979	5071
875.108	5025
875.237	4923
875.365	4877
875.494	4873
875.623	4984
875.751	4854
875.88	4873
876.008	5003
876.136	5037
876.265	5181
876.393	5337
876.521	5246
876.65	5197
876.778	5147
876.906	5075
877.034	4987
877.162	5048
877.29	4995
877.418	5064
877.546	5064
877.674	4999
877.802	5060
877.93	5045
878.058	4923
878.185	4870
878.313	4934
878.441	4987
878.568	4778
878.696	4877
878.824	4942
878.951	4999
879.079	5124
879.206	5227
879.333	5056
879.461	5025
879.588	4987
879.715	5067
879.842	5208
879.97	5006
880.097	4782
880.224	4740
880.351	4831
880.478	4843
880.605	4797
880.732	4831
880.859	5056
880.986	4900
881.112	4915
881.239	4790
881.366	4683
881.493	4615
881.619	4558
881.746	4645
881.872	4649
881.999	4618
882.125	4755
882.252	4774
882.378	4828
882.505	4923
882.631	4828
882.757	4649
882.883	4729
883.01	4725
883.136	4645
883.262	4641
883.388	4611
883.514	4801
883.64	4847
883.766	4828
883.892	4634
884.018	4740
884.143	4892
884.269	4976
884.395	4615
884.52	4664
884.646	4691
884.772	4577
884.897	4558
885.023	4675
885.148	4809
885.274	4915
885.399	4805
885.524	4702
885.65	4694
885.775	4778
885.9	4698
886.025	4881
886.15	4812
886.275	4748
886.4	4649
886.525	4736
886.65	4672
886.775	4687
886.9	4881
887.025	5060
887.149	4816
887.274	4641
887.399	4558
887.523	4596
887.648	4550
887.773	4653
887.897	4816
888.021	4771
888.146	4698
888.27	4767
888.395	4900
888.519	4801
888.643	4774
888.767	4771
888.891	4687
889.015	4641
889.139	4641
889.263	4615
889.387	4755
889.511	4835
889.635	4801
889.759	4660
889.883	4653
890.006	4755
890.13	4854
890.254	4577
890.377	4725
890.501	4512
890.624	4508
890.748	4618
890.871	4497
890.995	4447
891.118	4375
891.241	4523
891.364	4538
891.488	4649
891.611	4512
891.734	4504
891.857	4611
891.98	4535
892.103	4637
892.226	4561
892.349	4535
892.471	4405
892.594	4512
892.717	4561
892.839	4569
892.962	4611
893.085	4664
893.207	4592
893.33	4523
893.452	4561
893.575	4649
893.697	4630
893.819	4870
893.941	4866
894.064	4752
894.186	4580
894.308	4569
894.43	4714
894.552	4873
894.674	4736
894.796	4561
894.918	4592
895.04	4603
895.161	4645
895.283	4710
895.405	4558
895.526	4634
895.648	4672
895.769	4683
895.891	4702
896.012	4725
896.134	4717
896.255	4675
896.376	4618
896.498	4637
896.619	4660
896.74	4607
896.861	4649
896.982	4953
897.103	5067
897.224	4824
897.345	4740
897.466	4691
897.587	4744
897.708	4908
897.828	4797
897.949	4710
898.07	4596
898.19	4683
898.311	4854
898.431	4656
898.552	4721
898.672	4816
898.792	4793
898.913	4771
899.033	4622
899.153	4504
899.273	4443
899.393	4504
899.513	4485
899.633	4497
899.753	4542
899.873	4481
899.993	4550
900.113	4565
900.232	4569
900.352	4531
900.472	4474
900.591	4386
900.711	4504
900.83	4447
900.95	4615
901.069	4683
901.189	4577
901.308	4379
901.427	4329
901.546	4379
901.665	4478
901.784	4493
901.904	4390
902.023	4344
902.141	4166
902.26	4185
902.379	4325
902.498	4219
902.617	4196
902.735	4394
902.854	4383
902.973	4341
903.091	4177
903.21	4188
903.328	4295
903.446	4246
903.565	4246
903.683	4348
903.801	4223
903.919	4367
904.038	4413
904.156	4276
904.274	4424
904.392	4413
904.51	4436
904.627	4413
904.745	4573
904.863	4660
904.981	4394
905.098	4318
905.216	4348
905.334	4443
905.451	4459
905.569	4409
905.686	4542
905.803	4599
905.921	4421
906.038	4577
906.155	4485
906.272	4371
906.389	4390
906.506	4337
906.623	4367
906.74	4402
906.857	4341
906.974	4371
907.091	4527
907.208	4752
907.324	4580
907.441	4455
907.557	4356
907.674	4363
907.79	4329
907.907	4356
908.023	4474
908.139	4451
908.256	4459
908.372	4428
908.488	4455
908.604	4356
908.72	4322
908.836	4390
908.952	4390
909.068	4443
909.184	4588
909.3	4440
909.415	4603
909.531	4542
909.647	4386
909.762	4394
909.878	4314
909.993	4413
910.108	4455
910.224	4424
910.339	4497
910.454	4360
910.57	4341
910.685	4367
910.8	4679
910.915	4577
911.03	4478
911.145	4348
911.259	4322
911.374	4337
911.489	4295
911.604	4257
911.718	4188
911.833	4169
911.947	4120
912.062	4048
912.176	4249
912.291	4261
912.405	4268
912.519	4466
912.633	4481
912.748	4329
912.862	4318
912.976	4207
913.09	4112
913.204	4230
913.318	4257
913.431	4352
913.545	4386
913.659	4413
913.772	4352
913.886	4215
914	4249
914.113	4409
914.226	4409
914.34	4390
914.453	4253
914.566	4440
914.68	4322
914.793	4272
914.906	4135
915.019	4158
915.132	4063
915.245	4162
915.358	4181
915.47	4219
915.583	4268
915.696	4280
915.809	4379
915.921	4432
916.034	4238
916.146	4242
916.259	4223
916.371	4383
916.483	4341
916.595	4253
916.708	4333
916.82	4360
916.932	4337
917.044	4325
917.156	4306
917.268	4204
917.38	4287
917.491	4284
917.603	4329
917.715	4421
917.826	4432
917.938	4341
918.049	4257
918.161	4360
918.272	4558
918.384	4565
918.495	4451
918.606	4253
918.717	4276
918.828	4363
918.939	4424
919.05	4215
919.161	4375
919.272	4128
919.383	4242
919.494	4504
919.604	4653
919.715	4432
919.826	4348
919.936	4394
920.047	4550
920.157	4478
920.267	4649
920.378	4603
920.488	4497
920.598	4679
920.708	4892
920.818	4752
920.928	4778
921.038	4927
921.148	4923
921.258	4592
921.368	4580
921.477	4470
921.587	4474
921.697	4394
921.806	4500
921.916	4405
922.025	4261
922.134	4276
922.244	4219
922.353	4299
922.462	4196
922.571	4154
922.68	4025
922.789	3979
922.898	4029
923.007	4002
923.116	4082
923.224	4040
923.333	4082
923.442	3991
923.55	3968
923.659	4010
923.767	4051
923.876	3964
923.984	4109
924.092	3987
924.201	4063
924.309	4105
924.417	4128
924.525	4055
924.633	4086
924.741	5067
924.849	3918
924.956	4131
925.064	3934
925.172	3869
925.279	3937
925.387	4048
925.494	4044
925.602	4211
925.709	4154
925.816	4044
925.924	4128
926.031	4242
926.138	4185
926.245	4188
926.352	4032
926.459	4253
926.566	4333
926.673	4131
926.779	4105
926.886	4097
926.993	3998
927.099	3941
927.206	3915
927.312	3945
927.419	4055
927.525	3998
927.631	4097
927.737	3979
927.843	3918
927.95	3846
928.056	3934
928.162	3964
928.267	4086
928.373	4675
928.479	4120
928.585	3915
928.69	4032
928.796	4055
928.901	3960
929.007	3819
929.112	4051
929.218	3956
929.323	3979
929.428	3907
929.533	4154
929.638	3934
929.743	3956
929.848	4025
929.953	4036
930.058	3926
930.163	3778
930.267	3797
930.372	3930
930.477	3823
930.581	4082
930.685	3926
930.79	3827
930.894	3896
930.998	3857
931.103	4025
931.207	3709
931.311	3701
931.415	3671
931.519	3553
931.623	3576
