Data from test_V78500241_1052.txt Node
Date: Fri Mar 25 16:56:19 CST 2022
User: usil
Spectrometer: V785-0024
Trigger mode: 0
Integration Time (sec): 4.000000E-1
Scans to average: 1
Nonlinearity correction enabled: false
Boxcar width: 0
Storing dark spectrum: false
XAxis mode: Wavelengths
Number of Pixels in Spectrum: 1024
>>>>>Begin Spectral Data<<<<<
801.071	8012
801.214	8054
801.356	7860
801.499	7814
801.641	7788
801.783	7761
801.926	7936
802.068	7928
802.211	7887
802.353	7970
802.496	7807
802.638	7856
802.78	7875
802.923	7940
803.065	7913
803.208	7849
803.35	7936
803.492	8100
803.635	8142
803.777	8024
803.919	8164
804.061	8473
804.204	8164
804.346	8027
804.488	7993
804.63	8107
804.773	7955
804.915	8031
805.057	8187
805.199	8180
805.341	8202
805.483	8206
805.626	8191
805.768	8081
805.91	8206
806.052	8248
806.194	8100
806.336	8221
806.478	8100
806.62	8065
806.762	8107
806.904	8298
807.046	8434
807.188	8298
807.33	8294
807.472	8313
807.614	8172
807.756	8134
807.898	8035
808.04	7868
808.182	7917
808.324	7879
808.465	7906
808.607	8046
808.749	8115
808.891	8145
809.033	8279
809.174	8176
809.316	8035
809.458	8012
809.6	7963
809.741	7970
809.883	8054
810.025	8065
810.166	8035
810.308	8008
810.45	7997
810.591	7894
810.733	7719
810.875	7643
811.016	7499
811.158	7502
811.299	7510
811.441	7742
811.582	7666
811.724	7518
811.865	7495
812.007	7540
812.148	7597
812.29	7651
812.431	7696
812.573	7860
812.714	7970
812.855	8081
812.997	8199
813.138	8313
813.279	8153
813.421	8050
813.562	7993
813.703	7776
813.845	7715
813.986	7464
814.127	7285
814.268	7225
814.41	7175
814.551	7095
814.692	7088
814.833	7031
814.974	7072
815.115	7076
815.256	6970
815.397	6818
815.539	6897
815.68	6787
815.821	6829
815.962	6810
816.103	6783
816.244	6738
816.385	6608
816.526	6601
816.666	6448
816.807	6289
816.948	6445
817.089	6490
817.23	6414
817.371	6422
817.512	6384
817.653	6334
817.793	6380
817.934	6376
818.075	6410
818.216	6429
818.356	6376
818.497	6216
818.638	6106
818.778	6136
818.919	6144
819.06	6121
819.2	6300
819.341	6281
819.481	6384
819.622	6521
819.762	6734
819.903	6681
820.043	6635
820.184	6532
820.324	6536
820.465	6627
820.605	6700
820.746	6570
820.886	6471
821.026	6597
821.167	6631
821.307	6806
821.447	6772
821.588	6639
821.728	6593
821.868	6494
822.008	6281
822.149	6350
822.289	6308
822.429	6076
822.569	6076
822.709	6152
822.849	5893
822.99	5874
823.13	5931
823.27	5885
823.41	5733
823.55	5756
823.69	5752
823.83	5733
823.97	5630
824.11	5532
824.25	5459
824.389	5516
824.529	5505
824.669	5532
824.809	5592
824.949	5642
825.089	5596
825.228	5516
825.368	5395
825.508	5315
825.648	5345
825.787	5353
825.927	5322
826.067	5258
826.206	5261
826.346	5383
826.485	5395
826.625	5364
826.765	5497
826.904	5444
827.044	5303
827.183	5242
827.323	5140
827.462	5227
827.601	5140
827.741	5181
827.88	5197
828.02	5067
828.159	5273
828.298	5288
828.437	5269
828.577	5239
828.716	5459
828.855	5318
828.994	5143
829.134	5124
829.273	5178
829.412	5083
829.551	5140
829.69	5162
829.829	5235
829.968	5345
830.107	5242
830.246	5280
830.385	5201
830.524	5105
830.663	5071
830.802	4953
830.941	4885
831.08	4835
831.219	4919
831.357	4976
831.496	5105
831.635	4896
831.774	4873
831.913	4805
832.051	4706
832.19	4725
832.329	4759
832.467	4660
832.606	4645
832.744	4717
832.883	4679
833.022	4698
833.16	4759
833.299	4797
833.437	4801
833.576	4831
833.714	4809
833.852	4896
833.991	4881
834.129	4919
834.267	4892
834.406	4843
834.544	4968
834.682	4934
834.821	4946
834.959	5170
835.097	5014
835.235	5117
835.373	5025
835.511	5064
835.65	5045
835.788	4999
835.926	4881
836.064	4908
836.202	4885
836.34	5117
836.478	5208
836.615	5060
836.753	5151
836.891	5254
837.029	5231
837.167	5147
837.305	5170
837.443	5136
837.58	5018
837.718	5261
837.856	5166
837.993	5136
838.131	5223
838.269	5193
838.406	5189
838.544	5189
838.681	5022
838.819	4976
838.956	4896
839.094	4858
839.231	4972
839.369	5083
839.506	5414
839.643	5250
839.781	5041
839.918	5010
840.055	5090
840.193	5094
840.33	5117
840.467	5098
840.604	5170
840.742	5433
840.879	5052
841.016	5045
841.153	5128
841.29	5379
841.427	5379
841.564	5303
841.701	5372
841.838	5193
841.975	5220
842.112	5189
842.249	5075
842.385	5067
842.522	5288
842.659	5204
842.796	5204
842.933	5216
843.069	5075
843.206	5132
843.343	5345
843.479	5201
843.616	5208
843.752	5010
843.889	5014
844.025	5174
844.162	4972
844.298	5166
844.435	5041
844.571	5064
844.708	5132
844.844	5261
844.98	5277
845.117	5280
845.253	5155
845.389	5094
845.525	5109
845.661	5166
845.798	5033
845.934	5109
846.07	5041
846.206	5212
846.342	5204
846.478	5132
846.614	5006
846.75	4934
846.886	4942
847.022	5098
847.158	4999
847.294	5010
847.429	5041
847.565	5045
847.701	5322
847.837	4850
847.972	4820
848.108	4942
848.244	4885
848.379	4733
848.515	4736
848.65	4714
848.786	4744
848.921	4755
849.057	4843
849.192	4908
849.328	4862
849.463	4778
849.598	4755
849.734	4774
849.869	4653
850.004	4607
850.14	4637
850.275	4577
850.41	4489
850.545	4565
850.68	4584
850.815	4580
850.95	4645
851.085	4831
851.22	4771
851.355	4668
851.49	4618
851.625	4641
851.76	4649
851.895	4535
852.03	4542
852.165	4592
852.299	4740
852.434	4771
852.569	4675
852.703	4797
852.838	4820
852.973	4908
853.107	4927
853.242	4717
853.376	4626
853.511	4573
853.645	4622
853.78	4793
853.914	4694
854.048	4679
854.183	4603
854.317	4744
854.451	4767
854.585	4675
854.72	4603
854.854	4721
854.988	4550
855.122	4641
855.256	4478
855.39	4637
855.524	4752
855.658	4721
855.792	4641
855.926	4687
856.06	4679
856.194	4755
856.327	4691
856.461	4527
856.595	4584
856.729	4634
856.862	4706
856.996	4653
857.13	4740
857.263	4736
857.397	4771
857.53	4626
857.664	4748
857.797	4759
857.931	4744
858.064	4634
858.197	4710
858.331	4649
858.464	4558
858.597	4523
858.731	4615
858.864	4622
858.997	4554
859.13	4622
859.263	4596
859.396	4668
859.529	4561
859.662	4558
859.795	4558
859.928	4607
860.061	4740
860.194	4717
860.327	4554
860.46	4596
860.592	4675
860.725	4668
860.858	4675
860.99	4554
861.123	4535
861.256	4519
861.388	4626
861.521	5307
861.653	4500
861.786	4394
861.918	4443
862.05	4508
862.183	4550
862.315	4577
862.447	4618
862.58	4512
862.712	4363
862.844	4341
862.976	4432
863.108	4405
863.24	4824
863.372	4314
863.504	4390
863.636	4344
863.768	4455
863.9	4459
864.032	4329
864.164	4383
864.296	4402
864.428	4554
864.559	4569
864.691	4447
864.823	4508
864.954	4474
865.086	4440
865.217	4398
865.349	4379
865.48	4436
865.612	4413
865.743	4561
865.875	4409
866.006	4398
866.137	4413
866.269	4398
866.4	4432
866.531	4405
866.662	4360
866.793	4394
866.924	4424
867.055	4421
867.186	4451
867.317	4394
867.448	4325
867.579	4398
867.71	4375
867.841	4363
867.972	4405
868.103	4390
868.233	4462
868.364	4386
868.495	4485
868.625	4694
868.756	4755
868.886	4603
869.017	4611
869.147	4778
869.278	4774
869.408	4645
869.539	4687
869.669	4721
869.799	4653
869.929	4748
870.06	4694
870.19	4999
870.32	4892
870.45	4923
870.58	5052
870.71	5060
870.84	5113
870.97	4942
871.1	4904
871.23	5178
871.36	5128
871.489	5041
871.619	5067
871.749	5086
871.879	5151
872.008	5178
872.138	5056
872.267	4999
872.397	4870
872.526	4828
872.656	4706
872.785	4820
872.915	4927
873.044	5075
873.173	4908
873.303	4991
873.432	4984
873.561	4946
873.69	4904
873.819	4900
873.948	4927
874.077	4790
874.206	4790
874.335	4854
874.464	4961
874.593	5075
874.722	5003
874.851	5132
874.979	5060
875.108	5064
875.237	4934
875.365	4949
875.494	4927
875.623	5041
875.751	4896
875.88	4957
876.008	5006
876.136	5018
876.265	5208
876.393	5345
876.521	5269
876.65	5239
876.778	5250
876.906	5075
877.034	5025
877.162	5060
877.29	5048
877.418	5048
877.546	5029
877.674	5060
877.802	5075
877.93	5075
878.058	4953
878.185	4900
878.313	4980
878.441	4965
878.568	4854
878.696	4942
878.824	4949
878.951	5067
879.079	5151
879.206	5261
879.333	5109
879.461	5010
879.588	5048
879.715	5102
879.842	5277
879.97	5052
880.097	4774
880.224	4797
880.351	4843
880.478	4885
880.605	4824
880.732	4885
880.859	5132
880.986	4938
881.112	4938
881.239	4812
881.366	4691
881.493	4683
881.619	4664
881.746	4649
881.872	4694
881.999	4634
882.125	4717
882.252	4786
882.378	4847
882.505	5033
882.631	4790
882.757	4691
882.883	4809
883.01	4714
883.136	4698
883.262	4626
883.388	4645
883.514	4824
883.64	4904
883.766	4858
883.892	4717
884.018	4736
884.143	4892
884.269	4999
884.395	4714
884.52	4599
884.646	4683
884.772	4584
884.897	4580
885.023	4683
885.148	4771
885.274	4847
885.399	4877
885.524	4759
885.65	4714
885.775	4740
885.9	4763
886.025	4877
886.15	4733
886.275	4744
886.4	4706
886.525	4744
886.65	4736
886.775	4721
886.9	4957
887.025	5048
887.149	4809
887.274	4675
887.399	4611
887.523	4565
887.648	4618
887.773	4645
887.897	4771
888.021	4801
888.146	4675
888.27	4847
888.395	4927
888.519	4835
888.643	4831
888.767	4847
888.891	4645
889.015	4634
889.139	4687
889.263	4645
889.387	4801
889.511	4873
889.635	4782
889.759	4649
889.883	4645
890.006	4809
890.13	4831
890.254	4645
890.377	4710
890.501	4584
890.624	4516
890.748	4653
890.871	4523
890.995	4413
891.118	4417
891.241	4535
891.364	4577
891.488	4645
891.611	4527
891.734	4565
891.857	4687
891.98	4558
892.103	4656
892.226	4573
892.349	4577
892.471	4447
892.594	4550
892.717	4618
892.839	4599
892.962	4626
893.085	4683
893.207	4592
893.33	4462
893.452	4531
893.575	4698
893.697	4637
893.819	4831
893.941	4854
894.064	4771
894.186	4622
894.308	4592
894.43	4778
894.552	4858
894.674	4793
894.796	4580
894.918	4622
895.04	4565
895.161	4710
895.283	4694
895.405	4565
895.526	4668
895.648	4675
895.769	4634
895.891	4752
896.012	4786
896.134	4740
896.255	4691
896.376	4603
896.498	4580
896.619	4702
896.74	4618
896.861	4694
896.982	4915
897.103	5083
897.224	4816
897.345	4778
897.466	4702
897.587	4736
897.708	4866
897.828	4782
897.949	4698
898.07	4569
898.19	4679
898.311	4854
898.431	4702
898.552	4774
898.672	4828
898.792	4820
898.913	4763
899.033	4653
899.153	4523
899.273	4462
899.393	4538
899.513	4573
899.633	4542
899.753	4565
899.873	4531
899.993	4599
900.113	4500
900.232	4637
900.352	4599
900.472	4489
900.591	4409
900.711	4455
900.83	4470
900.95	4622
901.069	4698
901.189	4577
901.308	4417
901.427	4265
901.546	4390
901.665	4519
901.784	4523
901.904	4413
902.023	4318
902.141	4246
902.26	4211
902.379	4322
902.498	4287
902.617	4242
902.735	4398
902.854	4436
902.973	4367
903.091	4207
903.21	4227
903.328	4314
903.446	4284
903.565	4272
903.683	4360
903.801	4329
903.919	4413
904.038	4413
904.156	4310
904.274	4466
904.392	4421
904.51	4447
904.627	4546
904.745	4622
904.863	4668
904.981	4383
905.098	4295
905.216	4360
905.334	4390
905.451	4428
905.569	4497
905.686	4588
905.803	4554
905.921	4432
906.038	4546
906.155	4478
906.272	4409
906.389	4455
906.506	4375
906.623	4375
906.74	4447
906.857	4344
906.974	4371
907.091	4592
907.208	4721
907.324	4603
907.441	4554
907.557	4398
907.674	4386
907.79	4341
907.907	4367
908.023	4516
908.139	4474
908.256	4447
908.372	4470
908.488	4474
908.604	4360
908.72	4306
908.836	4421
908.952	4379
909.068	4421
909.184	4535
909.3	4470
909.415	4584
909.531	4577
909.647	4344
909.762	4363
909.878	4337
909.993	4466
910.108	4428
910.224	4428
910.339	4493
910.454	4424
910.57	4379
910.685	4337
910.8	4656
910.915	4588
911.03	4481
911.145	4310
911.259	4341
911.374	4383
911.489	4360
911.604	4295
911.718	4188
911.833	4234
911.947	4074
912.062	4040
912.176	4215
912.291	4230
912.405	4242
912.519	4455
912.633	4523
912.748	4371
912.862	4303
912.976	4211
913.09	4116
913.204	4204
913.318	4257
913.431	4360
913.545	4421
913.659	4447
913.772	4383
913.886	4257
914	4242
914.113	4402
914.226	4474
914.34	4417
914.453	4284
914.566	4462
914.68	4363
914.793	4337
914.906	4200
915.019	4128
915.132	4074
915.245	4147
915.358	4223
915.47	4223
915.583	4329
915.696	4337
915.809	4383
915.921	4424
916.034	4280
916.146	4272
916.259	4192
916.371	4398
916.483	4405
916.595	4276
916.708	4341
916.82	4314
916.932	4322
917.044	4337
917.156	4333
917.268	4230
917.38	4291
917.491	4310
917.603	4356
917.715	4402
917.826	4455
917.938	4386
918.049	4287
918.161	4375
918.272	4580
918.384	4523
918.495	4428
918.606	4299
918.717	4253
918.828	4352
918.939	4405
919.05	4261
919.161	4352
919.272	4143
919.383	4261
919.494	4459
919.604	4611
919.715	4474
919.826	4371
919.936	4405
920.047	4500
920.157	4519
920.267	4694
920.378	4561
920.488	4500
920.598	4679
920.708	4881
920.818	4771
920.928	4710
921.038	4968
921.148	4938
921.258	4592
921.368	4580
921.477	4500
921.587	4459
921.697	4383
921.806	4561
921.916	4417
922.025	4314
922.134	4249
922.244	4188
922.353	4303
922.462	4147
922.571	4173
922.68	4048
922.789	3991
922.898	4036
923.007	4048
923.116	4135
923.224	4101
923.333	4086
923.442	3983
923.55	3987
923.659	4010
923.767	4139
923.876	4044
923.984	4154
924.092	4051
924.201	4086
924.309	4090
924.417	4150
924.525	4063
924.633	4097
924.741	5083
924.849	3880
924.956	4109
925.064	3972
925.172	3911
925.279	3960
925.387	4048
925.494	4074
925.602	4219
925.709	4185
925.816	4002
925.924	4188
926.031	4204
926.138	4154
926.245	4196
926.352	4109
926.459	4287
926.566	4318
926.673	4177
926.779	4071
926.886	4021
926.993	3964
927.099	3937
927.206	3972
927.312	3934
927.419	4116
927.525	4051
927.631	4055
927.737	3975
927.843	3953
927.95	3850
928.056	3960
928.162	4040
928.267	4051
928.373	4672
928.479	4143
928.585	3915
928.69	3964
928.796	4116
928.901	3960
929.007	3854
929.112	3991
929.218	4010
929.323	3953
929.428	3956
929.533	4139
929.638	3892
929.743	3972
929.848	4048
929.953	3994
930.058	3949
930.163	3800
930.267	3873
930.372	3983
930.477	3819
930.581	4112
930.685	3945
930.79	3854
930.894	3873
930.998	3865
931.103	4051
931.207	3709
931.311	3705
931.415	3671
931.519	3496
931.623	3568
