Data from test_V78500241_1894.txt Node
Date: Fri Mar 25 17:02:10 CST 2022
User: usil
Spectrometer: V785-0024
Trigger mode: 0
Integration Time (sec): 4.000000E-1
Scans to average: 1
Nonlinearity correction enabled: false
Boxcar width: 0
Storing dark spectrum: false
XAxis mode: Wavelengths
Number of Pixels in Spectrum: 1024
>>>>>Begin Spectral Data<<<<<
801.071	7978
801.214	7974
801.356	7868
801.499	7818
801.641	7856
801.783	7761
801.926	7951
802.068	7875
802.211	7909
802.353	7978
802.496	7818
802.638	7875
802.78	7913
802.923	7898
803.065	7803
803.208	7807
803.35	8039
803.492	8046
803.635	8145
803.777	8020
803.919	8138
804.061	8423
804.204	8142
804.346	8054
804.488	7963
804.63	8088
804.773	7940
804.915	8142
805.057	8305
805.199	8145
805.341	8130
805.483	8282
805.626	8206
805.768	8100
805.91	8183
806.052	8233
806.194	8142
806.336	8290
806.478	8103
806.62	8012
806.762	8138
806.904	8199
807.046	8484
807.188	8332
807.33	8305
807.472	8324
807.614	8157
807.756	8142
807.898	7967
808.04	7852
808.182	7978
808.324	7902
808.465	7883
808.607	8039
808.749	8130
808.891	8134
809.033	8252
809.174	8202
809.316	8046
809.458	8012
809.6	8005
809.741	8012
809.883	7997
810.025	8054
810.166	8062
810.308	8020
810.45	7917
810.591	7776
810.733	7723
810.875	7620
811.016	7529
811.158	7430
811.299	7578
811.441	7681
811.582	7666
811.724	7556
811.865	7525
812.007	7601
812.148	7636
812.29	7605
812.431	7742
812.573	7841
812.714	8008
812.855	8084
812.997	8218
813.138	8317
813.279	8210
813.421	8119
813.562	7947
813.703	7792
813.845	7731
813.986	7403
814.127	7206
814.268	7266
814.41	7168
814.551	7217
814.692	7324
814.833	7080
814.974	7145
815.115	7103
815.256	6951
815.397	6966
815.539	6905
815.68	6837
815.821	6787
815.962	6897
816.103	6745
816.244	6703
816.385	6601
816.526	6570
816.666	6475
816.807	6331
816.948	6388
817.089	6532
817.23	6456
817.371	6380
817.512	6327
817.653	6448
817.793	6388
817.934	6384
818.075	6486
818.216	6380
818.356	6422
818.497	6197
818.638	6144
818.778	6155
818.919	6144
819.06	6163
819.2	6334
819.341	6334
819.481	6372
819.622	6536
819.762	6665
819.903	6662
820.043	6623
820.184	6555
820.324	6555
820.465	6703
820.605	6673
820.746	6684
820.886	6494
821.026	6688
821.167	6665
821.307	6772
821.447	6783
821.588	6642
821.728	6658
821.868	6486
822.008	6319
822.149	6311
822.289	6296
822.429	6106
822.569	6045
822.709	6098
822.849	5954
822.99	5897
823.13	5939
823.27	5878
823.41	5752
823.55	5767
823.69	5779
823.83	5760
823.97	5627
824.11	5509
824.25	5535
824.389	5505
824.529	5619
824.669	5509
824.809	5592
824.949	5676
825.089	5608
825.228	5589
825.368	5372
825.508	5341
825.648	5330
825.787	5402
825.927	5387
826.067	5353
826.206	5303
826.346	5364
826.485	5364
826.625	5421
826.765	5539
826.904	5547
827.044	5261
827.183	5128
827.323	5166
827.462	5277
827.601	5143
827.741	5178
827.88	5216
828.02	5121
828.159	5208
828.298	5311
828.437	5315
828.577	5284
828.716	5440
828.855	5341
828.994	5132
829.134	5128
829.273	5189
829.412	5166
829.551	5132
829.69	5174
829.829	5140
829.968	5341
830.107	5231
830.246	5269
830.385	5216
830.524	5117
830.663	5079
830.802	4946
830.941	4854
831.08	4850
831.219	4927
831.357	4957
831.496	5151
831.635	4946
831.774	4870
831.913	4820
832.051	4740
832.19	4767
832.329	4793
832.467	4679
832.606	4630
832.744	4733
832.883	4721
833.022	4729
833.16	4790
833.299	4812
833.437	4774
833.576	4831
833.714	4850
833.852	4839
833.991	4915
834.129	4961
834.267	4927
834.406	4900
834.544	4976
834.682	4987
834.821	4968
834.959	5147
835.097	4995
835.235	5128
835.373	5037
835.511	5121
835.65	4968
835.788	4999
835.926	4858
836.064	4930
836.202	4911
836.34	5155
836.478	5170
836.615	5113
836.753	5231
836.891	5292
837.029	5280
837.167	5181
837.305	5117
837.443	5132
837.58	5117
837.718	5212
837.856	5166
837.993	5140
838.131	5235
838.269	5181
838.406	5174
838.544	5174
838.681	5086
838.819	5025
838.956	4870
839.094	4919
839.231	4957
839.369	5045
839.506	5410
839.643	5216
839.781	5052
839.918	4980
840.055	5109
840.193	5029
840.33	5029
840.467	5132
840.604	5170
840.742	5440
840.879	5052
841.016	5056
841.153	5140
841.29	5360
841.427	5337
841.564	5250
841.701	5387
841.838	5239
841.975	5239
842.112	5201
842.249	5094
842.385	5075
842.522	5296
842.659	5132
842.796	5136
842.933	5220
843.069	5162
843.206	5128
843.343	5322
843.479	5204
843.616	5220
843.752	5022
843.889	5003
844.025	5151
844.162	5018
844.298	5151
844.435	5060
844.571	5033
844.708	5216
844.844	5261
844.98	5303
845.117	5258
845.253	5140
845.389	5098
845.525	5166
845.661	5094
845.798	5003
845.934	5124
846.07	5052
846.206	5174
846.342	5273
846.478	5216
846.614	5018
846.75	4972
846.886	4946
847.022	5162
847.158	5056
847.294	5041
847.429	5094
847.565	4991
847.701	5318
847.837	4824
847.972	4831
848.108	4938
848.244	4915
848.379	4740
848.515	4691
848.65	4687
848.786	4736
848.921	4786
849.057	4915
849.192	4877
849.328	4831
849.463	4843
849.598	4782
849.734	4733
849.869	4694
850.004	4611
850.14	4630
850.275	4615
850.41	4508
850.545	4577
850.68	4615
850.815	4607
850.95	4611
851.085	4835
851.22	4763
851.355	4660
851.49	4626
851.625	4622
851.76	4607
851.895	4531
852.03	4554
852.165	4641
852.299	4637
852.434	4759
852.569	4694
852.703	4786
852.838	4858
852.973	4976
853.107	4957
853.242	4702
853.376	4683
853.511	4531
853.645	4542
853.78	4801
853.914	4706
854.048	4649
854.183	4603
854.317	4649
854.451	4854
854.585	4664
854.72	4664
854.854	4702
854.988	4615
855.122	4656
855.256	4500
855.39	4622
855.524	4755
855.658	4717
855.792	4706
855.926	4672
856.06	4725
856.194	4816
856.327	4683
856.461	4588
856.595	4607
856.729	4626
856.862	4748
856.996	4748
857.13	4725
857.263	4717
857.397	4820
857.53	4565
857.664	4706
857.797	4736
857.931	4714
858.064	4668
858.197	4725
858.331	4679
858.464	4577
858.597	4466
858.731	4607
858.864	4607
858.997	4580
859.13	4660
859.263	4664
859.396	4675
859.529	4577
859.662	4596
859.795	4527
859.928	4637
860.061	4748
860.194	4748
860.327	4580
860.46	4565
860.592	4672
860.725	4744
860.858	4714
860.99	4592
861.123	4546
861.256	4500
861.388	4615
861.521	5349
861.653	4485
861.786	4402
861.918	4470
862.05	4481
862.183	4550
862.315	4630
862.447	4611
862.58	4565
862.712	4409
862.844	4306
862.976	4462
863.108	4455
863.24	4831
863.372	4344
863.504	4375
863.636	4428
863.768	4462
863.9	4402
864.032	4371
864.164	4386
864.296	4485
864.428	4569
864.559	4512
864.691	4474
864.823	4508
864.954	4504
865.086	4474
865.217	4493
865.349	4352
865.48	4459
865.612	4474
865.743	4653
865.875	4474
866.006	4402
866.137	4504
866.269	4417
866.4	4417
866.531	4409
866.662	4428
866.793	4390
866.924	4409
867.055	4489
867.186	4462
867.317	4394
867.448	4322
867.579	4405
867.71	4325
867.841	4390
867.972	4470
868.103	4451
868.233	4459
868.364	4428
868.495	4500
868.625	4634
868.756	4740
868.886	4561
869.017	4599
869.147	4771
869.278	4793
869.408	4660
869.539	4672
869.669	4675
869.799	4664
869.929	4729
870.06	4694
870.19	4934
870.32	4877
870.45	4904
870.58	4999
870.71	5071
870.84	5067
870.97	4965
871.1	4919
871.23	5147
871.36	5143
871.489	5037
871.619	5090
871.749	5094
871.879	5094
872.008	5197
872.138	5029
872.267	4976
872.397	4812
872.526	4767
872.656	4694
872.785	4763
872.915	5003
873.044	5041
873.173	4881
873.303	4923
873.432	4965
873.561	4942
873.69	4892
873.819	4820
873.948	4843
874.077	4812
874.206	4736
874.335	4778
874.464	4949
874.593	5014
874.722	4911
874.851	5083
874.979	5079
875.108	4995
875.237	4866
875.365	4858
875.494	4896
875.623	4953
875.751	4824
875.88	4896
876.008	4972
876.136	4987
876.265	5193
876.393	5315
876.521	5239
876.65	5239
876.778	5178
876.906	5022
877.034	5094
877.162	5014
877.29	4927
877.418	5045
877.546	5029
877.674	5041
877.802	5025
877.93	5033
878.058	4908
878.185	4824
878.313	4915
878.441	4949
878.568	4778
878.696	4866
878.824	4942
878.951	5003
879.079	5124
879.206	5261
879.333	5132
879.461	4946
879.588	4991
879.715	5113
879.842	5258
879.97	4968
880.097	4721
880.224	4725
880.351	4778
880.478	4809
880.605	4805
880.732	4809
880.859	5075
880.986	4835
881.112	4930
881.239	4812
881.366	4675
881.493	4603
881.619	4607
881.746	4672
881.872	4649
881.999	4649
882.125	4653
882.252	4752
882.378	4873
882.505	5010
882.631	4725
882.757	4645
882.883	4698
883.01	4694
883.136	4641
883.262	4615
883.388	4615
883.514	4835
883.64	4839
883.766	4801
883.892	4645
884.018	4698
884.143	4877
884.269	5067
884.395	4656
884.52	4679
884.646	4592
884.772	4596
884.897	4546
885.023	4694
885.148	4710
885.274	4843
885.399	4805
885.524	4740
885.65	4698
885.775	4714
885.9	4687
886.025	4889
886.15	4778
886.275	4752
886.4	4641
886.525	4675
886.65	4683
886.775	4637
886.9	4896
887.025	4987
887.149	4816
887.274	4660
887.399	4637
887.523	4599
887.648	4584
887.773	4531
887.897	4729
888.021	4786
888.146	4733
888.27	4797
888.395	4862
888.519	4759
888.643	4778
888.767	4797
888.891	4656
889.015	4584
889.139	4634
889.263	4630
889.387	4767
889.511	4847
889.635	4820
889.759	4603
889.883	4626
890.006	4683
890.13	4854
890.254	4577
890.377	4675
890.501	4592
890.624	4497
890.748	4656
890.871	4531
890.995	4432
891.118	4386
891.241	4462
891.364	4512
891.488	4660
891.611	4489
891.734	4493
891.857	4565
891.98	4546
892.103	4649
892.226	4592
892.349	4485
892.471	4417
892.594	4554
892.717	4565
892.839	4538
892.962	4596
893.085	4645
893.207	4554
893.33	4413
893.452	4558
893.575	4656
893.697	4615
893.819	4767
893.941	4881
894.064	4790
894.186	4569
894.308	4546
894.43	4744
894.552	4786
894.674	4748
894.796	4565
894.918	4588
895.04	4603
895.161	4748
895.283	4622
895.405	4580
895.526	4630
895.648	4687
895.769	4672
895.891	4725
896.012	4664
896.134	4744
896.255	4668
896.376	4618
896.498	4573
896.619	4679
896.74	4584
896.861	4603
896.982	4858
897.103	5086
897.224	4801
897.345	4744
897.466	4641
897.587	4702
897.708	4870
897.828	4740
897.949	4721
898.07	4546
898.19	4622
898.311	4824
898.431	4694
898.552	4702
898.672	4828
898.792	4786
898.913	4740
899.033	4656
899.153	4508
899.273	4451
899.393	4497
899.513	4527
899.633	4523
899.753	4546
899.873	4523
899.993	4592
900.113	4512
900.232	4580
900.352	4565
900.472	4500
900.591	4371
900.711	4432
900.83	4379
900.95	4588
901.069	4656
901.189	4512
901.308	4303
901.427	4318
901.546	4405
901.665	4500
901.784	4481
901.904	4379
902.023	4322
902.141	4158
902.26	4143
902.379	4280
902.498	4215
902.617	4173
902.735	4348
902.854	4356
902.973	4383
903.091	4211
903.21	4246
903.328	4291
903.446	4276
903.565	4207
903.683	4344
903.801	4238
903.919	4398
904.038	4428
904.156	4322
904.274	4440
904.392	4371
904.51	4436
904.627	4459
904.745	4588
904.863	4611
904.981	4428
905.098	4299
905.216	4341
905.334	4371
905.451	4402
905.569	4428
905.686	4504
905.803	4565
905.921	4432
906.038	4531
906.155	4466
906.272	4375
906.389	4455
906.506	4348
906.623	4360
906.74	4413
906.857	4341
906.974	4348
907.091	4535
907.208	4637
907.324	4558
907.441	4440
907.557	4341
907.674	4371
907.79	4306
907.907	4322
908.023	4474
908.139	4447
908.256	4436
908.372	4443
908.488	4432
908.604	4322
908.72	4314
908.836	4344
908.952	4386
909.068	4409
909.184	4558
909.3	4447
909.415	4569
909.531	4470
909.647	4322
909.762	4344
909.878	4348
909.993	4424
910.108	4352
910.224	4443
910.339	4459
910.454	4390
910.57	4375
910.685	4284
910.8	4649
910.915	4538
911.03	4459
911.145	4352
911.259	4390
911.374	4329
911.489	4306
911.604	4287
911.718	4150
911.833	4169
911.947	4051
912.062	4040
912.176	4223
912.291	4234
912.405	4249
912.519	4493
912.633	4504
912.748	4341
912.862	4295
912.976	4188
913.09	4063
913.204	4166
913.318	4284
913.431	4371
913.545	4322
913.659	4379
913.772	4348
913.886	4238
914	4230
914.113	4375
914.226	4421
914.34	4325
914.453	4177
914.566	4417
914.68	4299
914.793	4310
914.906	4196
915.019	4109
915.132	4067
915.245	4177
915.358	4234
915.47	4185
915.583	4272
915.696	4272
915.809	4417
915.921	4394
916.034	4295
916.146	4257
916.259	4249
916.371	4329
916.483	4348
916.595	4177
916.708	4284
916.82	4295
916.932	4348
917.044	4360
917.156	4284
917.268	4188
917.38	4261
917.491	4234
917.603	4310
917.715	4371
917.826	4402
917.938	4356
918.049	4192
918.161	4402
918.272	4542
918.384	4531
918.495	4432
918.606	4261
918.717	4185
918.828	4341
918.939	4325
919.05	4234
919.161	4341
919.272	4101
919.383	4200
919.494	4386
919.604	4607
919.715	4440
919.826	4303
919.936	4405
920.047	4523
920.157	4527
920.267	4694
920.378	4527
920.488	4481
920.598	4740
920.708	4892
920.818	4740
920.928	4733
921.038	4900
921.148	4847
921.258	4634
921.368	4508
921.477	4485
921.587	4440
921.697	4363
921.806	4558
921.916	4432
922.025	4287
922.134	4310
922.244	4211
922.353	4329
922.462	4139
922.571	4131
922.68	4029
922.789	3964
922.898	4055
923.007	4021
923.116	4116
923.224	4071
923.333	4078
923.442	4002
923.55	4002
923.659	4032
923.767	4135
923.876	4021
923.984	4101
924.092	4025
924.201	4097
924.309	4093
924.417	4173
924.525	4086
924.633	4150
924.741	5033
924.849	3941
924.956	4150
925.064	3949
925.172	3960
925.279	4025
925.387	4101
925.494	4109
925.602	4188
925.709	4242
925.816	4055
925.924	4158
926.031	4257
926.138	4196
926.245	4223
926.352	4109
926.459	4227
926.566	4337
926.673	4169
926.779	4162
926.886	4082
926.993	4063
927.099	4029
927.206	3983
927.312	3983
927.419	4158
927.525	4086
927.631	4105
927.737	4055
927.843	3937
927.95	3857
928.056	3998
928.162	4013
928.267	4101
928.373	4626
928.479	4177
928.585	3903
928.69	4044
928.796	4093
928.901	4036
929.007	3892
929.112	4067
929.218	4010
929.323	4051
929.428	3987
929.533	4177
929.638	3956
929.743	4013
929.848	4105
929.953	4055
930.058	3949
930.163	3835
930.267	3857
930.372	3994
930.477	3831
930.581	4120
930.685	3956
930.79	3808
930.894	3884
930.998	3918
931.103	4097
931.207	3751
931.311	3736
931.415	3690
931.519	3523
931.623	3584
