Data from test_V78500241_2833.txt Node
Date: Fri Mar 25 17:08:42 CST 2022
User: usil
Spectrometer: V785-0024
Trigger mode: 0
Integration Time (sec): 4.000000E-1
Scans to average: 1
Nonlinearity correction enabled: false
Boxcar width: 0
Storing dark spectrum: false
XAxis mode: Wavelengths
Number of Pixels in Spectrum: 1024
>>>>>Begin Spectral Data<<<<<
801.071	8088
801.214	8001
801.356	7932
801.499	7890
801.641	7864
801.783	7811
801.926	8001
802.068	8054
802.211	8016
802.353	8001
802.496	7875
802.638	7940
802.78	7955
802.923	7913
803.065	7856
803.208	7925
803.35	8008
803.492	8145
803.635	8157
803.777	8119
803.919	8199
804.061	8492
804.204	8138
804.346	8088
804.488	7997
804.63	8115
804.773	8001
804.915	8180
805.057	8275
805.199	8157
805.341	8244
805.483	8275
805.626	8240
805.768	8153
805.91	8290
806.052	8237
806.194	8138
806.336	8286
806.478	8176
806.62	8123
806.762	8130
806.904	8210
807.046	8469
807.188	8374
807.33	8298
807.472	8332
807.614	8134
807.756	8199
807.898	8069
808.04	7883
808.182	7845
808.324	7864
808.465	7959
808.607	8153
808.749	8176
808.891	8237
809.033	8320
809.174	8244
809.316	8111
809.458	8069
809.6	8084
809.741	8081
809.883	8084
810.025	8149
810.166	8130
810.308	8027
810.45	8088
810.591	7955
810.733	7772
810.875	7662
811.016	7590
811.158	7525
811.299	7620
811.441	7792
811.582	7814
811.724	7662
811.865	7590
812.007	7594
812.148	7571
812.29	7620
812.431	7776
812.573	7856
812.714	8016
812.855	8069
812.997	8240
813.138	8396
813.279	8195
813.421	8115
813.562	8050
813.703	7955
813.845	7769
813.986	7426
814.127	7228
814.268	7240
814.41	7202
814.551	7198
814.692	7156
814.833	7050
814.974	7168
815.115	7160
815.256	6989
815.397	7015
815.539	6951
815.68	6821
815.821	6863
815.962	6901
816.103	6856
816.244	6700
816.385	6646
816.526	6627
816.666	6544
816.807	6369
816.948	6479
817.089	6456
817.23	6517
817.371	6399
817.512	6365
817.653	6407
817.793	6369
817.934	6407
818.075	6502
818.216	6479
818.356	6407
818.497	6266
818.638	6125
818.778	6209
818.919	6159
819.06	6178
819.2	6350
819.341	6346
819.481	6346
819.622	6509
819.762	6779
819.903	6753
820.043	6639
820.184	6544
820.324	6623
820.465	6696
820.605	6677
820.746	6662
820.886	6509
821.026	6707
821.167	6776
821.307	6821
821.447	6726
821.588	6681
821.728	6658
821.868	6475
822.008	6292
822.149	6414
822.289	6346
822.429	6140
822.569	6098
822.709	6136
822.849	5954
822.99	5923
823.13	5954
823.27	5904
823.41	5809
823.55	5821
823.69	5764
823.83	5752
823.97	5695
824.11	5516
824.25	5615
824.389	5539
824.529	5604
824.669	5585
824.809	5653
824.949	5642
825.089	5600
825.228	5547
825.368	5436
825.508	5337
825.648	5341
825.787	5391
825.927	5376
826.067	5360
826.206	5265
826.346	5379
826.485	5368
826.625	5448
826.765	5512
826.904	5497
827.044	5250
827.183	5204
827.323	5105
827.462	5227
827.601	5197
827.741	5178
827.88	5223
828.02	5132
828.159	5212
828.298	5292
828.437	5429
828.577	5299
828.716	5497
828.855	5353
828.994	5143
829.134	5128
829.273	5201
829.412	5166
829.551	5155
829.69	5147
829.829	5261
829.968	5391
830.107	5227
830.246	5246
830.385	5178
830.524	5128
830.663	5075
830.802	4972
830.941	4908
831.08	4896
831.219	4968
831.357	5025
831.496	5143
831.635	4991
831.774	4854
831.913	4858
832.051	4717
832.19	4793
832.329	4816
832.467	4675
832.606	4649
832.744	4755
832.883	4755
833.022	4683
833.16	4805
833.299	4812
833.437	4839
833.576	4866
833.714	4816
833.852	4843
833.991	4854
834.129	4946
834.267	4946
834.406	4923
834.544	5014
834.682	4999
834.821	4930
834.959	5132
835.097	4991
835.235	5151
835.373	5094
835.511	5083
835.65	5018
835.788	5022
835.926	4870
836.064	4919
836.202	4930
836.34	5121
836.478	5204
836.615	5121
836.753	5201
836.891	5322
837.029	5265
837.167	5246
837.305	5170
837.443	5113
837.58	5086
837.718	5254
837.856	5193
837.993	5132
838.131	5220
838.269	5181
838.406	5208
838.544	5208
838.681	5041
838.819	4972
838.956	4930
839.094	4896
839.231	5022
839.369	5102
839.506	5425
839.643	5277
839.781	5060
839.918	5018
840.055	5132
840.193	5067
840.33	5098
840.467	5155
840.604	5239
840.742	5482
840.879	5045
841.016	5079
841.153	5136
841.29	5318
841.427	5299
841.564	5341
841.701	5421
841.838	5292
841.975	5204
842.112	5284
842.249	5109
842.385	5113
842.522	5337
842.659	5201
842.796	5094
842.933	5189
843.069	5193
843.206	5159
843.343	5269
843.479	5273
843.616	5315
843.752	5083
843.889	4999
844.025	5197
844.162	4999
844.298	5208
844.435	5090
844.571	5045
844.708	5258
844.844	5246
844.98	5330
845.117	5269
845.253	5242
845.389	5105
845.525	5178
845.661	5124
845.798	5033
845.934	5140
846.07	5056
846.206	5181
846.342	5227
846.478	5189
846.614	5018
846.75	4980
846.886	4968
847.022	5155
847.158	5064
847.294	5048
847.429	5102
847.565	5060
847.701	5337
847.837	4919
847.972	4752
848.108	4976
848.244	4892
848.379	4755
848.515	4786
848.65	4706
848.786	4759
848.921	4767
849.057	4866
849.192	4908
849.328	4850
849.463	4835
849.598	4774
849.734	4729
849.869	4706
850.004	4618
850.14	4649
850.275	4580
850.41	4523
850.545	4580
850.68	4607
850.815	4630
850.95	4592
851.085	4835
851.22	4725
851.355	4679
851.49	4668
851.625	4626
851.76	4611
851.895	4573
852.03	4466
852.165	4656
852.299	4755
852.434	4759
852.569	4736
852.703	4797
852.838	4835
852.973	4881
853.107	4915
853.242	4710
853.376	4687
853.511	4535
853.645	4615
853.78	4805
853.914	4694
854.048	4656
854.183	4649
854.317	4729
854.451	4824
854.585	4660
854.72	4649
854.854	4740
854.988	4596
855.122	4615
855.256	4481
855.39	4698
855.524	4786
855.658	4710
855.792	4664
855.926	4778
856.06	4793
856.194	4797
856.327	4675
856.461	4603
856.595	4630
856.729	4607
856.862	4752
856.996	4641
857.13	4740
857.263	4774
857.397	4782
857.53	4637
857.664	4729
857.797	4763
857.931	4778
858.064	4672
858.197	4683
858.331	4653
858.464	4599
858.597	4519
858.731	4607
858.864	4656
858.997	4577
859.13	4664
859.263	4687
859.396	4714
859.529	4599
859.662	4531
859.795	4550
859.928	4618
860.061	4790
860.194	4759
860.327	4653
860.46	4588
860.592	4725
860.725	4725
860.858	4694
860.99	4535
861.123	4550
861.256	4546
861.388	4649
861.521	5265
861.653	4462
861.786	4436
861.918	4440
862.05	4588
862.183	4508
862.315	4599
862.447	4645
862.58	4558
862.712	4383
862.844	4367
862.976	4508
863.108	4459
863.24	4809
863.372	4348
863.504	4325
863.636	4375
863.768	4470
863.9	4402
864.032	4383
864.164	4421
864.296	4474
864.428	4554
864.559	4550
864.691	4584
864.823	4508
864.954	4466
865.086	4493
865.217	4451
865.349	4394
865.48	4447
865.612	4493
865.743	4656
865.875	4466
866.006	4424
866.137	4462
866.269	4443
866.4	4451
866.531	4443
866.662	4451
866.793	4417
866.924	4470
867.055	4542
867.186	4421
867.317	4421
867.448	4390
867.579	4428
867.71	4322
867.841	4436
867.972	4470
868.103	4508
868.233	4436
868.364	4443
868.495	4500
868.625	4675
868.756	4771
868.886	4558
869.017	4634
869.147	4771
869.278	4729
869.408	4607
869.539	4725
869.669	4736
869.799	4683
869.929	4748
870.06	4733
870.19	5006
870.32	4866
870.45	4949
870.58	5033
870.71	5090
870.84	5090
870.97	4991
871.1	4904
871.23	5162
871.36	5140
871.489	5003
871.619	5075
871.749	5086
871.879	5128
872.008	5227
872.138	5064
872.267	4965
872.397	4862
872.526	4778
872.656	4755
872.785	4767
872.915	4942
873.044	5014
873.173	4953
873.303	4908
873.432	4980
873.561	4957
873.69	4870
873.819	4816
873.948	4877
874.077	4820
874.206	4778
874.335	4805
874.464	4892
874.593	5056
874.722	4957
874.851	5086
874.979	5067
875.108	5018
875.237	4953
875.365	4866
875.494	4870
875.623	4961
875.751	4866
875.88	4927
876.008	5003
876.136	5037
876.265	5181
876.393	5277
876.521	5292
876.65	5265
876.778	5193
876.906	5105
877.034	5060
877.162	5037
877.29	4980
877.418	5060
877.546	5064
877.674	5022
877.802	5022
877.93	5003
878.058	4896
878.185	4870
878.313	4953
878.441	4911
878.568	4812
878.696	4934
878.824	4991
878.951	5025
879.079	5121
879.206	5280
879.333	5147
879.461	4927
879.588	4961
879.715	5079
879.842	5246
879.97	4953
880.097	4847
880.224	4725
880.351	4782
880.478	4820
880.605	4828
880.732	4797
880.859	5121
880.986	4862
881.112	4904
881.239	4820
881.366	4710
881.493	4618
881.619	4607
881.746	4630
881.872	4626
881.999	4660
882.125	4687
882.252	4801
882.378	4847
882.505	4965
882.631	4805
882.757	4679
882.883	4710
883.01	4721
883.136	4649
883.262	4550
883.388	4596
883.514	4824
883.64	4908
883.766	4778
883.892	4622
884.018	4755
884.143	4889
884.269	5045
884.395	4637
884.52	4630
884.646	4672
884.772	4584
884.897	4622
885.023	4683
885.148	4763
885.274	4835
885.399	4847
885.524	4691
885.65	4672
885.775	4687
885.9	4759
886.025	4824
886.15	4744
886.275	4733
886.4	4660
886.525	4717
886.65	4668
886.775	4702
886.9	4854
887.025	5022
887.149	4812
887.274	4649
887.399	4592
887.523	4599
887.648	4577
887.773	4596
887.897	4725
888.021	4729
888.146	4691
888.27	4820
888.395	4938
888.519	4752
888.643	4786
888.767	4801
888.891	4706
889.015	4630
889.139	4622
889.263	4611
889.387	4797
889.511	4885
889.635	4774
889.759	4660
889.883	4626
890.006	4729
890.13	4850
890.254	4622
890.377	4660
890.501	4550
890.624	4527
890.748	4641
890.871	4527
890.995	4481
891.118	4375
891.241	4580
891.364	4527
891.488	4607
891.611	4527
891.734	4565
891.857	4577
891.98	4516
892.103	4664
892.226	4577
892.349	4508
892.471	4402
892.594	4500
892.717	4531
892.839	4519
892.962	4573
893.085	4706
893.207	4599
893.33	4428
893.452	4519
893.575	4645
893.697	4531
893.819	4774
893.941	4870
894.064	4755
894.186	4599
894.308	4573
894.43	4744
894.552	4786
894.674	4706
894.796	4546
894.918	4615
895.04	4554
895.161	4668
895.283	4660
895.405	4592
895.526	4622
895.648	4637
895.769	4649
895.891	4721
896.012	4721
896.134	4729
896.255	4679
896.376	4626
896.498	4641
896.619	4664
896.74	4550
896.861	4641
896.982	4965
897.103	5060
897.224	4809
897.345	4679
897.466	4664
897.587	4714
897.708	4843
897.828	4755
897.949	4653
898.07	4531
898.19	4611
898.311	4831
898.431	4679
898.552	4736
898.672	4805
898.792	4828
898.913	4717
899.033	4554
899.153	4508
899.273	4424
899.393	4466
899.513	4455
899.633	4481
899.753	4554
899.873	4519
899.993	4531
900.113	4497
900.232	4584
900.352	4546
900.472	4523
900.591	4398
900.711	4447
900.83	4466
900.95	4607
901.069	4702
901.189	4580
901.308	4356
901.427	4337
901.546	4356
901.665	4443
901.784	4474
901.904	4386
902.023	4295
902.141	4185
902.26	4181
902.379	4268
902.498	4234
902.617	4215
902.735	4360
902.854	4329
902.973	4337
903.091	4227
903.21	4253
903.328	4265
903.446	4238
903.565	4238
903.683	4337
903.801	4276
903.919	4421
904.038	4428
904.156	4318
904.274	4405
904.392	4390
904.51	4398
904.627	4474
904.745	4565
904.863	4645
904.981	4405
905.098	4344
905.216	4375
905.334	4462
905.451	4440
905.569	4440
905.686	4569
905.803	4573
905.921	4440
906.038	4546
906.155	4504
906.272	4379
906.389	4470
906.506	4284
906.623	4394
906.74	4375
906.857	4253
906.974	4390
907.091	4550
907.208	4687
907.324	4561
907.441	4569
907.557	4333
907.674	4398
907.79	4306
907.907	4390
908.023	4459
908.139	4436
908.256	4451
908.372	4474
908.488	4421
908.604	4386
908.72	4352
908.836	4363
908.952	4356
909.068	4432
909.184	4611
909.3	4413
909.415	4618
909.531	4599
909.647	4348
909.762	4337
909.878	4356
909.993	4436
910.108	4459
910.224	4413
910.339	4531
910.454	4440
910.57	4341
910.685	4295
910.8	4675
910.915	4588
911.03	4504
911.145	4329
911.259	4318
911.374	4390
911.489	4306
911.604	4276
911.718	4150
911.833	4215
911.947	4086
912.062	4059
912.176	4185
912.291	4211
912.405	4204
912.519	4493
912.633	4504
912.748	4390
912.862	4325
912.976	4185
913.09	4124
913.204	4177
913.318	4257
913.431	4383
913.545	4375
913.659	4417
913.772	4367
913.886	4287
914	4227
914.113	4386
914.226	4413
914.34	4390
914.453	4272
914.566	4443
914.68	4310
914.793	4333
914.906	4177
915.019	4097
915.132	4074
915.245	4173
915.358	4181
915.47	4196
915.583	4287
915.696	4306
915.809	4383
915.921	4409
916.034	4265
916.146	4215
916.259	4234
916.371	4352
916.483	4348
916.595	4257
916.708	4363
916.82	4322
916.932	4344
917.044	4310
917.156	4344
917.268	4246
917.38	4287
917.491	4344
917.603	4337
917.715	4500
917.826	4405
917.938	4367
918.049	4249
918.161	4394
918.272	4538
918.384	4546
918.495	4466
918.606	4287
918.717	4257
918.828	4314
918.939	4371
919.05	4215
919.161	4322
919.272	4158
919.383	4185
919.494	4443
919.604	4653
919.715	4474
919.826	4322
919.936	4394
920.047	4500
920.157	4443
920.267	4702
920.378	4519
920.488	4500
920.598	4725
920.708	4908
920.818	4736
920.928	4805
921.038	4961
921.148	4915
921.258	4599
921.368	4538
921.477	4485
921.587	4470
921.697	4367
921.806	4546
921.916	4432
922.025	4246
922.134	4261
922.244	4230
922.353	4352
922.462	4181
922.571	4150
922.68	4063
922.789	3949
922.898	4059
923.007	3937
923.116	4109
923.224	4082
923.333	4090
923.442	4006
923.55	3964
923.659	4063
923.767	4090
923.876	3983
923.984	4131
924.092	3979
924.201	4093
924.309	4093
924.417	4120
924.525	4090
924.633	4116
924.741	4896
924.849	3922
924.956	4124
925.064	3972
925.172	3907
925.279	3968
925.387	4032
925.494	4040
925.602	4242
925.709	4188
925.816	4067
925.924	4090
926.031	4246
926.138	4166
926.245	4185
926.352	4086
926.459	4242
926.566	4363
926.673	4162
926.779	4063
926.886	4101
926.993	3991
927.099	3926
927.206	3926
927.312	3945
927.419	4051
927.525	4013
927.631	4105
927.737	3953
927.843	3930
927.95	3869
928.056	3934
928.162	3987
928.267	4006
928.373	4618
928.479	4093
928.585	3892
928.69	4048
928.796	4105
928.901	3983
929.007	3880
929.112	4025
929.218	3975
929.323	3960
929.428	3937
929.533	4131
929.638	3915
929.743	3934
929.848	4067
929.953	4010
930.058	3953
930.163	3766
930.267	3781
930.372	4002
930.477	3838
930.581	4055
930.685	3926
930.79	3823
930.894	3873
930.998	3865
931.103	4025
931.207	3709
931.311	3713
931.415	3663
931.519	3496
931.623	3561
