Data from test_V78500241_940.txt Node
Date: Fri Mar 25 16:55:32 CST 2022
User: usil
Spectrometer: V785-0024
Trigger mode: 0
Integration Time (sec): 4.000000E-1
Scans to average: 1
Nonlinearity correction enabled: false
Boxcar width: 0
Storing dark spectrum: false
XAxis mode: Wavelengths
Number of Pixels in Spectrum: 1024
>>>>>Begin Spectral Data<<<<<
801.071	8035
801.214	8024
801.356	7875
801.499	7906
801.641	7776
801.783	7757
801.926	8008
802.068	7852
802.211	7909
802.353	7963
802.496	7833
802.638	7826
802.78	7849
802.923	7913
803.065	7841
803.208	7879
803.35	7967
803.492	8119
803.635	8240
803.777	8043
803.919	8115
804.061	8343
804.204	8100
804.346	8058
804.488	7993
804.63	8126
804.773	8024
804.915	8084
805.057	8275
805.199	8145
805.341	8206
805.483	8282
805.626	8218
805.768	8123
805.91	8218
806.052	8199
806.194	8058
806.336	8275
806.478	8111
806.62	8142
806.762	8134
806.904	8305
807.046	8389
807.188	8396
807.33	8244
807.472	8343
807.614	8149
807.756	8145
807.898	7993
808.04	7795
808.182	7894
808.324	7871
808.465	7890
808.607	8008
808.749	8084
808.891	8187
809.033	8263
809.174	8210
809.316	8031
809.458	8043
809.6	7986
809.741	8035
809.883	8039
810.025	8050
810.166	7993
810.308	8016
810.45	8012
810.591	7883
810.733	7776
810.875	7571
811.016	7506
811.158	7521
811.299	7578
811.441	7693
811.582	7727
811.724	7544
811.865	7506
812.007	7559
812.148	7609
812.29	7613
812.431	7704
812.573	7833
812.714	8012
812.855	8107
812.997	8180
813.138	8320
813.279	8180
813.421	8081
813.562	8024
813.703	7913
813.845	7769
813.986	7438
814.127	7312
814.268	7259
814.41	7225
814.551	7133
814.692	7126
814.833	7080
814.974	7053
815.115	7050
815.256	6928
815.397	6954
815.539	6996
815.68	6760
815.821	6753
815.962	6909
816.103	6871
816.244	6722
816.385	6582
816.526	6597
816.666	6467
816.807	6342
816.948	6369
817.089	6475
817.23	6403
817.371	6441
817.512	6395
817.653	6372
817.793	6384
817.934	6429
818.075	6479
818.216	6410
818.356	6384
818.497	6224
818.638	6087
818.778	6163
818.919	6140
819.06	6152
819.2	6304
819.341	6300
819.481	6323
819.622	6517
819.762	6684
819.903	6738
820.043	6589
820.184	6544
820.324	6540
820.465	6703
820.605	6681
820.746	6665
820.886	6547
821.026	6669
821.167	6700
821.307	6810
821.447	6715
821.588	6684
821.728	6551
821.868	6544
822.008	6296
822.149	6334
822.289	6304
822.429	6117
822.569	6053
822.709	6110
822.849	5893
822.99	5908
823.13	5897
823.27	5912
823.41	5771
823.55	5786
823.69	5733
823.83	5786
823.97	5627
824.11	5493
824.25	5509
824.389	5547
824.529	5581
824.669	5486
824.809	5615
824.949	5638
825.089	5600
825.228	5516
825.368	5368
825.508	5341
825.648	5322
825.787	5440
825.927	5376
826.067	5277
826.206	5296
826.346	5395
826.485	5379
826.625	5395
826.765	5505
826.904	5512
827.044	5288
827.183	5178
827.323	5105
827.462	5261
827.601	5181
827.741	5197
827.88	5208
828.02	5105
828.159	5216
828.298	5334
828.437	5383
828.577	5273
828.716	5512
828.855	5349
828.994	5128
829.134	5185
829.273	5124
829.412	5132
829.551	5094
829.69	5170
829.829	5189
829.968	5337
830.107	5273
830.246	5269
830.385	5170
830.524	5067
830.663	5090
830.802	4965
830.941	4892
831.08	4820
831.219	4946
831.357	4961
831.496	5155
831.635	4953
831.774	4812
831.913	4858
832.051	4710
832.19	4706
832.329	4820
832.467	4668
832.606	4584
832.744	4736
832.883	4736
833.022	4710
833.16	4763
833.299	4843
833.437	4759
833.576	4850
833.714	4805
833.852	4881
833.991	4900
834.129	4961
834.267	4915
834.406	4908
834.544	4957
834.682	4938
834.821	4953
834.959	5128
835.097	4995
835.235	5117
835.373	5071
835.511	5037
835.65	5029
835.788	4984
835.926	4877
836.064	4816
836.202	4946
836.34	5113
836.478	5208
836.615	5143
836.753	5220
836.891	5261
837.029	5201
837.167	5212
837.305	5162
837.443	5174
837.58	5037
837.718	5246
837.856	5113
837.993	5086
838.131	5204
838.269	5193
838.406	5189
838.544	5147
838.681	5025
838.819	5029
838.956	4923
839.094	4923
839.231	5010
839.369	5056
839.506	5387
839.643	5277
839.781	5025
839.918	4976
840.055	5109
840.193	5045
840.33	5128
840.467	5086
840.604	5136
840.742	5421
840.879	5086
841.016	5075
841.153	5155
841.29	5357
841.427	5326
841.564	5360
841.701	5353
841.838	5330
841.975	5231
842.112	5204
842.249	5140
842.385	5045
842.522	5337
842.659	5193
842.796	5121
842.933	5223
843.069	5147
843.206	5181
843.343	5280
843.479	5212
843.616	5269
843.752	4991
843.889	5029
844.025	5189
844.162	4984
844.298	5162
844.435	5124
844.571	5048
844.708	5201
844.844	5292
844.98	5322
845.117	5250
845.253	5151
845.389	5006
845.525	5155
845.661	5124
845.798	5056
845.934	5113
846.07	5052
846.206	5204
846.342	5242
846.478	5181
846.614	5041
846.75	4987
846.886	4919
847.022	5136
847.158	5006
847.294	5064
847.429	5083
847.565	5014
847.701	5322
847.837	4896
847.972	4812
848.108	4934
848.244	4938
848.379	4778
848.515	4717
848.65	4736
848.786	4698
848.921	4824
849.057	4816
849.192	4870
849.328	4812
849.463	4790
849.598	4809
849.734	4763
849.869	4653
850.004	4641
850.14	4637
850.275	4588
850.41	4504
850.545	4546
850.68	4577
850.815	4527
850.95	4618
851.085	4854
851.22	4748
851.355	4710
851.49	4645
851.625	4626
851.76	4603
851.895	4592
852.03	4478
852.165	4596
852.299	4672
852.434	4782
852.569	4683
852.703	4782
852.838	4839
852.973	4904
853.107	4915
853.242	4660
853.376	4645
853.511	4512
853.645	4584
853.78	4725
853.914	4683
854.048	4698
854.183	4637
854.317	4656
854.451	4824
854.585	4626
854.72	4615
854.854	4763
854.988	4516
855.122	4637
855.256	4466
855.39	4634
855.524	4782
855.658	4725
855.792	4736
855.926	4691
856.06	4694
856.194	4767
856.327	4664
856.461	4611
856.595	4592
856.729	4603
856.862	4702
856.996	4717
857.13	4736
857.263	4771
857.397	4771
857.53	4645
857.664	4721
857.797	4767
857.931	4778
858.064	4656
858.197	4782
858.331	4660
858.464	4603
858.597	4565
858.731	4542
858.864	4580
858.997	4588
859.13	4615
859.263	4675
859.396	4694
859.529	4584
859.662	4611
859.795	4523
859.928	4622
860.061	4710
860.194	4782
860.327	4607
860.46	4542
860.592	4729
860.725	4729
860.858	4717
860.99	4577
861.123	4523
861.256	4500
861.388	4558
861.521	5162
861.653	4481
861.786	4455
861.918	4417
862.05	4493
862.183	4554
862.315	4542
862.447	4656
862.58	4523
862.712	4402
862.844	4322
862.976	4459
863.108	4497
863.24	4752
863.372	4325
863.504	4421
863.636	4386
863.768	4459
863.9	4405
864.032	4325
864.164	4371
864.296	4485
864.428	4535
864.559	4493
864.691	4527
864.823	4519
864.954	4500
865.086	4516
865.217	4481
865.349	4405
865.48	4447
865.612	4436
865.743	4645
865.875	4470
866.006	4459
866.137	4455
866.269	4455
866.4	4432
866.531	4436
866.662	4341
866.793	4356
866.924	4371
867.055	4504
867.186	4451
867.317	4379
867.448	4341
867.579	4344
867.71	4375
867.841	4356
867.972	4478
868.103	4428
868.233	4436
868.364	4405
868.495	4474
868.625	4573
868.756	4733
868.886	4565
869.017	4611
869.147	4729
869.278	4759
869.408	4694
869.539	4615
869.669	4675
869.799	4668
869.929	4717
870.06	4740
870.19	4949
870.32	4908
870.45	4930
870.58	5029
870.71	5121
870.84	5109
870.97	4965
871.1	4896
871.23	5109
871.36	5102
871.489	4987
871.619	5052
871.749	5086
871.879	5056
872.008	5155
872.138	5022
872.267	5029
872.397	4847
872.526	4820
872.656	4740
872.785	4714
872.915	4904
873.044	5033
873.173	4930
873.303	4976
873.432	4972
873.561	4968
873.69	4862
873.819	4835
873.948	4900
874.077	4812
874.206	4774
874.335	4797
874.464	4923
874.593	5060
874.722	4942
874.851	5079
874.979	5083
875.108	5029
875.237	4919
875.365	4854
875.494	4835
875.623	4961
875.751	4797
875.88	4885
876.008	4961
876.136	5014
876.265	5208
876.393	5311
876.521	5239
876.65	5216
876.778	5124
876.906	5022
877.034	5006
877.162	5067
877.29	4900
877.418	5006
877.546	5048
877.674	5022
877.802	5041
877.93	4987
878.058	4927
878.185	4866
878.313	4923
878.441	4927
878.568	4805
878.696	4858
878.824	4908
878.951	5014
879.079	5121
879.206	5254
879.333	5071
879.461	4946
879.588	4934
879.715	5113
879.842	5231
879.97	4999
880.097	4744
880.224	4710
880.351	4782
880.478	4866
880.605	4774
880.732	4759
880.859	5094
880.986	4847
881.112	4919
881.239	4782
881.366	4660
881.493	4592
881.619	4561
881.746	4618
881.872	4634
881.999	4626
882.125	4733
882.252	4771
882.378	4809
882.505	4946
882.631	4793
882.757	4656
882.883	4759
883.01	4744
883.136	4656
883.262	4626
883.388	4607
883.514	4820
883.64	4870
883.766	4812
883.892	4641
884.018	4653
884.143	4976
884.269	4995
884.395	4630
884.52	4637
884.646	4653
884.772	4519
884.897	4577
885.023	4649
885.148	4771
885.274	4824
885.399	4835
885.524	4736
885.65	4721
885.775	4740
885.9	4672
886.025	4892
886.15	4790
886.275	4637
886.4	4592
886.525	4683
886.65	4641
886.775	4656
886.9	4911
887.025	4995
887.149	4809
887.274	4694
887.399	4535
887.523	4626
887.648	4516
887.773	4603
887.897	4736
888.021	4786
888.146	4679
888.27	4782
888.395	4877
888.519	4778
888.643	4824
888.767	4850
888.891	4675
889.015	4546
889.139	4668
889.263	4588
889.387	4763
889.511	4828
889.635	4812
889.759	4611
889.883	4607
890.006	4740
890.13	4854
890.254	4618
890.377	4649
890.501	4527
890.624	4527
890.748	4626
890.871	4497
890.995	4421
891.118	4360
891.241	4470
891.364	4535
891.488	4630
891.611	4504
891.734	4538
891.857	4596
891.98	4523
892.103	4634
892.226	4615
892.349	4535
892.471	4443
892.594	4531
892.717	4573
892.839	4558
892.962	4592
893.085	4645
893.207	4592
893.33	4466
893.452	4489
893.575	4664
893.697	4538
893.819	4771
893.941	4824
894.064	4771
894.186	4596
894.308	4558
894.43	4752
894.552	4812
894.674	4748
894.796	4569
894.918	4580
895.04	4603
895.161	4725
895.283	4634
895.405	4561
895.526	4634
895.648	4691
895.769	4630
895.891	4694
896.012	4725
896.134	4706
896.255	4710
896.376	4641
896.498	4607
896.619	4656
896.74	4618
896.861	4615
896.982	4919
897.103	5052
897.224	4824
897.345	4767
897.466	4675
897.587	4702
897.708	4847
897.828	4759
897.949	4675
898.07	4561
898.19	4634
898.311	4850
898.431	4698
898.552	4710
898.672	4790
898.792	4748
898.913	4725
899.033	4645
899.153	4489
899.273	4447
899.393	4531
899.513	4527
899.633	4516
899.753	4527
899.873	4519
899.993	4573
900.113	4500
900.232	4569
900.352	4542
900.472	4485
900.591	4386
900.711	4504
900.83	4421
900.95	4550
901.069	4675
901.189	4569
901.308	4341
901.427	4299
901.546	4360
901.665	4497
901.784	4497
901.904	4371
902.023	4268
902.141	4177
902.26	4154
902.379	4272
902.498	4261
902.617	4223
902.735	4375
902.854	4337
902.973	4337
903.091	4230
903.21	4227
903.328	4276
903.446	4280
903.565	4272
903.683	4337
903.801	4253
903.919	4409
904.038	4424
904.156	4310
904.274	4394
904.392	4386
904.51	4424
904.627	4417
904.745	4531
904.863	4588
904.981	4409
905.098	4329
905.216	4352
905.334	4432
905.451	4413
905.569	4402
905.686	4546
905.803	4561
905.921	4424
906.038	4565
906.155	4489
906.272	4424
906.389	4417
906.506	4341
906.623	4394
906.74	4394
906.857	4322
906.974	4383
907.091	4554
907.208	4656
907.324	4622
907.441	4474
907.557	4356
907.674	4348
907.79	4314
907.907	4367
908.023	4504
908.139	4485
908.256	4383
908.372	4489
908.488	4428
908.604	4303
908.72	4341
908.836	4367
908.952	4386
909.068	4432
909.184	4546
909.3	4462
909.415	4592
909.531	4512
909.647	4356
909.762	4348
909.878	4337
909.993	4417
910.108	4409
910.224	4398
910.339	4466
910.454	4398
910.57	4325
910.685	4284
910.8	4672
910.915	4573
911.03	4478
911.145	4390
911.259	4284
911.374	4375
911.489	4310
911.604	4265
911.718	4173
911.833	4150
911.947	4082
912.062	4025
912.176	4253
912.291	4211
912.405	4234
912.519	4451
912.633	4500
912.748	4299
912.862	4253
912.976	4196
913.09	4082
913.204	4177
913.318	4276
913.431	4341
913.545	4383
913.659	4451
913.772	4375
913.886	4219
914	4215
914.113	4424
914.226	4417
914.34	4390
914.453	4284
914.566	4405
914.68	4234
914.793	4341
914.906	4143
915.019	4082
915.132	4044
915.245	4169
915.358	4215
915.47	4211
915.583	4284
915.696	4325
915.809	4424
915.921	4421
916.034	4234
916.146	4249
916.259	4219
916.371	4371
916.483	4333
916.595	4238
916.708	4276
916.82	4261
916.932	4295
917.044	4352
917.156	4291
917.268	4246
917.38	4280
917.491	4253
917.603	4303
917.715	4394
917.826	4455
917.938	4314
918.049	4272
918.161	4371
918.272	4550
918.384	4573
918.495	4481
918.606	4257
918.717	4242
918.828	4341
918.939	4367
919.05	4249
919.161	4329
919.272	4147
919.383	4223
919.494	4481
919.604	4615
919.715	4474
919.826	4360
919.936	4428
920.047	4538
920.157	4474
920.267	4698
920.378	4527
920.488	4470
920.598	4714
920.708	4885
920.818	4740
920.928	4767
921.038	4930
921.148	4919
921.258	4656
921.368	4546
921.477	4489
921.587	4474
921.697	4379
921.806	4538
921.916	4417
922.025	4253
922.134	4265
922.244	4230
922.353	4360
922.462	4162
922.571	4120
922.68	4029
922.789	3956
922.898	4051
923.007	3975
923.116	4116
923.224	4097
923.333	4059
923.442	3941
923.55	3998
923.659	4006
923.767	4101
923.876	3972
923.984	4071
924.092	3983
924.201	4025
924.309	4082
924.417	4135
924.525	4006
924.633	4093
924.741	5086
924.849	3956
924.956	4105
925.064	3956
925.172	3880
925.279	3964
925.387	3987
925.494	4032
925.602	4211
925.709	4227
925.816	4025
925.924	4124
926.031	4207
926.138	4166
926.245	4238
926.352	4063
926.459	4215
926.566	4242
926.673	4105
926.779	4082
926.886	4044
926.993	3987
927.099	3918
927.206	3949
927.312	3922
927.419	4032
927.525	3991
927.631	4029
927.737	3949
927.843	3915
927.95	3835
928.056	3960
928.162	3964
928.267	4063
928.373	4675
928.479	4128
928.585	3892
928.69	3983
928.796	4101
928.901	3945
929.007	3842
929.112	4029
929.218	3926
929.323	3930
929.428	3915
929.533	4124
929.638	3918
929.743	3964
929.848	4074
929.953	3964
930.058	3918
930.163	3781
930.267	3816
930.372	3941
930.477	3812
930.581	4086
930.685	3896
930.79	3827
930.894	3838
930.998	3835
931.103	4029
931.207	3717
931.311	3709
931.415	3644
931.519	3534
931.623	3564
