Data from test_V78500241_994.txt Node
Date: Fri Mar 25 16:55:54 CST 2022
User: usil
Spectrometer: V785-0024
Trigger mode: 0
Integration Time (sec): 4.000000E-1
Scans to average: 1
Nonlinearity correction enabled: false
Boxcar width: 0
Storing dark spectrum: false
XAxis mode: Wavelengths
Number of Pixels in Spectrum: 1024
>>>>>Begin Spectral Data<<<<<
801.071	8012
801.214	8062
801.356	7883
801.499	7860
801.641	7742
801.783	7856
801.926	8008
802.068	7864
802.211	7947
802.353	7894
802.496	7833
802.638	7845
802.78	7928
802.923	7894
803.065	7852
803.208	7871
803.35	7909
803.492	8065
803.635	8187
803.777	8012
803.919	8088
804.061	8450
804.204	8100
804.346	7986
804.488	7898
804.63	8081
804.773	7978
804.915	8035
805.057	8259
805.199	8145
805.341	8206
805.483	8244
805.626	8199
805.768	8062
805.91	8275
806.052	8161
806.194	8088
806.336	8294
806.478	8157
806.62	8046
806.762	8115
806.904	8183
807.046	8438
807.188	8248
807.33	8301
807.472	8339
807.614	8145
807.756	8081
807.898	8012
808.04	7909
808.182	7940
808.324	7879
808.465	7879
808.607	8065
808.749	8115
808.891	8176
809.033	8267
809.174	8191
809.316	8016
809.458	7951
809.6	7951
809.741	8069
809.883	8043
810.025	8126
810.166	8020
810.308	8088
810.45	7997
810.591	7833
810.733	7719
810.875	7582
811.016	7483
811.158	7483
811.299	7563
811.441	7738
811.582	7662
811.724	7628
811.865	7529
812.007	7556
812.148	7487
812.29	7605
812.431	7738
812.573	7883
812.714	7921
812.855	8157
812.997	8229
813.138	8332
813.279	8172
813.421	8069
813.562	7974
813.703	7883
813.845	7761
813.986	7434
814.127	7259
814.268	7198
814.41	7175
814.551	7198
814.692	7126
814.833	6993
814.974	7088
815.115	7095
815.256	6928
815.397	6848
815.539	6951
815.68	6856
815.821	6791
815.962	6882
816.103	6829
816.244	6715
816.385	6642
816.526	6654
816.666	6544
816.807	6350
816.948	6399
817.089	6494
817.23	6418
817.371	6369
817.512	6346
817.653	6407
817.793	6376
817.934	6403
818.075	6452
818.216	6426
818.356	6407
818.497	6247
818.638	6159
818.778	6144
818.919	6091
819.06	6144
819.2	6338
819.341	6342
819.481	6311
819.622	6483
819.762	6715
819.903	6696
820.043	6563
820.184	6563
820.324	6490
820.465	6654
820.605	6696
820.746	6631
820.886	6486
821.026	6650
821.167	6734
821.307	6791
821.447	6688
821.588	6646
821.728	6521
821.868	6437
822.008	6342
822.149	6391
822.289	6338
822.429	6175
822.569	6098
822.709	6079
822.849	5889
822.99	5931
823.13	5885
823.27	5954
823.41	5783
823.55	5783
823.69	5783
823.83	5767
823.97	5691
824.11	5573
824.25	5505
824.389	5554
824.529	5570
824.669	5505
824.809	5619
824.949	5642
825.089	5573
825.228	5551
825.368	5421
825.508	5334
825.648	5345
825.787	5395
825.927	5391
826.067	5277
826.206	5307
826.346	5376
826.485	5410
826.625	5417
826.765	5551
826.904	5452
827.044	5239
827.183	5208
827.323	5162
827.462	5242
827.601	5178
827.741	5151
827.88	5231
828.02	5102
828.159	5216
828.298	5318
828.437	5368
828.577	5303
828.716	5459
828.855	5360
828.994	5117
829.134	5166
829.273	5147
829.412	5132
829.551	5117
829.69	5155
829.829	5258
829.968	5379
830.107	5258
830.246	5269
830.385	5227
830.524	5094
830.663	5033
830.802	5006
830.941	4946
831.08	4911
831.219	4968
831.357	4961
831.496	5117
831.635	4980
831.774	4839
831.913	4847
832.051	4736
832.19	4733
832.329	4854
832.467	4679
832.606	4592
832.744	4729
832.883	4679
833.022	4694
833.16	4805
833.299	4854
833.437	4847
833.576	4824
833.714	4896
833.852	4877
833.991	4843
834.129	4961
834.267	4961
834.406	4930
834.544	4972
834.682	5003
834.821	4915
834.959	5193
835.097	4972
835.235	5124
835.373	5105
835.511	5121
835.65	5025
835.788	5041
835.926	4885
836.064	4870
836.202	4862
836.34	5223
836.478	5147
836.615	5083
836.753	5223
836.891	5254
837.029	5212
837.167	5174
837.305	5170
837.443	5140
837.58	5083
837.718	5216
837.856	5178
837.993	5170
838.131	5223
838.269	5239
838.406	5208
838.544	5132
838.681	5071
838.819	5006
838.956	4850
839.094	4961
839.231	4961
839.369	5071
839.506	5421
839.643	5250
839.781	4984
839.918	5060
840.055	5086
840.193	5067
840.33	5083
840.467	5102
840.604	5124
840.742	5433
840.879	5056
841.016	5098
841.153	5151
841.29	5349
841.427	5334
841.564	5337
841.701	5357
841.838	5208
841.975	5220
842.112	5311
842.249	5113
842.385	5090
842.522	5334
842.659	5235
842.796	5151
842.933	5193
843.069	5113
843.206	5174
843.343	5280
843.479	5189
843.616	5261
843.752	5033
843.889	5022
844.025	5170
844.162	5010
844.298	5204
844.435	5052
844.571	5052
844.708	5162
844.844	5322
844.98	5318
845.117	5277
845.253	5117
845.389	5121
845.525	5121
845.661	5170
845.798	5025
845.934	5147
846.07	5079
846.206	5193
846.342	5296
846.478	5170
846.614	5014
846.75	5006
846.886	4877
847.022	5132
847.158	4991
847.294	5060
847.429	5109
847.565	5033
847.701	5284
847.837	4847
847.972	4797
848.108	4942
848.244	4953
848.379	4733
848.515	4706
848.65	4744
848.786	4774
848.921	4740
849.057	4862
849.192	4847
849.328	4797
849.463	4850
849.598	4755
849.734	4755
849.869	4672
850.004	4622
850.14	4687
850.275	4554
850.41	4535
850.545	4550
850.68	4546
850.815	4580
850.95	4653
851.085	4812
851.22	4683
851.355	4649
851.49	4611
851.625	4630
851.76	4634
851.895	4504
852.03	4558
852.165	4607
852.299	4710
852.434	4790
852.569	4710
852.703	4729
852.838	4839
852.973	4881
853.107	4873
853.242	4752
853.376	4634
853.511	4535
853.645	4561
853.78	4812
853.914	4656
854.048	4702
854.183	4675
854.317	4717
854.451	4797
854.585	4679
854.72	4626
854.854	4698
854.988	4569
855.122	4660
855.256	4481
855.39	4672
855.524	4717
855.658	4702
855.792	4672
855.926	4721
856.06	4763
856.194	4793
856.327	4637
856.461	4588
856.595	4634
856.729	4630
856.862	4748
856.996	4653
857.13	4687
857.263	4755
857.397	4752
857.53	4577
857.664	4706
857.797	4710
857.931	4778
858.064	4641
858.197	4744
858.331	4611
858.464	4611
858.597	4455
858.731	4656
858.864	4664
858.997	4588
859.13	4649
859.263	4641
859.396	4710
859.529	4558
859.662	4569
859.795	4538
859.928	4611
860.061	4786
860.194	4778
860.327	4588
860.46	4580
860.592	4706
860.725	4721
860.858	4675
860.99	4569
861.123	4504
861.256	4519
861.388	4542
861.521	5208
861.653	4512
861.786	4432
861.918	4459
862.05	4500
862.183	4550
862.315	4618
862.447	4634
862.58	4493
862.712	4363
862.844	4325
862.976	4440
863.108	4424
863.24	4858
863.372	4329
863.504	4432
863.636	4390
863.768	4493
863.9	4383
864.032	4360
864.164	4402
864.296	4424
864.428	4531
864.559	4558
864.691	4523
864.823	4455
864.954	4504
865.086	4447
865.217	4455
865.349	4375
865.48	4447
865.612	4451
865.743	4577
865.875	4466
866.006	4436
866.137	4436
866.269	4413
866.4	4402
866.531	4394
866.662	4367
866.793	4375
866.924	4405
867.055	4493
867.186	4436
867.317	4417
867.448	4333
867.579	4371
867.71	4398
867.841	4344
867.972	4428
868.103	4485
868.233	4432
868.364	4405
868.495	4474
868.625	4675
868.756	4748
868.886	4550
869.017	4584
869.147	4759
869.278	4744
869.408	4664
869.539	4637
869.669	4729
869.799	4660
869.929	4744
870.06	4744
870.19	4934
870.32	4938
870.45	4904
870.58	4972
870.71	5075
870.84	5121
870.97	4949
871.1	4866
871.23	5124
871.36	5041
871.489	5029
871.619	5029
871.749	5071
871.879	5098
872.008	5162
872.138	5029
872.267	4934
872.397	4908
872.526	4816
872.656	4736
872.785	4790
872.915	4923
873.044	4976
873.173	4900
873.303	4965
873.432	4923
873.561	4927
873.69	4850
873.819	4839
873.948	4885
874.077	4812
874.206	4763
874.335	4736
874.464	4885
874.593	5025
874.722	4911
874.851	5060
874.979	5086
875.108	4999
875.237	4942
875.365	4847
875.494	4870
875.623	4961
875.751	4820
875.88	4850
876.008	4957
876.136	5056
876.265	5147
876.393	5334
876.521	5269
876.65	5181
876.778	5121
876.906	5067
877.034	5025
877.162	4995
877.29	5010
877.418	5033
877.546	5029
877.674	5033
877.802	5010
877.93	5010
878.058	4938
878.185	4862
878.313	4972
878.441	4915
878.568	4786
878.696	4870
878.824	4976
878.951	4987
879.079	5193
879.206	5239
879.333	5136
879.461	4965
879.588	4900
879.715	5121
879.842	5193
879.97	4987
880.097	4786
880.224	4793
880.351	4759
880.478	4801
880.605	4759
880.732	4763
880.859	5071
880.986	4919
881.112	4946
881.239	4771
881.366	4710
881.493	4596
881.619	4599
881.746	4615
881.872	4660
881.999	4683
882.125	4679
882.252	4786
882.378	4812
882.505	4923
882.631	4793
882.757	4649
882.883	4683
883.01	4706
883.136	4664
883.262	4554
883.388	4577
883.514	4782
883.64	4892
883.766	4797
883.892	4679
884.018	4679
884.143	4877
884.269	4972
884.395	4634
884.52	4664
884.646	4611
884.772	4573
884.897	4577
885.023	4656
885.148	4771
885.274	4862
885.399	4774
885.524	4729
885.65	4664
885.775	4740
885.9	4744
886.025	4850
886.15	4725
886.275	4702
886.4	4615
886.525	4706
886.65	4653
886.775	4683
886.9	4896
887.025	5014
887.149	4847
887.274	4618
887.399	4550
887.523	4588
887.648	4588
887.773	4603
887.897	4725
888.021	4782
888.146	4687
888.27	4820
888.395	4930
888.519	4820
888.643	4801
888.767	4839
888.891	4660
889.015	4626
889.139	4645
889.263	4599
889.387	4740
889.511	4885
889.635	4778
889.759	4653
889.883	4615
890.006	4717
890.13	4790
890.254	4599
890.377	4679
890.501	4516
890.624	4500
890.748	4641
890.871	4451
890.995	4478
891.118	4432
891.241	4459
891.364	4546
891.488	4626
891.611	4462
891.734	4535
891.857	4558
891.98	4538
892.103	4603
892.226	4558
892.349	4550
892.471	4390
892.594	4588
892.717	4615
892.839	4535
892.962	4535
893.085	4653
893.207	4607
893.33	4455
893.452	4500
893.575	4702
893.697	4580
893.819	4782
893.941	4778
894.064	4771
894.186	4565
894.308	4542
894.43	4721
894.552	4801
894.674	4717
894.796	4523
894.918	4569
895.04	4531
895.161	4687
895.283	4660
895.405	4603
895.526	4630
895.648	4660
895.769	4702
895.891	4683
896.012	4721
896.134	4729
896.255	4653
896.376	4588
896.498	4599
896.619	4615
896.74	4645
896.861	4672
896.982	4892
897.103	5102
897.224	4828
897.345	4725
897.466	4675
897.587	4721
897.708	4839
897.828	4797
897.949	4664
898.07	4550
898.19	4634
898.311	4805
898.431	4649
898.552	4744
898.672	4831
898.792	4793
898.913	4687
899.033	4649
899.153	4440
899.273	4447
899.393	4500
899.513	4485
899.633	4497
899.753	4565
899.873	4497
899.993	4565
900.113	4516
900.232	4554
900.352	4565
900.472	4497
900.591	4402
900.711	4481
900.83	4440
900.95	4569
901.069	4618
901.189	4592
901.308	4390
901.427	4291
901.546	4367
901.665	4428
901.784	4500
901.904	4352
902.023	4272
902.141	4188
902.26	4150
902.379	4303
902.498	4238
902.617	4196
902.735	4348
902.854	4402
902.973	4348
903.091	4207
903.21	4242
903.328	4249
903.446	4227
903.565	4238
903.683	4390
903.801	4291
903.919	4436
904.038	4421
904.156	4329
904.274	4436
904.392	4386
904.51	4413
904.627	4451
904.745	4592
904.863	4664
904.981	4398
905.098	4322
905.216	4341
905.334	4481
905.451	4432
905.569	4413
905.686	4569
905.803	4565
905.921	4428
906.038	4508
906.155	4493
906.272	4367
906.389	4478
906.506	4299
906.623	4409
906.74	4363
906.857	4341
906.974	4394
907.091	4569
907.208	4641
907.324	4554
907.441	4462
907.557	4333
907.674	4314
907.79	4268
907.907	4360
908.023	4451
908.139	4500
908.256	4489
908.372	4455
908.488	4428
908.604	4295
908.72	4257
908.836	4314
908.952	4348
909.068	4432
909.184	4550
909.3	4497
909.415	4603
909.531	4542
909.647	4344
909.762	4363
909.878	4325
909.993	4470
910.108	4398
910.224	4356
910.339	4470
910.454	4367
910.57	4360
910.685	4352
910.8	4622
910.915	4546
911.03	4489
911.145	4272
911.259	4352
911.374	4402
911.489	4234
911.604	4272
911.718	4139
911.833	4185
911.947	4074
912.062	4044
912.176	4219
912.291	4234
912.405	4227
912.519	4428
912.633	4500
912.748	4306
912.862	4341
912.976	4192
913.09	4124
913.204	4154
913.318	4253
913.431	4341
913.545	4318
913.659	4447
913.772	4360
913.886	4253
914	4268
914.113	4344
914.226	4409
914.34	4386
914.453	4173
914.566	4417
914.68	4337
914.793	4306
914.906	4181
915.019	4112
915.132	4086
915.245	4188
915.358	4173
915.47	4280
915.583	4280
915.696	4325
915.809	4413
915.921	4417
916.034	4223
916.146	4207
916.259	4261
916.371	4394
916.483	4322
916.595	4272
916.708	4333
916.82	4299
916.932	4337
917.044	4322
917.156	4329
917.268	4204
917.38	4284
917.491	4280
917.603	4348
917.715	4466
917.826	4398
917.938	4322
918.049	4337
918.161	4348
918.272	4538
918.384	4527
918.495	4451
918.606	4276
918.717	4234
918.828	4329
918.939	4386
919.05	4211
919.161	4325
919.272	4116
919.383	4284
919.494	4436
919.604	4653
919.715	4474
919.826	4375
919.936	4421
920.047	4508
920.157	4554
920.267	4706
920.378	4504
920.488	4512
920.598	4714
920.708	4923
920.818	4721
920.928	4752
921.038	4938
921.148	4885
921.258	4660
921.368	4542
921.477	4474
921.587	4417
921.697	4417
921.806	4516
921.916	4436
922.025	4261
922.134	4295
922.244	4200
922.353	4314
922.462	4158
922.571	4147
922.68	3975
922.789	3964
922.898	4013
923.007	3953
923.116	4082
923.224	4090
923.333	4101
923.442	3975
923.55	3960
923.659	3975
923.767	4067
923.876	3956
923.984	4090
924.092	3994
924.201	4093
924.309	4078
924.417	4082
924.525	4051
924.633	4082
924.741	5060
924.849	3903
924.956	4071
925.064	3945
925.172	3876
925.279	3922
925.387	4097
925.494	4017
925.602	4188
925.709	4211
925.816	4036
925.924	4135
926.031	4200
926.138	4162
926.245	4169
926.352	4090
926.459	4253
926.566	4284
926.673	4166
926.779	4074
926.886	4051
926.993	3964
927.099	3953
927.206	3918
927.312	3949
927.419	4063
927.525	4002
927.631	4040
927.737	3972
927.843	3941
927.95	3842
928.056	3945
928.162	3911
928.267	4071
928.373	4694
928.479	4112
928.585	3884
928.69	4010
928.796	4059
928.901	3960
929.007	3842
929.112	4006
929.218	3945
929.323	3941
929.428	3945
929.533	4067
929.638	3926
929.743	3968
929.848	4029
929.953	3972
930.058	3911
930.163	3732
930.267	3785
930.372	3949
930.477	3770
930.581	4086
930.685	3907
930.79	3793
930.894	3907
930.998	3876
931.103	4025
931.207	3709
931.311	3682
931.415	3701
931.519	3523
931.623	3557
