Data from test_V78500241_2667.txt Node
Date: Fri Mar 25 17:07:32 CST 2022
User: usil
Spectrometer: V785-0024
Trigger mode: 0
Integration Time (sec): 4.000000E-1
Scans to average: 1
Nonlinearity correction enabled: false
Boxcar width: 0
Storing dark spectrum: false
XAxis mode: Wavelengths
Number of Pixels in Spectrum: 1024
>>>>>Begin Spectral Data<<<<<
801.071	7963
801.214	8031
801.356	7890
801.499	7856
801.641	7753
801.783	7822
801.926	7940
802.068	7955
802.211	7989
802.353	7997
802.496	7856
802.638	7883
802.78	7925
802.923	7967
803.065	7887
803.208	7830
803.35	8024
803.492	8058
803.635	8187
803.777	8012
803.919	8172
804.061	8446
804.204	8161
804.346	8092
804.488	7906
804.63	8100
804.773	8012
804.915	8157
805.057	8286
805.199	8191
805.341	8183
805.483	8290
805.626	8259
805.768	8092
805.91	8176
806.052	8233
806.194	8153
806.336	8317
806.478	8062
806.62	8077
806.762	8100
806.904	8240
807.046	8404
807.188	8317
807.33	8301
807.472	8381
807.614	8107
807.756	8119
807.898	8046
808.04	7860
808.182	7868
808.324	7902
808.465	7898
808.607	8092
808.749	8126
808.891	8214
809.033	8279
809.174	8195
809.316	8050
809.458	8081
809.6	7989
809.741	7997
809.883	8024
810.025	8084
810.166	7982
810.308	7986
810.45	8016
810.591	7944
810.733	7731
810.875	7643
811.016	7476
811.158	7495
811.299	7548
811.441	7738
811.582	7700
811.724	7628
811.865	7575
812.007	7594
812.148	7613
812.29	7609
812.431	7708
812.573	7883
812.714	7944
812.855	8153
812.997	8195
813.138	8290
813.279	8145
813.421	8069
813.562	7989
813.703	7788
813.845	7715
813.986	7445
814.127	7247
814.268	7255
814.41	7164
814.551	7080
814.692	7247
814.833	7076
814.974	7069
815.115	7095
815.256	6939
815.397	6981
815.539	6958
815.68	6810
815.821	6749
815.962	6837
816.103	6859
816.244	6734
816.385	6635
816.526	6665
816.666	6563
816.807	6296
816.948	6422
817.089	6490
817.23	6460
817.371	6300
817.512	6342
817.653	6376
817.793	6384
817.934	6426
818.075	6437
818.216	6407
818.356	6418
818.497	6194
818.638	6133
818.778	6095
818.919	6178
819.06	6178
819.2	6353
819.341	6228
819.481	6376
819.622	6513
819.762	6707
819.903	6681
820.043	6620
820.184	6601
820.324	6585
820.465	6692
820.605	6696
820.746	6646
820.886	6536
821.026	6662
821.167	6715
821.307	6779
821.447	6779
821.588	6635
821.728	6540
821.868	6506
822.008	6342
822.149	6323
822.289	6380
822.429	6167
822.569	6087
822.709	6106
822.849	5912
822.99	5916
823.13	5950
823.27	5916
823.41	5786
823.55	5783
823.69	5760
823.83	5786
823.97	5627
824.11	5547
824.25	5516
824.389	5528
824.529	5589
824.669	5535
824.809	5630
824.949	5661
825.089	5573
825.228	5512
825.368	5387
825.508	5337
825.648	5353
825.787	5360
825.927	5318
826.067	5280
826.206	5261
826.346	5315
826.485	5414
826.625	5376
826.765	5524
826.904	5493
827.044	5227
827.183	5185
827.323	5109
827.462	5265
827.601	5204
827.741	5239
827.88	5242
828.02	5170
828.159	5231
828.298	5315
828.437	5341
828.577	5303
828.716	5471
828.855	5368
828.994	5166
829.134	5147
829.273	5235
829.412	5170
829.551	5166
829.69	5140
829.829	5288
829.968	5341
830.107	5322
830.246	5315
830.385	5239
830.524	5143
830.663	5079
830.802	4980
830.941	4877
831.08	4866
831.219	5052
831.357	5029
831.496	5227
831.635	4949
831.774	4904
831.913	4854
832.051	4748
832.19	4736
832.329	4877
832.467	4736
832.606	4672
832.744	4755
832.883	4778
833.022	4763
833.16	4790
833.299	4854
833.437	4858
833.576	4877
833.714	4911
833.852	4961
833.991	4892
834.129	5037
834.267	4930
834.406	4904
834.544	5041
834.682	5003
834.821	4972
834.959	5140
835.097	5037
835.235	5208
835.373	5159
835.511	5124
835.65	5064
835.788	5090
835.926	4946
836.064	4934
836.202	4965
836.34	5185
836.478	5216
836.615	5166
836.753	5208
836.891	5345
837.029	5250
837.167	5227
837.305	5197
837.443	5197
837.58	5121
837.718	5269
837.856	5265
837.993	5208
838.131	5269
838.269	5261
838.406	5322
838.544	5201
838.681	5128
838.819	5071
838.956	4919
839.094	4934
839.231	5029
839.369	5094
839.506	5425
839.643	5311
839.781	5090
839.918	4984
840.055	5155
840.193	5083
840.33	5083
840.467	5117
840.604	5220
840.742	5467
840.879	5124
841.016	5128
841.153	5162
841.29	5459
841.427	5357
841.564	5391
841.701	5383
841.838	5322
841.975	5307
842.112	5292
842.249	5166
842.385	5075
842.522	5395
842.659	5204
842.796	5201
842.933	5174
843.069	5105
843.206	5227
843.343	5345
843.479	5261
843.616	5277
843.752	5075
843.889	5022
844.025	5220
844.162	5064
844.298	5254
844.435	5094
844.571	5105
844.708	5242
844.844	5398
844.98	5318
845.117	5296
845.253	5143
845.389	5124
845.525	5143
845.661	5170
845.798	5079
845.934	5117
846.07	5048
846.206	5216
846.342	5307
846.478	5231
846.614	5033
846.75	5029
846.886	4984
847.022	5208
847.158	5086
847.294	5083
847.429	5181
847.565	5071
847.701	5353
847.837	4858
847.972	4858
848.108	4984
848.244	4976
848.379	4812
848.515	4698
848.65	4759
848.786	4778
848.921	4748
849.057	4900
849.192	4953
849.328	4831
849.463	4881
849.598	4854
849.734	4805
849.869	4717
850.004	4675
850.14	4687
850.275	4630
850.41	4577
850.545	4622
850.68	4618
850.815	4656
850.95	4649
851.085	4820
851.22	4782
851.355	4698
851.49	4641
851.625	4649
851.76	4691
851.895	4634
852.03	4561
852.165	4702
852.299	4714
852.434	4839
852.569	4812
852.703	4793
852.838	4839
852.973	4900
853.107	4942
853.242	4755
853.376	4736
853.511	4573
853.645	4634
853.78	4839
853.914	4710
854.048	4687
854.183	4714
854.317	4740
854.451	4847
854.585	4714
854.72	4679
854.854	4774
854.988	4607
855.122	4706
855.256	4580
855.39	4725
855.524	4771
855.658	4763
855.792	4729
855.926	4835
856.06	4824
856.194	4915
856.327	4755
856.461	4698
856.595	4664
856.729	4592
856.862	4793
856.996	4759
857.13	4767
857.263	4828
857.397	4870
857.53	4668
857.664	4786
857.797	4771
857.931	4812
858.064	4710
858.197	4736
858.331	4694
858.464	4649
858.597	4607
858.731	4649
858.864	4725
858.997	4634
859.13	4710
859.263	4702
859.396	4767
859.529	4599
859.662	4588
859.795	4569
859.928	4592
860.061	4793
860.194	4763
860.327	4637
860.46	4554
860.592	4744
860.725	4694
860.858	4694
860.99	4618
861.123	4546
861.256	4554
861.388	4618
861.521	5448
861.653	4527
861.786	4481
861.918	4493
862.05	4512
862.183	4603
862.315	4618
862.447	4691
862.58	4535
862.712	4470
862.844	4360
862.976	4497
863.108	4489
863.24	4828
863.372	4352
863.504	4421
863.636	4470
863.768	4516
863.9	4402
864.032	4379
864.164	4466
864.296	4443
864.428	4558
864.559	4615
864.691	4546
864.823	4546
864.954	4516
865.086	4500
865.217	4489
865.349	4424
865.48	4485
865.612	4512
865.743	4641
865.875	4497
866.006	4497
866.137	4485
866.269	4443
866.4	4443
866.531	4462
866.662	4398
866.793	4413
866.924	4443
867.055	4538
867.186	4500
867.317	4451
867.448	4367
867.579	4409
867.71	4402
867.841	4402
867.972	4493
868.103	4466
868.233	4497
868.364	4489
868.495	4497
868.625	4717
868.756	4790
868.886	4596
869.017	4668
869.147	4820
869.278	4725
869.408	4679
869.539	4649
869.669	4767
869.799	4672
869.929	4774
870.06	4759
870.19	4961
870.32	4930
870.45	5003
870.58	5102
870.71	5086
870.84	5086
870.97	4968
871.1	4980
871.23	5189
871.36	5143
871.489	5094
871.619	5128
871.749	5117
871.879	5178
872.008	5212
872.138	5075
872.267	5014
872.397	4839
872.526	4801
872.656	4717
872.785	4809
872.915	5025
873.044	5098
873.173	5006
873.303	5037
873.432	4942
873.561	4930
873.69	4881
873.819	4866
873.948	4934
874.077	4835
874.206	4843
874.335	4854
874.464	4957
874.593	5105
874.722	4984
874.851	5124
874.979	5071
875.108	5045
875.237	4896
875.365	4908
875.494	4934
875.623	5014
875.751	4824
875.88	4927
876.008	4987
876.136	5037
876.265	5231
876.393	5357
876.521	5227
876.65	5250
876.778	5231
876.906	5132
877.034	5010
877.162	5098
877.29	5056
877.418	5064
877.546	5075
877.674	5010
877.802	5003
877.93	5003
878.058	4965
878.185	4904
878.313	4999
878.441	4972
878.568	4828
878.696	4934
878.824	5025
878.951	5052
879.079	5178
879.206	5307
879.333	5151
879.461	4995
879.588	5025
879.715	5155
879.842	5246
879.97	5075
880.097	4805
880.224	4835
880.351	4828
880.478	4885
880.605	4820
880.732	4809
880.859	5067
880.986	4915
881.112	4904
881.239	4805
881.366	4675
881.493	4630
881.619	4645
881.746	4668
881.872	4683
881.999	4668
882.125	4721
882.252	4778
882.378	4850
882.505	4991
882.631	4843
882.757	4664
882.883	4755
883.01	4767
883.136	4645
883.262	4664
883.388	4679
883.514	4892
883.64	4896
883.766	4790
883.892	4740
884.018	4733
884.143	4930
884.269	5014
884.395	4706
884.52	4675
884.646	4649
884.772	4634
884.897	4573
885.023	4717
885.148	4816
885.274	4854
885.399	4824
885.524	4725
885.65	4740
885.775	4702
885.9	4725
886.025	4870
886.15	4816
886.275	4710
886.4	4618
886.525	4717
886.65	4714
886.775	4733
886.9	4904
887.025	5037
887.149	4797
887.274	4694
887.399	4615
887.523	4588
887.648	4596
887.773	4668
887.897	4801
888.021	4805
888.146	4729
888.27	4824
888.395	4968
888.519	4854
888.643	4862
888.767	4854
888.891	4687
889.015	4618
889.139	4668
889.263	4615
889.387	4797
889.511	4881
889.635	4816
889.759	4679
889.883	4645
890.006	4763
890.13	4847
890.254	4615
890.377	4702
890.501	4626
890.624	4504
890.748	4683
890.871	4531
890.995	4443
891.118	4405
891.241	4516
891.364	4580
891.488	4653
891.611	4546
891.734	4542
891.857	4603
891.98	4558
892.103	4637
892.226	4641
892.349	4558
892.471	4428
892.594	4569
892.717	4641
892.839	4622
892.962	4615
893.085	4687
893.207	4615
893.33	4497
893.452	4527
893.575	4664
893.697	4580
893.819	4809
893.941	4801
894.064	4786
894.186	4630
894.308	4580
894.43	4694
894.552	4824
894.674	4767
894.796	4531
894.918	4622
895.04	4611
895.161	4679
895.283	4698
895.405	4603
895.526	4679
895.648	4664
895.769	4691
895.891	4740
896.012	4767
896.134	4736
896.255	4694
896.376	4691
896.498	4637
896.619	4683
896.74	4683
896.861	4653
896.982	4980
897.103	5079
897.224	4873
897.345	4801
897.466	4706
897.587	4736
897.708	4854
897.828	4805
897.949	4691
898.07	4580
898.19	4649
898.311	4847
898.431	4725
898.552	4771
898.672	4820
898.792	4862
898.913	4752
899.033	4611
899.153	4497
899.273	4489
899.393	4508
899.513	4527
899.633	4565
899.753	4588
899.873	4500
899.993	4656
900.113	4588
900.232	4664
900.352	4573
900.472	4493
900.591	4432
900.711	4504
900.83	4443
900.95	4580
901.069	4744
901.189	4527
901.308	4405
901.427	4325
901.546	4348
901.665	4489
901.784	4577
901.904	4409
902.023	4360
902.141	4215
902.26	4204
902.379	4348
902.498	4238
902.617	4242
902.735	4379
902.854	4424
902.973	4344
903.091	4261
903.21	4261
903.328	4280
903.446	4276
903.565	4249
903.683	4363
903.801	4257
903.919	4440
904.038	4459
904.156	4329
904.274	4485
904.392	4428
904.51	4428
904.627	4500
904.745	4558
904.863	4630
904.981	4375
905.098	4318
905.216	4383
905.334	4428
905.451	4413
905.569	4478
905.686	4573
905.803	4626
905.921	4432
906.038	4592
906.155	4493
906.272	4443
906.389	4455
906.506	4360
906.623	4371
906.74	4424
906.857	4314
906.974	4379
907.091	4596
907.208	4725
907.324	4565
907.441	4504
907.557	4348
907.674	4352
907.79	4375
907.907	4417
908.023	4489
908.139	4474
908.256	4455
908.372	4428
908.488	4466
908.604	4390
908.72	4348
908.836	4386
908.952	4386
909.068	4466
909.184	4588
909.3	4432
909.415	4588
909.531	4573
909.647	4367
909.762	4402
909.878	4375
909.993	4413
910.108	4402
910.224	4409
910.339	4504
910.454	4409
910.57	4409
910.685	4348
910.8	4584
910.915	4611
911.03	4512
911.145	4417
911.259	4363
911.374	4386
911.489	4303
911.604	4333
911.718	4181
911.833	4223
911.947	4040
912.062	4059
912.176	4261
912.291	4215
912.405	4234
912.519	4455
912.633	4531
912.748	4363
912.862	4306
912.976	4196
913.09	4124
913.204	4173
913.318	4215
913.431	4402
913.545	4383
913.659	4451
913.772	4352
913.886	4257
914	4268
914.113	4352
914.226	4474
914.34	4398
914.453	4246
914.566	4462
914.68	4352
914.793	4367
914.906	4162
915.019	4173
915.132	4109
915.245	4200
915.358	4219
915.47	4211
915.583	4272
915.696	4284
915.809	4417
915.921	4440
916.034	4249
916.146	4272
916.259	4249
916.371	4375
916.483	4394
916.595	4230
916.708	4322
916.82	4333
916.932	4352
917.044	4310
917.156	4360
917.268	4249
917.38	4268
917.491	4303
917.603	4341
917.715	4390
917.826	4462
917.938	4341
918.049	4230
918.161	4436
918.272	4588
918.384	4550
918.495	4413
918.606	4318
918.717	4280
918.828	4341
918.939	4386
919.05	4246
919.161	4341
919.272	4162
919.383	4219
919.494	4440
919.604	4618
919.715	4428
919.826	4337
919.936	4398
920.047	4531
920.157	4432
920.267	4683
920.378	4550
920.488	4485
920.598	4721
920.708	4881
920.818	4748
920.928	4786
921.038	5003
921.148	4919
921.258	4634
921.368	4599
921.477	4485
921.587	4443
921.697	4409
921.806	4497
921.916	4466
922.025	4291
922.134	4284
922.244	4249
922.353	4386
922.462	4177
922.571	4154
922.68	4063
922.789	4006
922.898	4067
923.007	3964
923.116	4135
923.224	4090
923.333	4101
923.442	4021
923.55	3994
923.659	4032
923.767	4105
923.876	4017
923.984	4135
924.092	4010
924.201	4086
924.309	4078
924.417	4093
924.525	4078
924.633	4101
924.741	5071
924.849	3949
924.956	4154
925.064	3937
925.172	3888
925.279	3934
925.387	4105
925.494	4101
925.602	4253
925.709	4215
925.816	4048
925.924	4135
926.031	4211
926.138	4131
926.245	4234
926.352	4135
926.459	4268
926.566	4268
926.673	4147
926.779	4071
926.886	4097
926.993	3991
927.099	3991
927.206	3930
927.312	3956
927.419	4032
927.525	4063
927.631	4090
927.737	4010
927.843	3987
927.95	3846
928.056	3956
928.162	4006
928.267	4059
928.373	4618
928.479	4124
928.585	3873
928.69	4044
928.796	4105
928.901	3987
929.007	3865
929.112	4002
929.218	4017
929.323	3949
929.428	3941
929.533	4166
929.638	3937
929.743	3930
929.848	4040
929.953	4017
930.058	3979
930.163	3800
930.267	3857
930.372	3972
930.477	3800
930.581	4128
930.685	3911
930.79	3838
930.894	3880
930.998	3835
931.103	4051
931.207	3751
931.311	3709
931.415	3679
931.519	3500
931.623	3584
