Data from test_V78500241_2816.txt Node
Date: Fri Mar 25 17:08:34 CST 2022
User: usil
Spectrometer: V785-0024
Trigger mode: 0
Integration Time (sec): 4.000000E-1
Scans to average: 1
Nonlinearity correction enabled: false
Boxcar width: 0
Storing dark spectrum: false
XAxis mode: Wavelengths
Number of Pixels in Spectrum: 1024
>>>>>Begin Spectral Data<<<<<
801.071	8008
801.214	8027
801.356	7894
801.499	7936
801.641	7890
801.783	7940
801.926	7978
802.068	7955
802.211	8039
802.353	8035
802.496	7890
802.638	7860
802.78	7963
802.923	7940
803.065	7875
803.208	7868
803.35	8050
803.492	8138
803.635	8145
803.777	8046
803.919	8218
804.061	8488
804.204	8088
804.346	8092
804.488	8050
804.63	8145
804.773	8077
804.915	8119
805.057	8259
805.199	8161
805.341	8259
805.483	8282
805.626	8305
805.768	8187
805.91	8233
806.052	8225
806.194	8161
806.336	8339
806.478	8149
806.62	8020
806.762	8138
806.904	8290
807.046	8446
807.188	8362
807.33	8332
807.472	8351
807.614	8244
807.756	8153
807.898	8103
808.04	7951
808.182	7871
808.324	7928
808.465	7959
808.607	8046
808.749	8164
808.891	8233
809.033	8347
809.174	8218
809.316	8142
809.458	8031
809.6	8020
809.741	8035
809.883	8138
810.025	8096
810.166	8130
810.308	8020
810.45	8016
810.591	7909
810.733	7723
810.875	7700
811.016	7548
811.158	7476
811.299	7639
811.441	7746
811.582	7761
811.724	7567
811.865	7632
812.007	7578
812.148	7643
812.29	7674
812.431	7761
812.573	7860
812.714	7989
812.855	8161
812.997	8244
813.138	8358
813.279	8191
813.421	8164
813.562	8081
813.703	7951
813.845	7734
813.986	7502
814.127	7266
814.268	7293
814.41	7278
814.551	7259
814.692	7236
814.833	7069
814.974	7091
815.115	7122
815.256	6924
815.397	7038
815.539	6985
815.68	6848
815.821	6852
815.962	6951
816.103	6859
816.244	6798
816.385	6692
816.526	6650
816.666	6593
816.807	6331
816.948	6486
817.089	6506
817.23	6502
817.371	6456
817.512	6418
817.653	6437
817.793	6395
817.934	6502
818.075	6490
818.216	6479
818.356	6475
818.497	6300
818.638	6144
818.778	6167
818.919	6258
819.06	6190
819.2	6323
819.341	6342
819.481	6418
819.622	6566
819.762	6734
819.903	6707
820.043	6635
820.184	6608
820.324	6620
820.465	6833
820.605	6684
820.746	6665
820.886	6547
821.026	6711
821.167	6760
821.307	6829
821.447	6837
821.588	6673
821.728	6585
821.868	6532
822.008	6403
822.149	6376
822.289	6388
822.429	6144
822.569	6140
822.709	6140
822.849	5973
822.99	5889
823.13	5923
823.27	5969
823.41	5760
823.55	5809
823.69	5767
823.83	5786
823.97	5668
824.11	5585
824.25	5554
824.389	5611
824.529	5592
824.669	5551
824.809	5665
824.949	5699
825.089	5703
825.228	5600
825.368	5429
825.508	5341
825.648	5425
825.787	5478
825.927	5387
826.067	5349
826.206	5303
826.346	5387
826.485	5383
826.625	5429
826.765	5551
826.904	5535
827.044	5280
827.183	5204
827.323	5162
827.462	5242
827.601	5204
827.741	5220
827.88	5258
828.02	5128
828.159	5269
828.298	5322
828.437	5353
828.577	5307
828.716	5452
828.855	5357
828.994	5189
829.134	5178
829.273	5208
829.412	5136
829.551	5124
829.69	5193
829.829	5280
829.968	5376
830.107	5269
830.246	5326
830.385	5193
830.524	5143
830.663	5140
830.802	4999
830.941	4896
831.08	4915
831.219	5029
831.357	4995
831.496	5162
831.635	4968
831.774	4854
831.913	4908
832.051	4733
832.19	4778
832.329	4858
832.467	4679
832.606	4702
832.744	4759
832.883	4733
833.022	4755
833.16	4850
833.299	4854
833.437	4828
833.576	4854
833.714	4896
833.852	4877
833.991	4927
834.129	4984
834.267	4995
834.406	5006
834.544	5006
834.682	4938
834.821	4984
834.959	5197
835.097	4999
835.235	5201
835.373	5090
835.511	5147
835.65	5067
835.788	5064
835.926	4889
836.064	4915
836.202	4877
836.34	5223
836.478	5227
836.615	5128
836.753	5254
836.891	5349
837.029	5292
837.167	5193
837.305	5185
837.443	5155
837.58	5083
837.718	5280
837.856	5216
837.993	5117
838.131	5284
838.269	5258
838.406	5239
838.544	5204
838.681	5060
838.819	5086
838.956	4930
839.094	4942
839.231	4976
839.369	5079
839.506	5387
839.643	5254
839.781	5056
839.918	5064
840.055	5113
840.193	5113
840.33	5147
840.467	5075
840.604	5204
840.742	5421
840.879	5105
841.016	5124
841.153	5162
841.29	5406
841.427	5334
841.564	5315
841.701	5376
841.838	5337
841.975	5242
842.112	5292
842.249	5170
842.385	5155
842.522	5337
842.659	5197
842.796	5151
842.933	5193
843.069	5136
843.206	5216
843.343	5307
843.479	5296
843.616	5303
843.752	5071
843.889	5045
844.025	5254
844.162	5037
844.298	5258
844.435	5178
844.571	5064
844.708	5235
844.844	5296
844.98	5368
845.117	5296
845.253	5143
845.389	5113
845.525	5204
845.661	5162
845.798	5064
845.934	5151
846.07	5060
846.206	5185
846.342	5341
846.478	5189
846.614	5041
846.75	4980
846.886	4949
847.022	5143
847.158	4995
847.294	5094
847.429	5090
847.565	5067
847.701	5360
847.837	4889
847.972	4858
848.108	5022
848.244	4949
848.379	4820
848.515	4790
848.65	4740
848.786	4774
848.921	4790
849.057	4896
849.192	4892
849.328	4828
849.463	4881
849.598	4809
849.734	4801
849.869	4717
850.004	4656
850.14	4725
850.275	4607
850.41	4577
850.545	4599
850.68	4622
850.815	4687
850.95	4634
851.085	4881
851.22	4778
851.355	4687
851.49	4675
851.625	4649
851.76	4649
851.895	4592
852.03	4554
852.165	4649
852.299	4759
852.434	4771
852.569	4725
852.703	4740
852.838	4900
852.973	4927
853.107	4938
853.242	4782
853.376	4687
853.511	4523
853.645	4611
853.78	4812
853.914	4740
854.048	4694
854.183	4660
854.317	4729
854.451	4881
854.585	4672
854.72	4691
854.854	4778
854.988	4603
855.122	4641
855.256	4565
855.39	4706
855.524	4778
855.658	4763
855.792	4698
855.926	4752
856.06	4721
856.194	4854
856.327	4733
856.461	4599
856.595	4603
856.729	4649
856.862	4759
856.996	4653
857.13	4744
857.263	4771
857.397	4801
857.53	4668
857.664	4698
857.797	4763
857.931	4828
858.064	4714
858.197	4736
858.331	4679
858.464	4645
858.597	4596
858.731	4683
858.864	4702
858.997	4668
859.13	4675
859.263	4679
859.396	4752
859.529	4637
859.662	4592
859.795	4584
859.928	4596
860.061	4752
860.194	4755
860.327	4630
860.46	4546
860.592	4736
860.725	4748
860.858	4759
860.99	4573
861.123	4569
861.256	4523
861.388	4592
861.521	5315
861.653	4459
861.786	4470
861.918	4538
862.05	4531
862.183	4577
862.315	4618
862.447	4679
862.58	4596
862.712	4455
862.844	4367
862.976	4485
863.108	4470
863.24	4752
863.372	4371
863.504	4451
863.636	4402
863.768	4447
863.9	4428
864.032	4405
864.164	4440
864.296	4478
864.428	4588
864.559	4546
864.691	4550
864.823	4504
864.954	4493
865.086	4538
865.217	4485
865.349	4447
865.48	4466
865.612	4512
865.743	4622
865.875	4497
866.006	4455
866.137	4474
866.269	4447
866.4	4470
866.531	4466
866.662	4462
866.793	4432
866.924	4440
867.055	4504
867.186	4489
867.317	4474
867.448	4386
867.579	4417
867.71	4402
867.841	4367
867.972	4413
868.103	4523
868.233	4402
868.364	4455
868.495	4485
868.625	4664
868.756	4748
868.886	4592
869.017	4641
869.147	4721
869.278	4816
869.408	4664
869.539	4641
869.669	4790
869.799	4683
869.929	4790
870.06	4763
870.19	4991
870.32	4946
870.45	4980
870.58	5014
870.71	5117
870.84	5079
870.97	4957
871.1	4877
871.23	5155
871.36	5136
871.489	5067
871.619	5075
871.749	5090
871.879	5121
872.008	5197
872.138	5090
872.267	4980
872.397	4877
872.526	4850
872.656	4748
872.785	4797
872.915	4930
873.044	5018
873.173	5018
873.303	4984
873.432	4911
873.561	4911
873.69	4915
873.819	4892
873.948	4930
874.077	4797
874.206	4736
874.335	4828
874.464	4934
874.593	5052
874.722	5003
874.851	5109
874.979	5014
875.108	5083
875.237	4881
875.365	4911
875.494	4877
875.623	5025
875.751	4820
875.88	4965
876.008	5014
876.136	4984
876.265	5185
876.393	5353
876.521	5284
876.65	5208
876.778	5162
876.906	5102
877.034	5033
877.162	5075
877.29	5010
877.418	5079
877.546	5056
877.674	4999
877.802	5060
877.93	5022
878.058	4930
878.185	4915
878.313	4972
878.441	4923
878.568	4809
878.696	4862
878.824	5010
878.951	5010
879.079	5105
879.206	5292
879.333	5162
879.461	5010
879.588	5037
879.715	5124
879.842	5227
879.97	5006
880.097	4786
880.224	4790
880.351	4816
880.478	4828
880.605	4748
880.732	4809
880.859	5071
880.986	4908
881.112	4938
881.239	4790
881.366	4653
881.493	4580
881.619	4645
881.746	4691
881.872	4615
881.999	4660
882.125	4679
882.252	4809
882.378	4820
882.505	4984
882.631	4812
882.757	4653
882.883	4801
883.01	4668
883.136	4656
883.262	4607
883.388	4660
883.514	4786
883.64	4862
883.766	4816
883.892	4706
884.018	4736
884.143	4938
884.269	5033
884.395	4660
884.52	4634
884.646	4630
884.772	4561
884.897	4546
885.023	4729
885.148	4748
885.274	4854
885.399	4820
885.524	4744
885.65	4710
885.775	4748
885.9	4702
886.025	4877
886.15	4759
886.275	4748
886.4	4698
886.525	4683
886.65	4702
886.775	4660
886.9	4927
887.025	5052
887.149	4828
887.274	4641
887.399	4611
887.523	4611
887.648	4584
887.773	4550
887.897	4774
888.021	4809
888.146	4668
888.27	4801
888.395	4911
888.519	4839
888.643	4820
888.767	4854
888.891	4679
889.015	4641
889.139	4698
889.263	4645
889.387	4782
889.511	4835
889.635	4790
889.759	4615
889.883	4710
890.006	4755
890.13	4801
890.254	4618
890.377	4683
890.501	4523
890.624	4512
890.748	4687
890.871	4481
890.995	4447
891.118	4409
891.241	4504
891.364	4550
891.488	4626
891.611	4455
891.734	4573
891.857	4523
891.98	4599
892.103	4687
892.226	4580
892.349	4558
892.471	4436
892.594	4531
892.717	4622
892.839	4577
892.962	4588
893.085	4641
893.207	4596
893.33	4436
893.452	4523
893.575	4641
893.697	4527
893.819	4824
893.941	4782
894.064	4809
894.186	4573
894.308	4565
894.43	4752
894.552	4839
894.674	4763
894.796	4580
894.918	4577
895.04	4622
895.161	4672
895.283	4698
895.405	4599
895.526	4641
895.648	4691
895.769	4630
895.891	4729
896.012	4710
896.134	4668
896.255	4710
896.376	4626
896.498	4611
896.619	4721
896.74	4634
896.861	4649
896.982	4987
897.103	5056
897.224	4835
897.345	4752
897.466	4683
897.587	4710
897.708	4858
897.828	4812
897.949	4729
898.07	4584
898.19	4607
898.311	4812
898.431	4607
898.552	4702
898.672	4820
898.792	4748
898.913	4771
899.033	4565
899.153	4455
899.273	4440
899.393	4493
899.513	4527
899.633	4519
899.753	4535
899.873	4542
899.993	4607
900.113	4577
900.232	4592
900.352	4523
900.472	4485
900.591	4440
900.711	4504
900.83	4455
900.95	4596
901.069	4649
901.189	4561
901.308	4417
901.427	4348
901.546	4352
901.665	4466
901.784	4550
901.904	4360
902.023	4303
902.141	4143
902.26	4135
902.379	4303
902.498	4265
902.617	4249
902.735	4386
902.854	4428
902.973	4348
903.091	4200
903.21	4249
903.328	4268
903.446	4295
903.565	4261
903.683	4394
903.801	4257
903.919	4375
904.038	4436
904.156	4291
904.274	4424
904.392	4424
904.51	4451
904.627	4451
904.745	4561
904.863	4580
904.981	4409
905.098	4299
905.216	4352
905.334	4417
905.451	4440
905.569	4447
905.686	4577
905.803	4531
905.921	4451
906.038	4531
906.155	4519
906.272	4383
906.389	4462
906.506	4352
906.623	4344
906.74	4379
906.857	4322
906.974	4386
907.091	4546
907.208	4645
907.324	4592
907.441	4497
907.557	4344
907.674	4352
907.79	4360
907.907	4363
908.023	4485
908.139	4447
908.256	4478
908.372	4489
908.488	4440
908.604	4363
908.72	4356
908.836	4356
908.952	4413
909.068	4383
909.184	4577
909.3	4466
909.415	4577
909.531	4504
909.647	4360
909.762	4390
909.878	4348
909.993	4417
910.108	4436
910.224	4390
910.339	4481
910.454	4421
910.57	4398
910.685	4329
910.8	4641
910.915	4611
911.03	4527
911.145	4303
911.259	4348
911.374	4383
911.489	4306
911.604	4272
911.718	4169
911.833	4181
911.947	4097
912.062	4051
912.176	4227
912.291	4219
912.405	4219
912.519	4489
912.633	4474
912.748	4337
912.862	4333
912.976	4223
913.09	4090
913.204	4166
913.318	4246
913.431	4386
913.545	4394
913.659	4455
913.772	4367
913.886	4238
914	4253
914.113	4386
914.226	4436
914.34	4333
914.453	4272
914.566	4417
914.68	4272
914.793	4333
914.906	4200
915.019	4074
915.132	4059
915.245	4181
915.358	4223
915.47	4261
915.583	4268
915.696	4291
915.809	4413
915.921	4428
916.034	4227
916.146	4257
916.259	4249
916.371	4329
916.483	4348
916.595	4230
916.708	4318
916.82	4344
916.932	4284
917.044	4322
917.156	4322
917.268	4219
917.38	4299
917.491	4246
917.603	4352
917.715	4459
917.826	4436
917.938	4356
918.049	4265
918.161	4424
918.272	4527
918.384	4489
918.495	4405
918.606	4322
918.717	4238
918.828	4303
918.939	4337
919.05	4238
919.161	4341
919.272	4116
919.383	4253
919.494	4436
919.604	4588
919.715	4497
919.826	4352
919.936	4394
920.047	4542
920.157	4558
920.267	4752
920.378	4512
920.488	4512
920.598	4733
920.708	4949
920.818	4744
920.928	4755
921.038	4949
921.148	4915
921.258	4653
921.368	4577
921.477	4455
921.587	4470
921.697	4402
921.806	4569
921.916	4462
922.025	4223
922.134	4280
922.244	4265
922.353	4318
922.462	4181
922.571	4143
922.68	3998
922.789	4002
922.898	4002
923.007	3983
923.116	4139
923.224	4071
923.333	4071
923.442	3945
923.55	3956
923.659	3991
923.767	4074
923.876	4032
923.984	4074
924.092	3979
924.201	4067
924.309	4135
924.417	4112
924.525	4063
924.633	4067
924.741	4911
924.849	3907
924.956	4101
925.064	3945
925.172	3884
925.279	3960
925.387	4063
925.494	4021
925.602	4211
925.709	4169
925.816	4044
925.924	4131
926.031	4234
926.138	4158
926.245	4192
926.352	4044
926.459	4192
926.566	4310
926.673	4154
926.779	4101
926.886	4067
926.993	3975
927.099	3911
927.206	3960
927.312	3918
927.419	4067
927.525	4029
927.631	4128
927.737	3953
927.843	3972
927.95	3827
928.056	3975
928.162	4010
928.267	4044
928.373	4550
928.479	4135
928.585	3865
928.69	4002
928.796	4128
928.901	3975
929.007	3884
929.112	3953
929.218	4002
929.323	3903
929.428	3975
929.533	4116
929.638	3922
929.743	3949
929.848	4021
929.953	3991
930.058	3956
930.163	3804
930.267	3831
930.372	3987
930.477	3812
930.581	4071
930.685	3949
930.79	3869
930.894	3880
930.998	3823
931.103	4051
931.207	3724
931.311	3667
931.415	3644
931.519	3515
931.623	3572
