Data from test_V78500241_342.txt Node
Date: Fri Mar 25 16:51:22 CST 2022
User: usil
Spectrometer: V785-0024
Trigger mode: 0
Integration Time (sec): 4.000000E-1
Scans to average: 1
Nonlinearity correction enabled: false
Boxcar width: 0
Storing dark spectrum: false
XAxis mode: Wavelengths
Number of Pixels in Spectrum: 1024
>>>>>Begin Spectral Data<<<<<
801.071	8115
801.214	7993
801.356	7959
801.499	7890
801.641	7860
801.783	7917
801.926	8035
802.068	7974
802.211	7986
802.353	8107
802.496	7902
802.638	7967
802.78	7986
802.923	7947
803.065	7890
803.208	7887
803.35	8039
803.492	8092
803.635	8191
803.777	7997
803.919	8115
804.061	8488
804.204	8111
804.346	8062
804.488	7986
804.63	8130
804.773	8043
804.915	8126
805.057	8256
805.199	8157
805.341	8240
805.483	8248
805.626	8252
805.768	8138
805.91	8180
806.052	8214
806.194	8073
806.336	8248
806.478	8233
806.62	8130
806.762	8145
806.904	8263
807.046	8476
807.188	8339
807.33	8275
807.472	8393
807.614	8210
807.756	8218
807.898	8039
808.04	7925
808.182	7986
808.324	7978
808.465	7986
808.607	8088
808.749	8187
808.891	8183
809.033	8336
809.174	8176
809.316	8005
809.458	8103
809.6	7993
809.741	8012
809.883	8073
810.025	8145
810.166	8077
810.308	8092
810.45	7970
810.591	7925
810.733	7734
810.875	7655
811.016	7533
811.158	7487
811.299	7719
811.441	7788
811.582	7788
811.724	7727
811.865	7674
812.007	7712
812.148	7575
812.29	7597
812.431	7708
812.573	7864
812.714	7986
812.855	8172
812.997	8134
813.138	8267
813.279	8145
813.421	8161
813.562	8008
813.703	7803
813.845	7811
813.986	7533
814.127	7365
814.268	7324
814.41	7198
814.551	7179
814.692	7225
814.833	7080
814.974	7129
815.115	7118
815.256	6935
815.397	6962
815.539	6973
815.68	6787
815.821	6738
815.962	6863
816.103	6905
816.244	6745
816.385	6703
816.526	6654
816.666	6566
816.807	6251
816.948	6483
817.089	6479
817.23	6464
817.371	6365
817.512	6422
817.653	6426
817.793	6331
817.934	6388
818.075	6498
818.216	6479
818.356	6426
818.497	6277
818.638	6144
818.778	6213
818.919	6148
819.06	6182
819.2	6350
819.341	6346
819.481	6388
819.622	6528
819.762	6772
819.903	6700
820.043	6620
820.184	6559
820.324	6642
820.465	6665
820.605	6635
820.746	6650
820.886	6593
821.026	6688
821.167	6730
821.307	6814
821.447	6806
821.588	6707
821.728	6601
821.868	6563
822.008	6422
822.149	6395
822.289	6391
822.429	6205
822.569	6095
822.709	6152
822.849	5920
822.99	5996
823.13	5988
823.27	6003
823.41	5844
823.55	5779
823.69	5798
823.83	5805
823.97	5707
824.11	5600
824.25	5627
824.389	5623
824.529	5646
824.669	5592
824.809	5684
824.949	5688
825.089	5703
825.228	5589
825.368	5402
825.508	5391
825.648	5368
825.787	5436
825.927	5383
826.067	5345
826.206	5372
826.346	5467
826.485	5455
826.625	5459
826.765	5634
826.904	5512
827.044	5330
827.183	5258
827.323	5197
827.462	5277
827.601	5239
827.741	5208
827.88	5242
828.02	5155
828.159	5239
828.298	5311
828.437	5349
828.577	5334
828.716	5577
828.855	5395
828.994	5166
829.134	5231
829.273	5246
829.412	5159
829.551	5220
829.69	5178
829.829	5254
829.968	5398
830.107	5292
830.246	5368
830.385	5246
830.524	5220
830.663	5166
830.802	5045
830.941	4968
831.08	4923
831.219	5052
831.357	5056
831.496	5231
831.635	5010
831.774	4866
831.913	4866
832.051	4797
832.19	4854
832.329	4911
832.467	4790
832.606	4729
832.744	4725
832.883	4828
833.022	4729
833.16	4801
833.299	4843
833.437	4881
833.576	4877
833.714	4858
833.852	4892
833.991	4980
834.129	4972
834.267	4980
834.406	4927
834.544	5025
834.682	5079
834.821	5022
834.959	5193
835.097	4980
835.235	5220
835.373	5109
835.511	5102
835.65	5010
835.788	5083
835.926	4904
836.064	4930
836.202	4953
836.34	5227
836.478	5258
836.615	5166
836.753	5277
836.891	5360
837.029	5284
837.167	5227
837.305	5181
837.443	5216
837.58	5128
837.718	5311
837.856	5216
837.993	5201
838.131	5269
838.269	5315
838.406	5212
838.544	5246
838.681	5083
838.819	5048
838.956	4961
839.094	4965
839.231	5060
839.369	5117
839.506	5478
839.643	5292
839.781	5102
839.918	5075
840.055	5189
840.193	5166
840.33	5170
840.467	5212
840.604	5254
840.742	5516
840.879	5121
841.016	5147
841.153	5178
841.29	5425
841.427	5334
841.564	5383
841.701	5421
841.838	5330
841.975	5280
842.112	5280
842.249	5132
842.385	5162
842.522	5349
842.659	5155
842.796	5178
842.933	5201
843.069	5159
843.206	5212
843.343	5391
843.479	5280
843.616	5318
843.752	5109
843.889	5018
844.025	5265
844.162	5086
844.298	5201
844.435	5121
844.571	5067
844.708	5273
844.844	5299
844.98	5391
845.117	5322
845.253	5143
845.389	5140
845.525	5231
845.661	5189
845.798	5079
845.934	5162
846.07	5121
846.206	5223
846.342	5322
846.478	5235
846.614	5033
846.75	5014
846.886	4934
847.022	5197
847.158	5064
847.294	5098
847.429	5155
847.565	5067
847.701	5341
847.837	4885
847.972	4820
848.108	5003
848.244	4984
848.379	4793
848.515	4778
848.65	4771
848.786	4771
848.921	4816
849.057	4900
849.192	4919
849.328	4824
849.463	4847
849.598	4835
849.734	4790
849.869	4691
850.004	4675
850.14	4740
850.275	4626
850.41	4580
850.545	4626
850.68	4672
850.815	4615
850.95	4626
851.085	4873
851.22	4828
851.355	4702
851.49	4626
851.625	4675
851.76	4672
851.895	4592
852.03	4523
852.165	4725
852.299	4778
852.434	4797
852.569	4824
852.703	4797
852.838	4870
852.973	4984
853.107	4938
853.242	4755
853.376	4717
853.511	4584
853.645	4675
853.78	4835
853.914	4710
854.048	4698
854.183	4710
854.317	4721
854.451	4900
854.585	4672
854.72	4618
854.854	4809
854.988	4615
855.122	4721
855.256	4535
855.39	4649
855.524	4828
855.658	4710
855.792	4786
855.926	4774
856.06	4755
856.194	4889
856.327	4748
856.461	4691
856.595	4656
856.729	4618
856.862	4752
856.996	4763
857.13	4759
857.263	4820
857.397	4839
857.53	4679
857.664	4748
857.797	4820
857.931	4873
858.064	4748
858.197	4812
858.331	4717
858.464	4664
858.597	4561
858.731	4626
858.864	4675
858.997	4660
859.13	4714
859.263	4721
859.396	4736
859.529	4637
859.662	4645
859.795	4554
859.928	4615
860.061	4744
860.194	4786
860.327	4687
860.46	4626
860.592	4740
860.725	4710
860.858	4729
860.99	4649
861.123	4558
861.256	4565
861.388	4702
861.521	5421
861.653	4527
861.786	4500
861.918	4485
862.05	4504
862.183	4577
862.315	4580
862.447	4710
862.58	4584
862.712	4424
862.844	4341
862.976	4516
863.108	4481
863.24	4809
863.372	4363
863.504	4470
863.636	4447
863.768	4531
863.9	4459
864.032	4394
864.164	4443
864.296	4474
864.428	4561
864.559	4607
864.691	4596
864.823	4538
864.954	4531
865.086	4497
865.217	4466
865.349	4466
865.48	4440
865.612	4512
865.743	4656
865.875	4516
866.006	4447
866.137	4504
866.269	4466
866.4	4443
866.531	4470
866.662	4432
866.793	4443
866.924	4455
867.055	4489
867.186	4447
867.317	4466
867.448	4421
867.579	4390
867.71	4424
867.841	4424
867.972	4409
868.103	4470
868.233	4474
868.364	4546
868.495	4516
868.625	4702
868.756	4812
868.886	4622
869.017	4668
869.147	4797
869.278	4850
869.408	4744
869.539	4660
869.669	4721
869.799	4660
869.929	4778
870.06	4767
870.19	4980
870.32	4953
870.45	4987
870.58	5090
870.71	5155
870.84	5098
870.97	4965
871.1	4946
871.23	5178
871.36	5124
871.489	5048
871.619	5140
871.749	5094
871.879	5124
872.008	5201
872.138	5140
872.267	5010
872.397	4866
872.526	4816
872.656	4736
872.785	4866
872.915	4911
873.044	5071
873.173	4984
873.303	5022
873.432	4957
873.561	4953
873.69	4927
873.819	4923
873.948	4949
874.077	4820
874.206	4710
874.335	4839
874.464	4946
874.593	5102
874.722	5025
874.851	5128
874.979	5090
875.108	5086
875.237	4934
875.365	4919
875.494	4911
875.623	4942
875.751	4816
875.88	4896
876.008	4984
876.136	5105
876.265	5201
876.393	5353
876.521	5318
876.65	5258
876.778	5174
876.906	5113
877.034	5022
877.162	5048
877.29	5105
877.418	5090
877.546	5052
877.674	5117
877.802	5041
877.93	5045
878.058	5006
878.185	4889
878.313	5048
878.441	4965
878.568	4824
878.696	4896
878.824	4957
878.951	5060
879.079	5117
879.206	5284
879.333	5113
879.461	4984
879.588	4987
879.715	5170
879.842	5239
879.97	5037
880.097	4801
880.224	4805
880.351	4850
880.478	4862
880.605	4839
880.732	4793
880.859	5098
880.986	4927
881.112	4972
881.239	4809
881.366	4653
881.493	4634
881.619	4599
881.746	4687
881.872	4714
881.999	4698
882.125	4687
882.252	4767
882.378	4843
882.505	5006
882.631	4839
882.757	4660
882.883	4782
883.01	4755
883.136	4717
883.262	4615
883.388	4698
883.514	4824
883.64	4862
883.766	4850
883.892	4694
884.018	4774
884.143	4946
884.269	5056
884.395	4694
884.52	4660
884.646	4675
884.772	4603
884.897	4599
885.023	4740
885.148	4812
885.274	4877
885.399	4835
885.524	4755
885.65	4717
885.775	4744
885.9	4767
886.025	4835
886.15	4858
886.275	4721
886.4	4641
886.525	4740
886.65	4691
886.775	4714
886.9	4927
887.025	5029
887.149	4843
887.274	4694
887.399	4596
887.523	4596
887.648	4573
887.773	4656
887.897	4786
888.021	4805
888.146	4702
888.27	4816
888.395	4892
888.519	4828
888.643	4892
888.767	4831
888.891	4717
889.015	4588
889.139	4649
889.263	4649
889.387	4824
889.511	4919
889.635	4835
889.759	4637
889.883	4626
890.006	4759
890.13	4892
890.254	4645
890.377	4660
890.501	4584
890.624	4565
890.748	4656
890.871	4550
890.995	4424
891.118	4379
891.241	4538
891.364	4519
891.488	4615
891.611	4512
891.734	4565
891.857	4622
891.98	4588
892.103	4675
892.226	4599
892.349	4569
892.471	4451
892.594	4535
892.717	4645
892.839	4561
892.962	4630
893.085	4687
893.207	4599
893.33	4459
893.452	4531
893.575	4649
893.697	4611
893.819	4835
893.941	4850
894.064	4771
894.186	4580
894.308	4611
894.43	4755
894.552	4828
894.674	4759
894.796	4573
894.918	4584
895.04	4573
895.161	4698
895.283	4725
895.405	4634
895.526	4683
895.648	4725
895.769	4698
895.891	4721
896.012	4771
896.134	4733
896.255	4736
896.376	4664
896.498	4656
896.619	4691
896.74	4645
896.861	4672
896.982	4904
897.103	5060
897.224	4847
897.345	4759
897.466	4702
897.587	4725
897.708	4881
897.828	4782
897.949	4672
898.07	4607
898.19	4637
898.311	4816
898.431	4618
898.552	4759
898.672	4828
898.792	4824
898.913	4801
899.033	4683
899.153	4474
899.273	4451
899.393	4508
899.513	4573
899.633	4500
899.753	4588
899.873	4546
899.993	4603
900.113	4565
900.232	4649
900.352	4546
900.472	4523
900.591	4436
900.711	4512
900.83	4474
900.95	4672
901.069	4736
901.189	4538
901.308	4386
901.427	4363
901.546	4383
901.665	4478
901.784	4523
901.904	4390
902.023	4306
902.141	4223
902.26	4207
902.379	4310
902.498	4306
902.617	4272
902.735	4386
902.854	4424
902.973	4405
903.091	4207
903.21	4253
903.328	4268
903.446	4306
903.565	4295
903.683	4337
903.801	4303
903.919	4383
904.038	4459
904.156	4322
904.274	4489
904.392	4394
904.51	4462
904.627	4523
904.745	4554
904.863	4679
904.981	4459
905.098	4295
905.216	4386
905.334	4424
905.451	4455
905.569	4432
905.686	4577
905.803	4607
905.921	4478
906.038	4550
906.155	4485
906.272	4428
906.389	4462
906.506	4356
906.623	4386
906.74	4402
906.857	4344
906.974	4398
907.091	4542
907.208	4645
907.324	4653
907.441	4493
907.557	4329
907.674	4356
907.79	4352
907.907	4386
908.023	4527
908.139	4527
908.256	4447
908.372	4398
908.488	4489
908.604	4409
908.72	4344
908.836	4432
908.952	4386
909.068	4451
909.184	4607
909.3	4485
909.415	4584
909.531	4584
909.647	4367
909.762	4379
909.878	4379
909.993	4462
910.108	4394
910.224	4421
910.339	4478
910.454	4417
910.57	4405
910.685	4394
910.8	4664
910.915	4607
911.03	4489
911.145	4329
911.259	4360
911.374	4398
911.489	4314
911.604	4265
911.718	4219
911.833	4234
911.947	4093
912.062	4013
912.176	4234
912.291	4295
912.405	4272
912.519	4466
912.633	4523
912.748	4386
912.862	4314
912.976	4230
913.09	4166
913.204	4181
913.318	4257
913.431	4348
913.545	4383
913.659	4383
913.772	4356
913.886	4272
914	4249
914.113	4440
914.226	4451
914.34	4424
914.453	4238
914.566	4474
914.68	4303
914.793	4325
914.906	4169
915.019	4131
915.132	4116
915.245	4230
915.358	4166
915.47	4265
915.583	4291
915.696	4287
915.809	4409
915.921	4428
916.034	4299
916.146	4215
916.259	4238
916.371	4417
916.483	4337
916.595	4230
916.708	4333
916.82	4367
916.932	4360
917.044	4337
917.156	4322
917.268	4257
917.38	4268
917.491	4306
917.603	4314
917.715	4455
917.826	4432
917.938	4417
918.049	4272
918.161	4405
918.272	4573
918.384	4523
918.495	4451
918.606	4333
918.717	4291
918.828	4360
918.939	4322
919.05	4303
919.161	4360
919.272	4169
919.383	4207
919.494	4497
919.604	4660
919.715	4447
919.826	4325
919.936	4436
920.047	4535
920.157	4462
920.267	4763
920.378	4546
920.488	4527
920.598	4771
920.708	4858
920.818	4778
920.928	4759
921.038	4957
921.148	4900
921.258	4656
921.368	4561
921.477	4523
921.587	4474
921.697	4394
921.806	4561
921.916	4390
922.025	4291
922.134	4272
922.244	4272
922.353	4375
922.462	4173
922.571	4139
922.68	4044
922.789	4002
922.898	4051
923.007	3998
923.116	4105
923.224	4059
923.333	4101
923.442	3983
923.55	3975
923.659	4040
923.767	4040
923.876	4002
923.984	4112
924.092	4029
924.201	4101
924.309	4097
924.417	4128
924.525	4074
924.633	4116
924.741	4923
924.849	3922
924.956	4105
925.064	3956
925.172	3945
925.279	3941
925.387	4063
925.494	4063
925.602	4249
925.709	4204
925.816	4063
925.924	4135
926.031	4261
926.138	4150
926.245	4242
926.352	4067
926.459	4280
926.566	4314
926.673	4188
926.779	4090
926.886	4090
926.993	4017
927.099	3972
927.206	3949
927.312	3983
927.419	4059
927.525	4074
927.631	4082
927.737	3964
927.843	3945
927.95	3823
928.056	3964
928.162	4040
928.267	4051
928.373	4645
928.479	4112
928.585	3903
928.69	4036
928.796	4090
928.901	3964
929.007	3850
929.112	3998
929.218	3983
929.323	3911
929.428	3953
929.533	4169
929.638	3899
929.743	3949
929.848	4078
929.953	4017
930.058	3945
930.163	3774
930.267	3865
930.372	3983
930.477	3850
930.581	4063
930.685	3915
930.79	3804
930.894	3899
930.998	3869
931.103	4036
931.207	3732
931.311	3717
931.415	3724
931.519	3549
931.623	3576
