Data from test_V78500241_763.txt Node
Date: Fri Mar 25 16:54:18 CST 2022
User: usil
Spectrometer: V785-0024
Trigger mode: 0
Integration Time (sec): 4.000000E-1
Scans to average: 1
Nonlinearity correction enabled: false
Boxcar width: 0
Storing dark spectrum: false
XAxis mode: Wavelengths
Number of Pixels in Spectrum: 1024
>>>>>Begin Spectral Data<<<<<
801.071	7967
801.214	8012
801.356	7951
801.499	7883
801.641	7784
801.783	7856
801.926	7970
802.068	7932
802.211	7978
802.353	7997
802.496	7852
802.638	7860
802.78	7868
802.923	7894
803.065	7894
803.208	7875
803.35	7978
803.492	8062
803.635	8149
803.777	8012
803.919	8119
804.061	8393
804.204	8065
804.346	7970
804.488	7955
804.63	8088
804.773	7986
804.915	8073
805.057	8161
805.199	8096
805.341	8244
805.483	8290
805.626	8218
805.768	8084
805.91	8199
806.052	8263
806.194	8119
806.336	8237
806.478	8142
806.62	7997
806.762	8145
806.904	8225
807.046	8370
807.188	8332
807.33	8279
807.472	8286
807.614	8130
807.756	8092
807.898	7947
808.04	7898
808.182	7845
808.324	7917
808.465	7940
808.607	8039
808.749	8081
808.891	8123
809.033	8256
809.174	8180
809.316	8096
809.458	8069
809.6	8020
809.741	8073
809.883	8020
810.025	8111
810.166	8096
810.308	8046
810.45	8043
810.591	7879
810.733	7757
810.875	7696
811.016	7525
811.158	7529
811.299	7556
811.441	7700
811.582	7742
811.724	7506
811.865	7502
812.007	7605
812.148	7544
812.29	7559
812.431	7731
812.573	7772
812.714	7940
812.855	8126
812.997	8164
813.138	8309
813.279	8210
813.421	8058
813.562	7959
813.703	7906
813.845	7708
813.986	7426
814.127	7266
814.268	7198
814.41	7206
814.551	7122
814.692	7164
814.833	7076
814.974	7084
815.115	7031
815.256	6935
815.397	6916
815.539	6951
815.68	6833
815.821	6837
815.962	6856
816.103	6783
816.244	6719
816.385	6623
816.526	6570
816.666	6532
816.807	6315
816.948	6429
817.089	6426
817.23	6445
817.371	6369
817.512	6380
817.653	6410
817.793	6353
817.934	6331
818.075	6509
818.216	6410
818.356	6357
818.497	6270
818.638	6133
818.778	6140
818.919	6144
819.06	6155
819.2	6254
819.341	6292
819.481	6350
819.622	6494
819.762	6719
819.903	6722
820.043	6631
820.184	6604
820.324	6536
820.465	6681
820.605	6677
820.746	6570
820.886	6486
821.026	6673
821.167	6673
821.307	6798
821.447	6692
821.588	6677
821.728	6585
821.868	6509
822.008	6369
822.149	6357
822.289	6361
822.429	6140
822.569	6064
822.709	6057
822.849	5832
822.99	5859
823.13	5939
823.27	5878
823.41	5764
823.55	5802
823.69	5756
823.83	5764
823.97	5634
824.11	5490
824.25	5490
824.389	5539
824.529	5581
824.669	5512
824.809	5589
824.949	5691
825.089	5615
825.228	5554
825.368	5391
825.508	5360
825.648	5360
825.787	5372
825.927	5414
826.067	5250
826.206	5303
826.346	5425
826.485	5379
826.625	5376
826.765	5497
826.904	5436
827.044	5231
827.183	5181
827.323	5121
827.462	5227
827.601	5121
827.741	5174
827.88	5227
828.02	5071
828.159	5231
828.298	5345
828.437	5353
828.577	5250
828.716	5524
828.855	5303
828.994	5166
829.134	5166
829.273	5170
829.412	5079
829.551	5128
829.69	5193
829.829	5315
829.968	5379
830.107	5242
830.246	5231
830.385	5185
830.524	5124
830.663	5067
830.802	4991
830.941	4904
831.08	4839
831.219	4946
831.357	4949
831.496	5189
831.635	4900
831.774	4831
831.913	4843
832.051	4740
832.19	4729
832.329	4812
832.467	4687
832.606	4653
832.744	4687
832.883	4694
833.022	4691
833.16	4767
833.299	4820
833.437	4862
833.576	4839
833.714	4892
833.852	4824
833.991	4873
834.129	4987
834.267	4942
834.406	4930
834.544	4976
834.682	4915
834.821	4949
834.959	5113
835.097	5022
835.235	5170
835.373	5105
835.511	5121
835.65	5018
835.788	4987
835.926	4873
836.064	4873
836.202	4923
836.34	5143
836.478	5261
836.615	5117
836.753	5227
836.891	5239
837.029	5242
837.167	5162
837.305	5155
837.443	5052
837.58	5094
837.718	5265
837.856	5132
837.993	5151
838.131	5269
838.269	5235
838.406	5185
838.544	5185
838.681	5033
838.819	5052
838.956	4881
839.094	4877
839.231	4976
839.369	5124
839.506	5402
839.643	5261
839.781	5075
839.918	4980
840.055	5090
840.193	5086
840.33	5094
840.467	5151
840.604	5189
840.742	5398
840.879	5033
841.016	5094
841.153	5162
841.29	5414
841.427	5357
841.564	5254
841.701	5406
841.838	5235
841.975	5212
842.112	5307
842.249	5136
842.385	5128
842.522	5330
842.659	5151
842.796	5102
842.933	5201
843.069	5121
843.206	5140
843.343	5254
843.479	5212
843.616	5246
843.752	5006
843.889	5048
844.025	5117
844.162	5025
844.298	5197
844.435	5056
844.571	5010
844.708	5178
844.844	5246
844.98	5341
845.117	5292
845.253	5147
845.389	5064
845.525	5143
845.661	5143
845.798	5060
845.934	5124
846.07	5064
846.206	5174
846.342	5299
846.478	5151
846.614	5006
846.75	4991
846.886	4949
847.022	5109
847.158	5025
847.294	5056
847.429	5086
847.565	5022
847.701	5307
847.837	4873
847.972	4816
848.108	4957
848.244	4938
848.379	4767
848.515	4740
848.65	4717
848.786	4717
848.921	4763
849.057	4858
849.192	4892
849.328	4805
849.463	4835
849.598	4736
849.734	4744
849.869	4714
850.004	4584
850.14	4675
850.275	4603
850.41	4531
850.545	4531
850.68	4580
850.815	4577
850.95	4603
851.085	4820
851.22	4706
851.355	4649
851.49	4615
851.625	4634
851.76	4675
851.895	4504
852.03	4546
852.165	4656
852.299	4733
852.434	4736
852.569	4706
852.703	4729
852.838	4828
852.973	4896
853.107	4881
853.242	4725
853.376	4618
853.511	4535
853.645	4603
853.78	4850
853.914	4702
854.048	4615
854.183	4622
854.317	4668
854.451	4771
854.585	4668
854.72	4584
854.854	4778
854.988	4603
855.122	4573
855.256	4538
855.39	4656
855.524	4793
855.658	4664
855.792	4733
855.926	4763
856.06	4740
856.194	4790
856.327	4656
856.461	4607
856.595	4618
856.729	4622
856.862	4752
856.996	4691
857.13	4710
857.263	4744
857.397	4801
857.53	4588
857.664	4714
857.797	4748
857.931	4801
858.064	4687
858.197	4721
858.331	4626
858.464	4622
858.597	4542
858.731	4603
858.864	4649
858.997	4565
859.13	4664
859.263	4660
859.396	4710
859.529	4580
859.662	4588
859.795	4550
859.928	4626
860.061	4778
860.194	4820
860.327	4596
860.46	4561
860.592	4725
860.725	4744
860.858	4774
860.99	4554
861.123	4512
861.256	4519
861.388	4607
861.521	5379
861.653	4436
861.786	4470
861.918	4489
862.05	4519
862.183	4554
862.315	4542
862.447	4634
862.58	4531
862.712	4417
862.844	4344
862.976	4497
863.108	4462
863.24	4843
863.372	4314
863.504	4432
863.636	4386
863.768	4451
863.9	4428
864.032	4344
864.164	4424
864.296	4470
864.428	4550
864.559	4569
864.691	4481
864.823	4493
864.954	4504
865.086	4561
865.217	4447
865.349	4421
865.48	4447
865.612	4455
865.743	4603
865.875	4470
866.006	4432
866.137	4455
866.269	4413
866.4	4443
866.531	4390
866.662	4409
866.793	4402
866.924	4413
867.055	4497
867.186	4440
867.317	4409
867.448	4379
867.579	4383
867.71	4352
867.841	4356
867.972	4413
868.103	4436
868.233	4432
868.364	4421
868.495	4466
868.625	4607
868.756	4752
868.886	4565
869.017	4634
869.147	4774
869.278	4812
869.408	4694
869.539	4603
869.669	4729
869.799	4641
869.929	4721
870.06	4733
870.19	4946
870.32	4911
870.45	4949
870.58	5010
870.71	5102
870.84	5056
870.97	4908
871.1	4889
871.23	5124
871.36	5079
871.489	4984
871.619	5048
871.749	5041
871.879	5143
872.008	5159
872.138	5048
872.267	4953
872.397	4820
872.526	4797
872.656	4714
872.785	4820
872.915	4919
873.044	5041
873.173	4904
873.303	4927
873.432	4953
873.561	4953
873.69	4870
873.819	4850
873.948	4892
874.077	4809
874.206	4740
874.335	4820
874.464	4957
874.593	5029
874.722	4915
874.851	5121
874.979	5064
875.108	5018
875.237	4915
875.365	4862
875.494	4862
875.623	4999
875.751	4778
875.88	4885
876.008	4934
876.136	5003
876.265	5216
876.393	5273
876.521	5246
876.65	5220
876.778	5162
876.906	5060
877.034	5037
877.162	5010
877.29	4965
877.418	5010
877.546	5052
877.674	5018
877.802	5010
877.93	5003
878.058	4892
878.185	4850
878.313	4965
878.441	4946
878.568	4831
878.696	4805
878.824	4896
878.951	4984
879.079	5102
879.206	5299
879.333	5147
879.461	4953
879.588	4995
879.715	5124
879.842	5208
879.97	5033
880.097	4797
880.224	4721
880.351	4778
880.478	4824
880.605	4828
880.732	4793
880.859	5136
880.986	4927
881.112	4900
881.239	4767
881.366	4607
881.493	4588
881.619	4569
881.746	4577
881.872	4656
881.999	4660
882.125	4675
882.252	4790
882.378	4854
882.505	4930
882.631	4809
882.757	4660
882.883	4694
883.01	4763
883.136	4645
883.262	4599
883.388	4622
883.514	4797
883.64	4892
883.766	4797
883.892	4683
884.018	4706
884.143	4881
884.269	4980
884.395	4694
884.52	4622
884.646	4573
884.772	4592
884.897	4580
885.023	4664
885.148	4790
885.274	4843
885.399	4828
885.524	4729
885.65	4672
885.775	4752
885.9	4687
886.025	4824
886.15	4778
886.275	4706
886.4	4656
886.525	4687
886.65	4691
886.775	4702
886.9	4908
887.025	5056
887.149	4793
887.274	4622
887.399	4603
887.523	4599
887.648	4584
887.773	4516
887.897	4729
888.021	4759
888.146	4641
888.27	4820
888.395	4911
888.519	4835
888.643	4797
888.767	4801
888.891	4664
889.015	4626
889.139	4603
889.263	4592
889.387	4744
889.511	4873
889.635	4740
889.759	4634
889.883	4637
890.006	4706
890.13	4854
890.254	4611
890.377	4706
890.501	4519
890.624	4531
890.748	4653
890.871	4497
890.995	4447
891.118	4352
891.241	4493
891.364	4577
891.488	4645
891.611	4485
891.734	4542
891.857	4580
891.98	4569
892.103	4618
892.226	4565
892.349	4550
892.471	4443
892.594	4542
892.717	4550
892.839	4512
892.962	4611
893.085	4637
893.207	4565
893.33	4470
893.452	4481
893.575	4672
893.697	4603
893.819	4797
893.941	4828
894.064	4767
894.186	4519
894.308	4577
894.43	4752
894.552	4843
894.674	4740
894.796	4550
894.918	4607
895.04	4584
895.161	4668
895.283	4679
895.405	4569
895.526	4649
895.648	4649
895.769	4649
895.891	4721
896.012	4786
896.134	4733
896.255	4664
896.376	4641
896.498	4626
896.619	4634
896.74	4634
896.861	4615
896.982	4862
897.103	5033
897.224	4850
897.345	4725
897.466	4706
897.587	4729
897.708	4881
897.828	4759
897.949	4706
898.07	4546
898.19	4615
898.311	4797
898.431	4672
898.552	4702
898.672	4816
898.792	4831
898.913	4721
899.033	4596
899.153	4455
899.273	4394
899.393	4519
899.513	4512
899.633	4538
899.753	4538
899.873	4512
899.993	4561
900.113	4535
900.232	4550
900.352	4558
900.472	4497
900.591	4371
900.711	4504
900.83	4447
900.95	4615
901.069	4733
901.189	4531
901.308	4344
901.427	4322
901.546	4386
901.665	4474
901.784	4466
901.904	4424
902.023	4356
902.141	4185
902.26	4135
902.379	4337
902.498	4280
902.617	4261
902.735	4348
902.854	4417
902.973	4306
903.091	4173
903.21	4196
903.328	4306
903.446	4272
903.565	4253
903.683	4360
903.801	4284
903.919	4402
904.038	4474
904.156	4284
904.274	4405
904.392	4405
904.51	4402
904.627	4474
904.745	4588
904.863	4615
904.981	4402
905.098	4314
905.216	4428
905.334	4394
905.451	4417
905.569	4455
905.686	4561
905.803	4512
905.921	4428
906.038	4577
906.155	4516
906.272	4402
906.389	4455
906.506	4363
906.623	4383
906.74	4352
906.857	4284
906.974	4375
907.091	4546
907.208	4717
907.324	4592
907.441	4500
907.557	4344
907.674	4352
907.79	4329
907.907	4379
908.023	4500
908.139	4512
908.256	4470
908.372	4432
908.488	4466
908.604	4348
908.72	4341
908.836	4394
908.952	4348
909.068	4390
909.184	4565
909.3	4493
909.415	4611
909.531	4538
909.647	4360
909.762	4386
909.878	4367
909.993	4413
910.108	4379
910.224	4447
910.339	4443
910.454	4421
910.57	4329
910.685	4310
910.8	4668
910.915	4569
911.03	4500
911.145	4291
911.259	4310
911.374	4322
911.489	4280
911.604	4303
911.718	4135
911.833	4166
911.947	4044
912.062	3987
912.176	4204
912.291	4230
912.405	4253
912.519	4424
912.633	4535
912.748	4367
912.862	4287
912.976	4185
913.09	4074
913.204	4181
913.318	4268
913.431	4386
913.545	4394
913.659	4405
913.772	4367
913.886	4265
914	4207
914.113	4390
914.226	4413
914.34	4356
914.453	4238
914.566	4402
914.68	4314
914.793	4348
914.906	4131
915.019	4154
915.132	4048
915.245	4158
915.358	4204
915.47	4200
915.583	4242
915.696	4287
915.809	4417
915.921	4417
916.034	4287
916.146	4234
916.259	4219
916.371	4386
916.483	4344
916.595	4265
916.708	4325
916.82	4310
916.932	4329
917.044	4314
917.156	4356
917.268	4242
917.38	4246
917.491	4246
917.603	4344
917.715	4402
917.826	4402
917.938	4329
918.049	4227
918.161	4405
918.272	4538
918.384	4542
918.495	4394
918.606	4310
918.717	4261
918.828	4348
918.939	4386
919.05	4295
919.161	4329
919.272	4128
919.383	4238
919.494	4459
919.604	4588
919.715	4413
919.826	4341
919.936	4402
920.047	4497
920.157	4474
920.267	4740
920.378	4565
920.488	4519
920.598	4683
920.708	4889
920.818	4702
920.928	4767
921.038	4953
921.148	4900
921.258	4569
921.368	4546
921.477	4481
921.587	4409
921.697	4356
921.806	4527
921.916	4436
922.025	4272
922.134	4253
922.244	4200
922.353	4314
922.462	4188
922.571	4128
922.68	3991
922.789	3960
922.898	4036
923.007	3991
923.116	4086
923.224	4036
923.333	4097
923.442	3979
923.55	4006
923.659	4067
923.767	4101
923.876	4013
923.984	4150
924.092	3964
924.201	4044
924.309	4101
924.417	4082
924.525	4059
924.633	4090
924.741	4870
924.849	3949
924.956	4139
925.064	3945
925.172	3884
925.279	3915
925.387	4032
925.494	4059
925.602	4230
925.709	4185
925.816	4063
925.924	4105
926.031	4219
926.138	4147
926.245	4188
926.352	4101
926.459	4227
926.566	4284
926.673	4173
926.779	4120
926.886	4135
926.993	4006
927.099	3945
927.206	3945
927.312	3941
927.419	4040
927.525	3956
927.631	4105
927.737	3979
927.843	3945
927.95	3827
928.056	3945
928.162	3968
928.267	4112
928.373	4691
928.479	4120
928.585	3884
928.69	3998
928.796	4090
928.901	3968
929.007	3850
929.112	4010
929.218	3987
929.323	3915
929.428	3930
929.533	4071
929.638	3880
929.743	3979
929.848	4051
929.953	3968
930.058	3896
930.163	3770
930.267	3876
930.372	3972
930.477	3793
930.581	4063
930.685	3937
930.79	3835
930.894	3892
930.998	3854
931.103	4032
931.207	3694
931.311	3736
931.415	3648
931.519	3542
931.623	3526
