Data from test_V78500241_1706.txt Node
Date: Fri Mar 25 17:00:51 CST 2022
User: usil
Spectrometer: V785-0024
Trigger mode: 0
Integration Time (sec): 4.000000E-1
Scans to average: 1
Nonlinearity correction enabled: false
Boxcar width: 0
Storing dark spectrum: false
XAxis mode: Wavelengths
Number of Pixels in Spectrum: 1024
>>>>>Begin Spectral Data<<<<<
801.071	7986
801.214	8005
801.356	7871
801.499	7883
801.641	7776
801.783	7784
801.926	7974
802.068	7921
802.211	8024
802.353	8035
802.496	7818
802.638	7830
802.78	7944
802.923	7967
803.065	7906
803.208	7826
803.35	7883
803.492	8043
803.635	8180
803.777	7989
803.919	8142
804.061	8454
804.204	8081
804.346	8111
804.488	7993
804.63	8092
804.773	8043
804.915	8111
805.057	8328
805.199	8164
805.341	8180
805.483	8301
805.626	8164
805.768	8134
805.91	8218
806.052	8229
806.194	8119
806.336	8294
806.478	8100
806.62	8062
806.762	8107
806.904	8267
807.046	8526
807.188	8415
807.33	8279
807.472	8351
807.614	8161
807.756	8157
807.898	7936
808.04	7982
808.182	7826
808.324	7890
808.465	7875
808.607	8103
808.749	8069
808.891	8183
809.033	8275
809.174	8180
809.316	8065
809.458	8024
809.6	8008
809.741	8103
809.883	7974
810.025	8024
810.166	8058
810.308	8046
810.45	7997
810.591	7898
810.733	7704
810.875	7590
811.016	7464
811.158	7537
811.299	7571
811.441	7700
811.582	7704
811.724	7571
811.865	7487
812.007	7597
812.148	7540
812.29	7658
812.431	7700
812.573	7841
812.714	7932
812.855	8134
812.997	8206
813.138	8309
813.279	8187
813.421	8107
813.562	7909
813.703	7822
813.845	7674
813.986	7499
814.127	7247
814.268	7175
814.41	7198
814.551	7156
814.692	7209
814.833	7114
814.974	7122
815.115	7110
815.256	6970
815.397	6901
815.539	6939
815.68	6741
815.821	6760
815.962	6856
816.103	6776
816.244	6715
816.385	6627
816.526	6616
816.666	6506
816.807	6281
816.948	6414
817.089	6490
817.23	6376
817.371	6338
817.512	6350
817.653	6384
817.793	6323
817.934	6388
818.075	6407
818.216	6429
818.356	6342
818.497	6311
818.638	6106
818.778	6140
818.919	6125
819.06	6117
819.2	6315
819.341	6300
819.481	6296
819.622	6536
819.762	6722
819.903	6711
820.043	6589
820.184	6563
820.324	6544
820.465	6738
820.605	6642
820.746	6601
820.886	6467
821.026	6612
821.167	6688
821.307	6749
821.447	6772
821.588	6654
821.728	6536
821.868	6498
822.008	6350
822.149	6327
822.289	6399
822.429	6133
822.569	6106
822.709	6114
822.849	5954
822.99	5897
823.13	5908
823.27	5946
823.41	5779
823.55	5745
823.69	5764
823.83	5764
823.97	5661
824.11	5501
824.25	5467
824.389	5547
824.529	5547
824.669	5554
824.809	5611
824.949	5665
825.089	5570
825.228	5474
825.368	5387
825.508	5318
825.648	5318
825.787	5368
825.927	5376
826.067	5250
826.206	5250
826.346	5334
826.485	5341
826.625	5410
826.765	5570
826.904	5406
827.044	5227
827.183	5197
827.323	5121
827.462	5254
827.601	5193
827.741	5189
827.88	5193
828.02	5067
828.159	5235
828.298	5254
828.437	5360
828.577	5265
828.716	5535
828.855	5307
828.994	5132
829.134	5143
829.273	5140
829.412	5094
829.551	5117
829.69	5159
829.829	5216
829.968	5402
830.107	5204
830.246	5223
830.385	5197
830.524	5170
830.663	5056
830.802	4987
830.941	4908
831.08	4873
831.219	4987
831.357	4995
831.496	5162
831.635	4881
831.774	4862
831.913	4812
832.051	4714
832.19	4778
832.329	4809
832.467	4714
832.606	4660
832.744	4691
832.883	4748
833.022	4683
833.16	4759
833.299	4835
833.437	4767
833.576	4771
833.714	4854
833.852	4828
833.991	4885
834.129	4934
834.267	4961
834.406	4835
834.544	4927
834.682	4953
834.821	4999
834.959	5185
835.097	4965
835.235	5124
835.373	5067
835.511	5121
835.65	5045
835.788	5014
835.926	4927
836.064	4900
836.202	4889
836.34	5151
836.478	5201
836.615	5109
836.753	5220
836.891	5360
837.029	5212
837.167	5204
837.305	5140
837.443	5174
837.58	5052
837.718	5242
837.856	5181
837.993	5105
838.131	5223
838.269	5242
838.406	5185
838.544	5189
838.681	5006
838.819	5037
838.956	4919
839.094	4930
839.231	4953
839.369	5056
839.506	5425
839.643	5254
839.781	5045
839.918	5033
840.055	5094
840.193	5086
840.33	5094
840.467	5105
840.604	5239
840.742	5391
840.879	5048
841.016	5064
841.153	5132
841.29	5372
841.427	5368
841.564	5288
841.701	5277
841.838	5227
841.975	5220
842.112	5231
842.249	5124
842.385	5105
842.522	5349
842.659	5193
842.796	5109
842.933	5162
843.069	5121
843.206	5178
843.343	5261
843.479	5235
843.616	5334
843.752	4953
843.889	5006
844.025	5212
844.162	5067
844.298	5185
844.435	4999
844.571	5018
844.708	5181
844.844	5269
844.98	5296
845.117	5307
845.253	5113
845.389	5079
845.525	5094
845.661	5124
845.798	4995
845.934	5105
846.07	5025
846.206	5174
846.342	5277
846.478	5143
846.614	5006
846.75	4987
846.886	4957
847.022	5121
847.158	4995
847.294	5079
847.429	5079
847.565	4961
847.701	5330
847.837	4797
847.972	4771
848.108	4923
848.244	4885
848.379	4748
848.515	4740
848.65	4668
848.786	4714
848.921	4740
849.057	4862
849.192	4892
849.328	4809
849.463	4873
849.598	4801
849.734	4774
849.869	4683
850.004	4641
850.14	4710
850.275	4618
850.41	4504
850.545	4542
850.68	4634
850.815	4569
850.95	4584
851.085	4820
851.22	4759
851.355	4599
851.49	4599
851.625	4615
851.76	4630
851.895	4500
852.03	4500
852.165	4611
852.299	4668
852.434	4793
852.569	4759
852.703	4733
852.838	4831
852.973	4885
853.107	4900
853.242	4694
853.376	4721
853.511	4577
853.645	4588
853.78	4786
853.914	4702
854.048	4675
854.183	4668
854.317	4683
854.451	4809
854.585	4675
854.72	4596
854.854	4725
854.988	4622
855.122	4637
855.256	4569
855.39	4675
855.524	4744
855.658	4694
855.792	4687
855.926	4687
856.06	4748
856.194	4767
856.327	4672
856.461	4626
856.595	4615
856.729	4637
856.862	4748
856.996	4694
857.13	4740
857.263	4721
857.397	4767
857.53	4607
857.664	4755
857.797	4748
857.931	4736
858.064	4599
858.197	4744
858.331	4710
858.464	4588
858.597	4535
858.731	4626
858.864	4554
858.997	4580
859.13	4645
859.263	4672
859.396	4660
859.529	4538
859.662	4573
859.795	4550
859.928	4637
860.061	4740
860.194	4736
860.327	4599
860.46	4550
860.592	4691
860.725	4744
860.858	4706
860.99	4558
861.123	4504
861.256	4531
861.388	4588
861.521	5174
861.653	4481
861.786	4451
861.918	4451
862.05	4493
862.183	4550
862.315	4599
862.447	4683
862.58	4569
862.712	4375
862.844	4367
862.976	4470
863.108	4440
863.24	4839
863.372	4303
863.504	4424
863.636	4367
863.768	4466
863.9	4367
864.032	4341
864.164	4394
864.296	4489
864.428	4538
864.559	4577
864.691	4512
864.823	4489
864.954	4489
865.086	4542
865.217	4459
865.349	4424
865.48	4428
865.612	4493
865.743	4558
865.875	4447
866.006	4443
866.137	4428
866.269	4421
866.4	4386
866.531	4409
866.662	4413
866.793	4421
866.924	4394
867.055	4538
867.186	4470
867.317	4375
867.448	4402
867.579	4375
867.71	4443
867.841	4341
867.972	4470
868.103	4436
868.233	4436
868.364	4459
868.495	4516
868.625	4668
868.756	4721
868.886	4596
869.017	4599
869.147	4755
869.278	4767
869.408	4645
869.539	4615
869.669	4748
869.799	4653
869.929	4755
870.06	4755
870.19	4919
870.32	4904
870.45	4957
870.58	4999
870.71	5128
870.84	5143
870.97	4885
871.1	4911
871.23	5155
871.36	5121
871.489	5025
871.619	5029
871.749	5056
871.879	5102
872.008	5212
872.138	5079
872.267	4999
872.397	4843
872.526	4805
872.656	4698
872.785	4809
872.915	4927
873.044	5029
873.173	4885
873.303	4961
873.432	4953
873.561	4961
873.69	4892
873.819	4881
873.948	4911
874.077	4839
874.206	4752
874.335	4755
874.464	4870
874.593	5052
874.722	4934
874.851	5117
874.979	5052
875.108	4972
875.237	4881
875.365	4892
875.494	4972
875.623	4957
875.751	4835
875.88	4847
876.008	5006
876.136	5052
876.265	5151
876.393	5349
876.521	5239
876.65	5178
876.778	5201
876.906	5075
877.034	4976
877.162	5003
877.29	4961
877.418	5064
877.546	5029
877.674	4980
877.802	5048
877.93	5022
878.058	4923
878.185	4847
878.313	4927
878.441	4930
878.568	4778
878.696	4816
878.824	4980
878.951	4965
879.079	5098
879.206	5235
879.333	5067
879.461	4957
879.588	5010
879.715	5140
879.842	5193
879.97	5014
880.097	4816
880.224	4767
880.351	4786
880.478	4793
880.605	4755
880.732	4778
880.859	5105
880.986	4862
881.112	4904
881.239	4778
881.366	4641
881.493	4580
881.619	4573
881.746	4611
881.872	4656
881.999	4679
882.125	4691
882.252	4774
882.378	4831
882.505	4984
882.631	4801
882.757	4668
882.883	4748
883.01	4706
883.136	4710
883.262	4558
883.388	4599
883.514	4752
883.64	4828
883.766	4797
883.892	4630
884.018	4698
884.143	4839
884.269	5029
884.395	4645
884.52	4637
884.646	4664
884.772	4580
884.897	4546
885.023	4694
885.148	4828
885.274	4854
885.399	4809
885.524	4679
885.65	4721
885.775	4740
885.9	4679
886.025	4850
886.15	4820
886.275	4721
886.4	4706
886.525	4744
886.65	4721
886.775	4694
886.9	4889
887.025	5010
887.149	4816
887.274	4668
887.399	4554
887.523	4599
887.648	4546
887.773	4599
887.897	4736
888.021	4736
888.146	4721
888.27	4820
888.395	4850
888.519	4782
888.643	4801
888.767	4809
888.891	4687
889.015	4637
889.139	4626
889.263	4554
889.387	4736
889.511	4831
889.635	4767
889.759	4618
889.883	4611
890.006	4675
890.13	4816
890.254	4618
890.377	4687
890.501	4577
890.624	4508
890.748	4634
890.871	4516
890.995	4394
891.118	4398
891.241	4516
891.364	4558
891.488	4622
891.611	4478
891.734	4561
891.857	4546
891.98	4580
892.103	4626
892.226	4565
892.349	4546
892.471	4443
892.594	4561
892.717	4611
892.839	4573
892.962	4554
893.085	4672
893.207	4637
893.33	4371
893.452	4527
893.575	4645
893.697	4538
893.819	4767
893.941	4835
894.064	4774
894.186	4584
894.308	4580
894.43	4721
894.552	4790
894.674	4733
894.796	4538
894.918	4580
895.04	4538
895.161	4733
895.283	4626
895.405	4615
895.526	4630
895.648	4694
895.769	4634
895.891	4691
896.012	4793
896.134	4801
896.255	4637
896.376	4622
896.498	4573
896.619	4714
896.74	4618
896.861	4672
896.982	4930
897.103	5090
897.224	4854
897.345	4717
897.466	4679
897.587	4694
897.708	4809
897.828	4721
897.949	4672
898.07	4584
898.19	4656
898.311	4793
898.431	4664
898.552	4721
898.672	4809
898.792	4790
898.913	4733
899.033	4660
899.153	4493
899.273	4424
899.393	4455
899.513	4489
899.633	4538
899.753	4558
899.873	4462
899.993	4531
900.113	4538
900.232	4554
900.352	4519
900.472	4489
900.591	4424
900.711	4470
900.83	4379
900.95	4611
901.069	4691
901.189	4512
901.308	4390
901.427	4306
901.546	4360
901.665	4504
901.784	4577
901.904	4375
902.023	4303
902.141	4188
902.26	4150
902.379	4265
902.498	4253
902.617	4227
902.735	4375
902.854	4352
902.973	4360
903.091	4181
903.21	4196
903.328	4268
903.446	4299
903.565	4211
903.683	4352
903.801	4322
903.919	4390
904.038	4405
904.156	4333
904.274	4466
904.392	4383
904.51	4402
904.627	4470
904.745	4565
904.863	4649
904.981	4432
905.098	4303
905.216	4329
905.334	4371
905.451	4489
905.569	4424
905.686	4535
905.803	4535
905.921	4348
906.038	4546
906.155	4459
906.272	4394
906.389	4474
906.506	4314
906.623	4344
906.74	4405
906.857	4284
906.974	4344
907.091	4554
907.208	4679
907.324	4599
907.441	4489
907.557	4356
907.674	4352
907.79	4287
907.907	4409
908.023	4436
908.139	4432
908.256	4432
908.372	4428
908.488	4398
908.604	4367
908.72	4314
908.836	4352
908.952	4390
909.068	4390
909.184	4607
909.3	4432
909.415	4546
909.531	4508
909.647	4325
909.762	4367
909.878	4341
909.993	4405
910.108	4409
910.224	4405
910.339	4432
910.454	4386
910.57	4318
910.685	4306
910.8	4615
910.915	4569
911.03	4459
911.145	4329
911.259	4318
911.374	4341
911.489	4318
911.604	4253
911.718	4188
911.833	4204
911.947	4086
912.062	3998
912.176	4173
912.291	4219
912.405	4204
912.519	4443
912.633	4508
912.748	4379
912.862	4299
912.976	4192
913.09	4112
913.204	4173
913.318	4272
913.431	4337
913.545	4360
913.659	4428
913.772	4348
913.886	4238
914	4253
914.113	4318
914.226	4485
914.34	4371
914.453	4238
914.566	4432
914.68	4287
914.793	4310
914.906	4154
915.019	4128
915.132	4059
915.245	4185
915.358	4227
915.47	4188
915.583	4249
915.696	4299
915.809	4394
915.921	4379
916.034	4230
916.146	4215
916.259	4227
916.371	4318
916.483	4329
916.595	4268
916.708	4306
916.82	4333
916.932	4299
917.044	4318
917.156	4329
917.268	4261
917.38	4329
917.491	4246
917.603	4383
917.715	4405
917.826	4443
917.938	4356
918.049	4272
918.161	4367
918.272	4569
918.384	4538
918.495	4432
918.606	4287
918.717	4284
918.828	4333
918.939	4344
919.05	4280
919.161	4352
919.272	4131
919.383	4246
919.494	4421
919.604	4622
919.715	4432
919.826	4341
919.936	4375
920.047	4531
920.157	4542
920.267	4710
920.378	4596
920.488	4519
920.598	4725
920.708	4900
920.818	4816
920.928	4790
921.038	4953
921.148	4900
921.258	4664
921.368	4607
921.477	4504
921.587	4485
921.697	4409
921.806	4615
921.916	4436
922.025	4291
922.134	4276
922.244	4257
922.353	4390
922.462	4196
922.571	4196
922.68	4048
922.789	4010
922.898	4105
923.007	4017
923.116	4120
923.224	4143
923.333	4093
923.442	4044
923.55	4032
923.659	4078
923.767	4169
923.876	4017
923.984	4177
924.092	4002
924.201	4124
924.309	4116
924.417	4154
924.525	4101
924.633	4177
924.741	4881
924.849	3941
924.956	4158
925.064	3979
925.172	3926
925.279	4010
925.387	4055
925.494	4078
925.602	4246
925.709	4227
925.816	4067
925.924	4166
926.031	4261
926.138	4177
926.245	4272
926.352	4131
926.459	4272
926.566	4287
926.673	4177
926.779	4181
926.886	4101
926.993	3998
927.099	3975
927.206	3945
927.312	3953
927.419	4093
927.525	4044
927.631	4128
927.737	3987
927.843	3968
927.95	3899
928.056	4010
928.162	4040
928.267	4082
928.373	4736
928.479	4162
928.585	3865
928.69	4074
928.796	4082
928.901	3983
929.007	3873
929.112	4036
929.218	4006
929.323	3994
929.428	3934
929.533	4166
929.638	3945
929.743	4017
929.848	4044
929.953	4013
930.058	3960
930.163	3823
930.267	3835
930.372	3991
930.477	3831
930.581	4147
930.685	3945
930.79	3842
930.894	3915
930.998	3930
931.103	4055
931.207	3740
931.311	3682
931.415	3682
931.519	3534
931.623	3622
