Data from test_V78500241_676.txt Node
Date: Fri Mar 25 16:53:42 CST 2022
User: usil
Spectrometer: V785-0024
Trigger mode: 0
Integration Time (sec): 4.000000E-1
Scans to average: 1
Nonlinearity correction enabled: false
Boxcar width: 0
Storing dark spectrum: false
XAxis mode: Wavelengths
Number of Pixels in Spectrum: 1024
>>>>>Begin Spectral Data<<<<<
801.071	7997
801.214	8039
801.356	7860
801.499	7852
801.641	7833
801.783	7868
801.926	8043
802.068	7913
802.211	7951
802.353	8050
802.496	7913
802.638	7928
802.78	7982
802.923	7849
803.065	7871
803.208	7894
803.35	8043
803.492	8145
803.635	8195
803.777	8043
803.919	8172
804.061	8381
804.204	8176
804.346	8088
804.488	7982
804.63	8046
804.773	8016
804.915	8084
805.057	8317
805.199	8157
805.341	8263
805.483	8271
805.626	8298
805.768	8111
805.91	8130
806.052	8248
806.194	8062
806.336	8259
806.478	8103
806.62	8084
806.762	8161
806.904	8244
807.046	8514
807.188	8351
807.33	8362
807.472	8408
807.614	8237
807.756	8081
807.898	8012
808.04	7852
808.182	7883
808.324	7887
808.465	7864
808.607	8031
808.749	8134
808.891	8218
809.033	8187
809.174	8202
809.316	8081
809.458	8111
809.6	8084
809.741	8012
809.883	8058
810.025	8119
810.166	8092
810.308	8065
810.45	8046
810.591	7879
810.733	7792
810.875	7712
811.016	7605
811.158	7525
811.299	7578
811.441	7765
811.582	7738
811.724	7533
811.865	7533
812.007	7670
812.148	7628
812.29	7609
812.431	7712
812.573	7803
812.714	8020
812.855	8119
812.997	8214
813.138	8370
813.279	8202
813.421	8157
813.562	8020
813.703	7894
813.845	7818
813.986	7449
814.127	7373
814.268	7308
814.41	7206
814.551	7110
814.692	7164
814.833	7069
814.974	7053
815.115	7206
815.256	6970
815.397	6935
815.539	7000
815.68	6886
815.821	6798
815.962	6932
816.103	6863
816.244	6798
816.385	6658
816.526	6627
816.666	6509
816.807	6277
816.948	6414
817.089	6502
817.23	6441
817.371	6376
817.512	6388
817.653	6418
817.793	6391
817.934	6418
818.075	6490
818.216	6498
818.356	6433
818.497	6228
818.638	6121
818.778	6171
818.919	6155
819.06	6182
819.2	6292
819.341	6319
819.481	6391
819.622	6471
819.762	6779
819.903	6696
820.043	6658
820.184	6555
820.324	6574
820.465	6703
820.605	6639
820.746	6612
820.886	6483
821.026	6662
821.167	6722
821.307	6795
821.447	6768
821.588	6639
821.728	6593
821.868	6467
822.008	6308
822.149	6372
822.289	6315
822.429	6163
822.569	6057
822.709	6091
822.849	5912
822.99	5893
823.13	5927
823.27	5939
823.41	5809
823.55	5779
823.69	5775
823.83	5828
823.97	5695
824.11	5516
824.25	5535
824.389	5577
824.529	5592
824.669	5566
824.809	5596
824.949	5661
825.089	5657
825.228	5566
825.368	5433
825.508	5417
825.648	5364
825.787	5372
825.927	5387
826.067	5292
826.206	5254
826.346	5395
826.485	5387
826.625	5395
826.765	5482
826.904	5448
827.044	5261
827.183	5155
827.323	5166
827.462	5292
827.601	5216
827.741	5216
827.88	5250
828.02	5151
828.159	5246
828.298	5337
828.437	5406
828.577	5220
828.716	5520
828.855	5318
828.994	5151
829.134	5174
829.273	5185
829.412	5151
829.551	5105
829.69	5204
829.829	5280
829.968	5334
830.107	5288
830.246	5280
830.385	5181
830.524	5140
830.663	5071
830.802	4946
830.941	4885
831.08	4911
831.219	4961
831.357	5003
831.496	5121
831.635	4908
831.774	4828
831.913	4866
832.051	4740
832.19	4736
832.329	4885
832.467	4687
832.606	4672
832.744	4771
832.883	4717
833.022	4786
833.16	4767
833.299	4831
833.437	4820
833.576	4862
833.714	4866
833.852	4854
833.991	4896
834.129	4972
834.267	4999
834.406	4957
834.544	5060
834.682	4995
834.821	5003
834.959	5094
835.097	5003
835.235	5128
835.373	5121
835.511	5098
835.65	5037
835.788	5094
835.926	4946
836.064	4854
836.202	4896
836.34	5204
836.478	5242
836.615	5136
836.753	5223
836.891	5288
837.029	5250
837.167	5231
837.305	5166
837.443	5098
837.58	5090
837.718	5326
837.856	5212
837.993	5128
838.131	5277
838.269	5231
838.406	5201
838.544	5189
838.681	5018
838.819	4930
838.956	4953
839.094	4927
839.231	4987
839.369	5067
839.506	5391
839.643	5208
839.781	5113
839.918	5033
840.055	5086
840.193	5098
840.33	5121
840.467	5155
840.604	5151
840.742	5478
840.879	5090
841.016	5113
841.153	5147
841.29	5368
841.427	5357
841.564	5326
841.701	5349
841.838	5307
841.975	5250
842.112	5277
842.249	5094
842.385	5079
842.522	5387
842.659	5185
842.796	5220
842.933	5170
843.069	5162
843.206	5189
843.343	5322
843.479	5269
843.616	5292
843.752	5041
843.889	4999
844.025	5189
844.162	5014
844.298	5227
844.435	5052
844.571	5075
844.708	5216
844.844	5349
844.98	5330
845.117	5299
845.253	5128
845.389	5098
845.525	5147
845.661	5132
845.798	5037
845.934	5098
846.07	5025
846.206	5201
846.342	5269
846.478	5193
846.614	5071
846.75	4984
846.886	4995
847.022	5128
847.158	5006
847.294	5048
847.429	5086
847.565	5052
847.701	5368
847.837	4881
847.972	4805
848.108	4968
848.244	4946
848.379	4733
848.515	4763
848.65	4706
848.786	4744
848.921	4797
849.057	4885
849.192	4877
849.328	4805
849.463	4854
849.598	4816
849.734	4714
849.869	4736
850.004	4607
850.14	4679
850.275	4554
850.41	4538
850.545	4565
850.68	4584
850.815	4611
850.95	4641
851.085	4793
851.22	4771
851.355	4710
851.49	4634
851.625	4622
851.76	4607
851.895	4527
852.03	4588
852.165	4622
852.299	4736
852.434	4759
852.569	4755
852.703	4774
852.838	4835
852.973	4942
853.107	4938
853.242	4744
853.376	4683
853.511	4577
853.645	4584
853.78	4828
853.914	4656
854.048	4691
854.183	4645
854.317	4717
854.451	4847
854.585	4664
854.72	4645
854.854	4736
854.988	4630
855.122	4618
855.256	4531
855.39	4679
855.524	4790
855.658	4729
855.792	4706
855.926	4744
856.06	4725
856.194	4816
856.327	4717
856.461	4653
856.595	4645
856.729	4603
856.862	4786
856.996	4641
857.13	4725
857.263	4778
857.397	4782
857.53	4679
857.664	4752
857.797	4740
857.931	4748
858.064	4702
858.197	4679
858.331	4687
858.464	4592
858.597	4527
858.731	4584
858.864	4622
858.997	4596
859.13	4653
859.263	4725
859.396	4694
859.529	4584
859.662	4546
859.795	4569
859.928	4656
860.061	4733
860.194	4790
860.327	4603
860.46	4637
860.592	4691
860.725	4740
860.858	4679
860.99	4577
861.123	4512
861.256	4561
861.388	4611
861.521	5242
861.653	4470
861.786	4402
861.918	4428
862.05	4508
862.183	4554
862.315	4580
862.447	4664
862.58	4527
862.712	4432
862.844	4322
862.976	4500
863.108	4478
863.24	4877
863.372	4363
863.504	4375
863.636	4413
863.768	4474
863.9	4421
864.032	4341
864.164	4405
864.296	4497
864.428	4542
864.559	4611
864.691	4542
864.823	4561
864.954	4508
865.086	4527
865.217	4481
865.349	4421
865.48	4443
865.612	4508
865.743	4599
865.875	4500
866.006	4447
866.137	4481
866.269	4455
866.4	4466
866.531	4428
866.662	4386
866.793	4436
866.924	4413
867.055	4538
867.186	4474
867.317	4440
867.448	4356
867.579	4367
867.71	4398
867.841	4390
867.972	4455
868.103	4474
868.233	4436
868.364	4421
868.495	4481
868.625	4668
868.756	4752
868.886	4554
869.017	4641
869.147	4736
869.278	4816
869.408	4683
869.539	4668
869.669	4725
869.799	4641
869.929	4748
870.06	4744
870.19	4946
870.32	4923
870.45	4930
870.58	4961
870.71	5045
870.84	5128
870.97	4949
871.1	4889
871.23	5147
871.36	5174
871.489	5025
871.619	5113
871.749	5121
871.879	5124
872.008	5147
872.138	5064
872.267	5003
872.397	4831
872.526	4843
872.656	4752
872.785	4755
872.915	5018
873.044	5060
873.173	4938
873.303	4957
873.432	4949
873.561	4972
873.69	4847
873.819	4858
873.948	4927
874.077	4828
874.206	4763
874.335	4805
874.464	4923
874.593	5075
874.722	4965
874.851	5064
874.979	5064
875.108	5022
875.237	4953
875.365	4862
875.494	4885
875.623	4995
875.751	4782
875.88	4881
876.008	4995
876.136	5022
876.265	5220
876.393	5376
876.521	5246
876.65	5227
876.778	5166
876.906	5022
877.034	5022
877.162	5052
877.29	4987
877.418	5083
877.546	5010
877.674	5025
877.802	5022
877.93	4972
878.058	4968
878.185	4885
878.313	4980
878.441	4968
878.568	4782
878.696	4885
878.824	4980
878.951	4968
879.079	5147
879.206	5330
879.333	5128
879.461	4965
879.588	4976
879.715	5132
879.842	5204
879.97	5003
880.097	4740
880.224	4755
880.351	4767
880.478	4854
880.605	4786
880.732	4790
880.859	5060
880.986	4877
881.112	4915
881.239	4740
881.366	4668
881.493	4630
881.619	4599
881.746	4660
881.872	4672
881.999	4649
882.125	4702
882.252	4793
882.378	4839
882.505	5003
882.631	4782
882.757	4725
882.883	4721
883.01	4698
883.136	4672
883.262	4596
883.388	4561
883.514	4793
883.64	4862
883.766	4755
883.892	4714
884.018	4710
884.143	4870
884.269	5014
884.395	4691
884.52	4645
884.646	4618
884.772	4596
884.897	4554
885.023	4607
885.148	4793
885.274	4847
885.399	4767
885.524	4698
885.65	4706
885.775	4755
885.9	4691
886.025	4847
886.15	4778
886.275	4714
886.4	4691
886.525	4748
886.65	4641
886.775	4691
886.9	4949
887.025	5041
887.149	4774
887.274	4675
887.399	4565
887.523	4622
887.648	4565
887.773	4618
887.897	4759
888.021	4793
888.146	4683
888.27	4835
888.395	4911
888.519	4774
888.643	4843
888.767	4790
888.891	4717
889.015	4596
889.139	4603
889.263	4588
889.387	4736
889.511	4843
889.635	4752
889.759	4637
889.883	4668
890.006	4733
890.13	4866
890.254	4592
890.377	4691
890.501	4546
890.624	4508
890.748	4603
890.871	4542
890.995	4424
891.118	4386
891.241	4497
891.364	4573
891.488	4634
891.611	4535
891.734	4516
891.857	4622
891.98	4519
892.103	4645
892.226	4584
892.349	4535
892.471	4421
892.594	4542
892.717	4645
892.839	4527
892.962	4554
893.085	4721
893.207	4615
893.33	4443
893.452	4527
893.575	4675
893.697	4546
893.819	4759
893.941	4793
894.064	4759
894.186	4573
894.308	4558
894.43	4721
894.552	4816
894.674	4763
894.796	4569
894.918	4611
895.04	4538
895.161	4698
895.283	4694
895.405	4577
895.526	4603
895.648	4641
895.769	4721
895.891	4736
896.012	4782
896.134	4759
896.255	4675
896.376	4641
896.498	4653
896.619	4672
896.74	4618
896.861	4626
896.982	4949
897.103	5102
897.224	4835
897.345	4740
897.466	4691
897.587	4702
897.708	4870
897.828	4767
897.949	4672
898.07	4538
898.19	4622
898.311	4850
898.431	4675
898.552	4763
898.672	4816
898.792	4797
898.913	4786
899.033	4656
899.153	4542
899.273	4451
899.393	4485
899.513	4561
899.633	4554
899.753	4462
899.873	4523
899.993	4573
900.113	4500
900.232	4508
900.352	4516
900.472	4481
900.591	4436
900.711	4462
900.83	4436
900.95	4622
901.069	4660
901.189	4554
901.308	4375
901.427	4363
901.546	4341
901.665	4493
901.784	4542
901.904	4390
902.023	4295
902.141	4169
902.26	4227
902.379	4272
902.498	4215
902.617	4230
902.735	4405
902.854	4405
902.973	4344
903.091	4234
903.21	4215
903.328	4333
903.446	4299
903.565	4318
903.683	4371
903.801	4291
903.919	4363
904.038	4424
904.156	4310
904.274	4405
904.392	4443
904.51	4390
904.627	4485
904.745	4542
904.863	4626
904.981	4417
905.098	4333
905.216	4329
905.334	4470
905.451	4470
905.569	4455
905.686	4531
905.803	4558
905.921	4436
906.038	4531
906.155	4443
906.272	4383
906.389	4462
906.506	4337
906.623	4390
906.74	4402
906.857	4325
906.974	4348
907.091	4596
907.208	4683
907.324	4569
907.441	4485
907.557	4356
907.674	4360
907.79	4303
907.907	4344
908.023	4474
908.139	4519
908.256	4462
908.372	4459
908.488	4447
908.604	4352
908.72	4318
908.836	4344
908.952	4402
909.068	4447
909.184	4584
909.3	4535
909.415	4565
909.531	4523
909.647	4379
909.762	4371
909.878	4318
909.993	4432
910.108	4470
910.224	4402
910.339	4531
910.454	4413
910.57	4344
910.685	4360
910.8	4668
910.915	4603
911.03	4485
911.145	4306
911.259	4341
911.374	4394
911.489	4329
911.604	4253
911.718	4200
911.833	4192
911.947	4105
912.062	4036
912.176	4192
912.291	4242
912.405	4253
912.519	4459
912.633	4493
912.748	4360
912.862	4325
912.976	4200
913.09	4051
913.204	4173
913.318	4215
913.431	4386
913.545	4337
913.659	4462
913.772	4356
913.886	4223
914	4162
914.113	4352
914.226	4436
914.34	4367
914.453	4253
914.566	4398
914.68	4291
914.793	4329
914.906	4139
915.019	4135
915.132	4097
915.245	4158
915.358	4261
915.47	4265
915.583	4287
915.696	4272
915.809	4405
915.921	4402
916.034	4227
916.146	4295
916.259	4181
916.371	4428
916.483	4367
916.595	4265
916.708	4329
916.82	4306
916.932	4337
917.044	4310
917.156	4318
917.268	4234
917.38	4284
917.491	4272
917.603	4379
917.715	4421
917.826	4409
917.938	4306
918.049	4246
918.161	4394
918.272	4550
918.384	4516
918.495	4481
918.606	4310
918.717	4246
918.828	4344
918.939	4337
919.05	4249
919.161	4325
919.272	4154
919.383	4207
919.494	4447
919.604	4577
919.715	4459
919.826	4352
919.936	4432
920.047	4512
920.157	4500
920.267	4729
920.378	4527
920.488	4516
920.598	4698
920.708	4866
920.818	4744
920.928	4740
921.038	4911
921.148	4908
921.258	4653
921.368	4550
921.477	4538
921.587	4478
921.697	4379
921.806	4516
921.916	4413
922.025	4268
922.134	4268
922.244	4219
922.353	4314
922.462	4131
922.571	4147
922.68	4013
922.789	4006
922.898	4029
923.007	3975
923.116	4086
923.224	4082
923.333	4059
923.442	3994
923.55	3975
923.659	4021
923.767	4082
923.876	4010
923.984	4120
924.092	3998
924.201	4101
924.309	4105
924.417	4097
924.525	4101
924.633	4135
924.741	5041
924.849	3903
924.956	4101
925.064	3960
925.172	3937
925.279	3930
925.387	4059
925.494	4040
925.602	4196
925.709	4200
925.816	4097
925.924	4162
926.031	4238
926.138	4177
926.245	4188
926.352	4120
926.459	4223
926.566	4299
926.673	4124
926.779	4082
926.886	4097
926.993	3987
927.099	3991
927.206	3915
927.312	3934
927.419	4078
927.525	4021
927.631	4093
927.737	3953
927.843	3964
927.95	3857
928.056	3979
928.162	3994
928.267	4051
928.373	4710
928.479	4112
928.585	3880
928.69	4032
928.796	4093
928.901	3964
929.007	3884
929.112	3998
929.218	3983
929.323	3918
929.428	3918
929.533	4131
929.638	3911
929.743	3975
929.848	4010
929.953	4002
930.058	3956
930.163	3766
930.267	3861
930.372	3937
930.477	3816
930.581	4093
930.685	3899
930.79	3823
930.894	3899
930.998	3861
931.103	4059
931.207	3686
931.311	3682
931.415	3625
931.519	3542
931.623	3595
