Data from test_V78500241_1425.txt Node
Date: Fri Mar 25 16:58:54 CST 2022
User: usil
Spectrometer: V785-0024
Trigger mode: 0
Integration Time (sec): 4.000000E-1
Scans to average: 1
Nonlinearity correction enabled: false
Boxcar width: 0
Storing dark spectrum: false
XAxis mode: Wavelengths
Number of Pixels in Spectrum: 1024
>>>>>Begin Spectral Data<<<<<
801.071	7947
801.214	8024
801.356	7860
801.499	7906
801.641	7818
801.783	7788
801.926	8012
802.068	8016
802.211	8001
802.353	8096
802.496	7875
802.638	7879
802.78	7967
802.923	7967
803.065	7902
803.208	7879
803.35	8012
803.492	8176
803.635	8111
803.777	8020
803.919	8138
804.061	8396
804.204	8142
804.346	8043
804.488	8012
804.63	8100
804.773	8096
804.915	8084
805.057	8366
805.199	8191
805.341	8214
805.483	8240
805.626	8237
805.768	8221
805.91	8282
806.052	8214
806.194	8088
806.336	8294
806.478	8103
806.62	8062
806.762	8183
806.904	8279
807.046	8480
807.188	8374
807.33	8339
807.472	8305
807.614	8149
807.756	8103
807.898	8050
808.04	8001
808.182	7913
808.324	7921
808.465	7906
808.607	8130
808.749	8081
808.891	8180
809.033	8259
809.174	8202
809.316	8050
809.458	8111
809.6	8020
809.741	8012
809.883	8069
810.025	8119
810.166	8092
810.308	8069
810.45	7997
810.591	7841
810.733	7734
810.875	7715
811.016	7533
811.158	7445
811.299	7601
811.441	7780
811.582	7731
811.724	7605
811.865	7567
812.007	7594
812.148	7586
812.29	7685
812.431	7700
812.573	7883
812.714	7997
812.855	8119
812.997	8180
813.138	8362
813.279	8214
813.421	8119
813.562	7982
813.703	7883
813.845	7757
813.986	7434
814.127	7266
814.268	7259
814.41	7190
814.551	7183
814.692	7228
814.833	7065
814.974	7107
815.115	7114
815.256	6939
815.397	6916
815.539	6989
815.68	6818
815.821	6818
815.962	6886
816.103	6768
816.244	6730
816.385	6654
816.526	6616
816.666	6490
816.807	6304
816.948	6479
817.089	6494
817.23	6418
817.371	6418
817.512	6407
817.653	6357
817.793	6372
817.934	6460
818.075	6429
818.216	6414
818.356	6357
818.497	6281
818.638	6098
818.778	6175
818.919	6152
819.06	6171
819.2	6338
819.341	6327
819.481	6350
819.622	6563
819.762	6726
819.903	6707
820.043	6616
820.184	6608
820.324	6631
820.465	6722
820.605	6707
820.746	6639
820.886	6506
821.026	6662
821.167	6650
821.307	6757
821.447	6722
821.588	6726
821.728	6566
821.868	6525
822.008	6296
822.149	6353
822.289	6376
822.429	6133
822.569	6064
822.709	6155
822.849	5935
822.99	5927
823.13	5878
823.27	5908
823.41	5783
823.55	5828
823.69	5729
823.83	5733
823.97	5726
824.11	5535
824.25	5547
824.389	5558
824.529	5551
824.669	5535
824.809	5608
824.949	5684
825.089	5619
825.228	5566
825.368	5391
825.508	5303
825.648	5402
825.787	5398
825.927	5383
826.067	5299
826.206	5269
826.346	5395
826.485	5383
826.625	5406
826.765	5604
826.904	5486
827.044	5227
827.183	5197
827.323	5113
827.462	5322
827.601	5204
827.741	5162
827.88	5258
828.02	5075
828.159	5201
828.298	5296
828.437	5387
828.577	5235
828.716	5509
828.855	5307
828.994	5178
829.134	5143
829.273	5185
829.412	5132
829.551	5128
829.69	5178
829.829	5318
829.968	5395
830.107	5341
830.246	5265
830.385	5197
830.524	5159
830.663	5079
830.802	4927
830.941	4908
831.08	4961
831.219	5010
831.357	4999
831.496	5136
831.635	4949
831.774	4824
831.913	4831
832.051	4759
832.19	4752
832.329	4820
832.467	4714
832.606	4603
832.744	4740
832.883	4698
833.022	4736
833.16	4755
833.299	4812
833.437	4873
833.576	4790
833.714	4858
833.852	4908
833.991	4889
834.129	4953
834.267	4938
834.406	4892
834.544	5014
834.682	5029
834.821	4968
834.959	5155
835.097	4946
835.235	5117
835.373	5098
835.511	5079
835.65	5018
835.788	4995
835.926	4862
836.064	4870
836.202	4919
836.34	5174
836.478	5201
836.615	5094
836.753	5227
836.891	5288
837.029	5220
837.167	5178
837.305	5204
837.443	5124
837.58	5094
837.718	5216
837.856	5166
837.993	5193
838.131	5242
838.269	5201
838.406	5185
838.544	5227
838.681	5022
838.819	5025
838.956	4900
839.094	4930
839.231	4965
839.369	5056
839.506	5425
839.643	5242
839.781	5029
839.918	5003
840.055	5102
840.193	5090
840.33	5132
840.467	5105
840.604	5166
840.742	5402
840.879	5052
841.016	5128
841.153	5189
841.29	5421
841.427	5318
841.564	5337
841.701	5360
841.838	5227
841.975	5216
842.112	5265
842.249	5185
842.385	5086
842.522	5376
842.659	5136
842.796	5151
842.933	5208
843.069	5159
843.206	5166
843.343	5292
843.479	5265
843.616	5299
843.752	5045
843.889	5010
844.025	5178
844.162	5045
844.298	5155
844.435	5075
844.571	5094
844.708	5216
844.844	5258
844.98	5303
845.117	5318
845.253	5124
845.389	5128
845.525	5178
845.661	5105
845.798	5033
845.934	5147
846.07	5048
846.206	5193
846.342	5277
846.478	5189
846.614	5056
846.75	5003
846.886	4991
847.022	5166
847.158	5060
847.294	5048
847.429	5128
847.565	5048
847.701	5315
847.837	4843
847.972	4786
848.108	4930
848.244	4957
848.379	4782
848.515	4721
848.65	4698
848.786	4710
848.921	4824
849.057	4839
849.192	4911
849.328	4847
849.463	4820
849.598	4812
849.734	4721
849.869	4702
850.004	4622
850.14	4656
850.275	4630
850.41	4542
850.545	4577
850.68	4645
850.815	4615
850.95	4607
851.085	4824
851.22	4771
851.355	4691
851.49	4611
851.625	4656
851.76	4630
851.895	4588
852.03	4527
852.165	4634
852.299	4714
852.434	4759
852.569	4733
852.703	4733
852.838	4858
852.973	4930
853.107	4854
853.242	4725
853.376	4694
853.511	4519
853.645	4618
853.78	4782
853.914	4698
854.048	4622
854.183	4615
854.317	4710
854.451	4786
854.585	4691
854.72	4641
854.854	4752
854.988	4607
855.122	4630
855.256	4523
855.39	4641
855.524	4744
855.658	4721
855.792	4702
855.926	4721
856.06	4755
856.194	4782
856.327	4691
856.461	4618
856.595	4607
856.729	4630
856.862	4767
856.996	4679
857.13	4714
857.263	4698
857.397	4736
857.53	4645
857.664	4702
857.797	4812
857.931	4759
858.064	4660
858.197	4736
858.331	4592
858.464	4611
858.597	4588
858.731	4645
858.864	4607
858.997	4588
859.13	4736
859.263	4653
859.396	4637
859.529	4569
859.662	4584
859.795	4512
859.928	4607
860.061	4801
860.194	4717
860.327	4611
860.46	4599
860.592	4683
860.725	4714
860.858	4744
860.99	4565
861.123	4523
861.256	4466
861.388	4592
861.521	5357
861.653	4531
861.786	4443
861.918	4436
862.05	4485
862.183	4527
862.315	4599
862.447	4618
862.58	4542
862.712	4390
862.844	4341
862.976	4497
863.108	4462
863.24	4866
863.372	4303
863.504	4443
863.636	4421
863.768	4436
863.9	4417
864.032	4341
864.164	4428
864.296	4493
864.428	4546
864.559	4577
864.691	4573
864.823	4546
864.954	4489
865.086	4500
865.217	4428
865.349	4432
865.48	4470
865.612	4489
865.743	4622
865.875	4436
866.006	4379
866.137	4489
866.269	4428
866.4	4405
866.531	4428
866.662	4383
866.793	4394
866.924	4428
867.055	4497
867.186	4440
867.317	4424
867.448	4379
867.579	4363
867.71	4390
867.841	4394
867.972	4451
868.103	4493
868.233	4470
868.364	4474
868.495	4478
868.625	4656
868.756	4767
868.886	4558
869.017	4618
869.147	4755
869.278	4778
869.408	4672
869.539	4672
869.669	4687
869.799	4653
869.929	4748
870.06	4733
870.19	4938
870.32	4892
870.45	4957
870.58	5010
870.71	5086
870.84	5083
870.97	4938
871.1	4877
871.23	5113
871.36	5143
871.489	5014
871.619	5048
871.749	5025
871.879	5136
872.008	5159
872.138	5048
872.267	4946
872.397	4801
872.526	4793
872.656	4717
872.785	4786
872.915	4930
873.044	5052
873.173	4919
873.303	4949
873.432	4957
873.561	4980
873.69	4896
873.819	4877
873.948	4904
874.077	4828
874.206	4778
874.335	4801
874.464	4904
874.593	5033
874.722	4927
874.851	5083
874.979	5056
875.108	5018
875.237	4911
875.365	4877
875.494	4877
875.623	4980
875.751	4793
875.88	4850
876.008	4957
876.136	5025
876.265	5265
876.393	5311
876.521	5239
876.65	5197
876.778	5174
876.906	5033
877.034	4987
877.162	5003
877.29	4987
877.418	5060
877.546	5094
877.674	5033
877.802	5029
877.93	4957
878.058	4911
878.185	4870
878.313	4968
878.441	4938
878.568	4767
878.696	4862
878.824	4980
878.951	4999
879.079	5128
879.206	5258
879.333	5109
879.461	4930
879.588	4987
879.715	5113
879.842	5239
879.97	4938
880.097	4797
880.224	4717
880.351	4778
880.478	4858
880.605	4782
880.732	4816
880.859	5079
880.986	4900
881.112	4847
881.239	4790
881.366	4683
881.493	4588
881.619	4535
881.746	4645
881.872	4641
881.999	4656
882.125	4672
882.252	4771
882.378	4816
882.505	4927
882.631	4801
882.757	4672
882.883	4721
883.01	4733
883.136	4649
883.262	4588
883.388	4622
883.514	4824
883.64	4870
883.766	4755
883.892	4683
884.018	4752
884.143	4862
884.269	4984
884.395	4634
884.52	4622
884.646	4668
884.772	4569
884.897	4538
885.023	4679
885.148	4736
885.274	4843
885.399	4774
885.524	4698
885.65	4744
885.775	4763
885.9	4675
886.025	4774
886.15	4736
886.275	4740
886.4	4664
886.525	4763
886.65	4653
886.775	4710
886.9	4892
887.025	4999
887.149	4847
887.274	4668
887.399	4599
887.523	4546
887.648	4577
887.773	4592
887.897	4736
888.021	4767
888.146	4675
888.27	4740
888.395	4946
888.519	4824
888.643	4812
888.767	4881
888.891	4645
889.015	4592
889.139	4634
889.263	4592
889.387	4801
889.511	4854
889.635	4805
889.759	4630
889.883	4645
890.006	4714
890.13	4790
890.254	4622
890.377	4691
890.501	4500
890.624	4561
890.748	4592
890.871	4481
890.995	4455
891.118	4375
891.241	4523
891.364	4550
891.488	4653
891.611	4546
891.734	4508
891.857	4596
891.98	4542
892.103	4672
892.226	4607
892.349	4577
892.471	4436
892.594	4603
892.717	4588
892.839	4523
892.962	4634
893.085	4675
893.207	4550
893.33	4402
893.452	4512
893.575	4679
893.697	4538
893.819	4733
893.941	4816
894.064	4755
894.186	4607
894.308	4550
894.43	4714
894.552	4820
894.674	4782
894.796	4599
894.918	4637
895.04	4546
895.161	4687
895.283	4660
895.405	4554
895.526	4622
895.648	4668
895.769	4672
895.891	4706
896.012	4672
896.134	4759
896.255	4683
896.376	4615
896.498	4603
896.619	4649
896.74	4584
896.861	4691
896.982	4900
897.103	5071
897.224	4809
897.345	4759
897.466	4698
897.587	4729
897.708	4839
897.828	4767
897.949	4691
898.07	4535
898.19	4656
898.311	4828
898.431	4653
898.552	4694
898.672	4805
898.792	4767
898.913	4763
899.033	4588
899.153	4497
899.273	4428
899.393	4538
899.513	4474
899.633	4500
899.753	4558
899.873	4550
899.993	4607
900.113	4508
900.232	4622
900.352	4538
900.472	4485
900.591	4386
900.711	4447
900.83	4440
900.95	4573
901.069	4675
901.189	4519
901.308	4352
901.427	4303
901.546	4375
901.665	4462
901.784	4497
901.904	4390
902.023	4284
902.141	4162
902.26	4143
902.379	4238
902.498	4242
902.617	4242
902.735	4375
902.854	4394
902.973	4341
903.091	4227
903.21	4234
903.328	4295
903.446	4200
903.565	4291
903.683	4310
903.801	4272
903.919	4402
904.038	4402
904.156	4314
904.274	4398
904.392	4398
904.51	4413
904.627	4485
904.745	4561
904.863	4626
904.981	4409
905.098	4333
905.216	4356
905.334	4440
905.451	4398
905.569	4497
905.686	4538
905.803	4558
905.921	4398
906.038	4527
906.155	4478
906.272	4417
906.389	4527
906.506	4314
906.623	4363
906.74	4371
906.857	4276
906.974	4413
907.091	4554
907.208	4687
907.324	4580
907.441	4500
907.557	4314
907.674	4348
907.79	4303
907.907	4341
908.023	4512
908.139	4440
908.256	4421
908.372	4508
908.488	4421
908.604	4360
908.72	4310
908.836	4390
908.952	4375
909.068	4409
909.184	4592
909.3	4500
909.415	4546
909.531	4558
909.647	4360
909.762	4402
909.878	4341
909.993	4428
910.108	4398
910.224	4413
910.339	4481
910.454	4413
910.57	4356
910.685	4322
910.8	4660
910.915	4573
911.03	4504
911.145	4329
911.259	4299
911.374	4352
911.489	4329
911.604	4268
911.718	4135
911.833	4211
911.947	4105
912.062	3983
912.176	4204
912.291	4234
912.405	4268
912.519	4440
912.633	4481
912.748	4344
912.862	4360
912.976	4219
913.09	4071
913.204	4192
913.318	4268
913.431	4375
913.545	4413
913.659	4421
913.772	4333
913.886	4246
914	4215
914.113	4383
914.226	4455
914.34	4394
914.453	4242
914.566	4383
914.68	4306
914.793	4291
914.906	4131
915.019	4162
915.132	4059
915.245	4181
915.358	4207
915.47	4211
915.583	4249
915.696	4265
915.809	4413
915.921	4440
916.034	4287
916.146	4242
916.259	4257
916.371	4367
916.483	4356
916.595	4265
916.708	4329
916.82	4337
916.932	4322
917.044	4348
917.156	4310
917.268	4257
917.38	4280
917.491	4238
917.603	4333
917.715	4398
917.826	4451
917.938	4344
918.049	4211
918.161	4432
918.272	4573
918.384	4508
918.495	4447
918.606	4276
918.717	4276
918.828	4333
918.939	4356
919.05	4265
919.161	4348
919.272	4131
919.383	4257
919.494	4447
919.604	4615
919.715	4413
919.826	4341
919.936	4402
920.047	4535
920.157	4474
920.267	4687
920.378	4565
920.488	4455
920.598	4717
920.708	4866
920.818	4748
920.928	4759
921.038	4953
921.148	4923
921.258	4660
921.368	4569
921.477	4535
921.587	4459
921.697	4398
921.806	4561
921.916	4478
922.025	4238
922.134	4268
922.244	4234
922.353	4360
922.462	4158
922.571	4158
922.68	4048
922.789	3918
922.898	4044
923.007	3983
923.116	4139
923.224	4036
923.333	4082
923.442	4010
923.55	3918
923.659	3972
923.767	4120
923.876	3994
923.984	4147
924.092	3983
924.201	4086
924.309	4116
924.417	4124
924.525	4071
924.633	4105
924.741	5056
924.849	3949
924.956	4093
925.064	3994
925.172	3918
925.279	3945
925.387	4055
925.494	4067
925.602	4192
925.709	4200
925.816	4040
925.924	4116
926.031	4215
926.138	4150
926.245	4177
926.352	4124
926.459	4265
926.566	4295
926.673	4139
926.779	4105
926.886	4078
926.993	3987
927.099	3926
927.206	3956
927.312	3949
927.419	4044
927.525	4048
927.631	4120
927.737	3975
927.843	3922
927.95	3846
928.056	3945
928.162	4025
928.267	4040
928.373	4603
928.479	4097
928.585	3888
928.69	3960
928.796	4120
928.901	3972
929.007	3857
929.112	4010
929.218	3994
929.323	3968
929.428	3953
929.533	4147
929.638	3960
929.743	4002
929.848	4067
929.953	3960
930.058	3911
930.163	3728
930.267	3762
930.372	3972
930.477	3816
930.581	4105
930.685	3915
930.79	3819
930.894	3888
930.998	3838
931.103	4006
931.207	3728
931.311	3694
931.415	3690
931.519	3519
931.623	3519
