Data from test_V78500241_2351.txt Node
Date: Fri Mar 25 17:05:20 CST 2022
User: usil
Spectrometer: V785-0024
Trigger mode: 0
Integration Time (sec): 4.000000E-1
Scans to average: 1
Nonlinearity correction enabled: false
Boxcar width: 0
Storing dark spectrum: false
XAxis mode: Wavelengths
Number of Pixels in Spectrum: 1024
>>>>>Begin Spectral Data<<<<<
801.071	8024
801.214	8073
801.356	7868
801.499	7822
801.641	7795
801.783	7830
801.926	7887
802.068	7944
802.211	7974
802.353	8039
802.496	7845
802.638	7932
802.78	7947
802.923	7871
803.065	7947
803.208	7818
803.35	7974
803.492	8115
803.635	8115
803.777	8031
803.919	8157
804.061	8492
804.204	8134
804.346	8092
804.488	7978
804.63	8077
804.773	8027
804.915	8100
805.057	8282
805.199	8130
805.341	8145
805.483	8298
805.626	8199
805.768	8180
805.91	8206
806.052	8138
806.194	8130
806.336	8271
806.478	8084
806.62	8081
806.762	8119
806.904	8218
807.046	8423
807.188	8385
807.33	8339
807.472	8393
807.614	8164
807.756	8218
807.898	8043
808.04	7849
808.182	7871
808.324	7860
808.465	7917
808.607	8092
808.749	8130
808.891	8252
809.033	8267
809.174	8233
809.316	8103
809.458	8054
809.6	7997
809.741	8039
809.883	8016
810.025	8119
810.166	8050
810.308	8043
810.45	8008
810.591	7906
810.733	7700
810.875	7674
811.016	7567
811.158	7480
811.299	7529
811.441	7731
811.582	7689
811.724	7597
811.865	7487
812.007	7590
812.148	7632
812.29	7594
812.431	7704
812.573	7864
812.714	7902
812.855	8145
812.997	8256
813.138	8282
813.279	8149
813.421	8077
813.562	8001
813.703	7814
813.845	7780
813.986	7339
814.127	7320
814.268	7183
814.41	7156
814.551	7126
814.692	7232
814.833	7084
814.974	7175
815.115	7099
815.256	6954
815.397	6970
815.539	6924
815.68	6837
815.821	6753
815.962	6890
816.103	6909
816.244	6711
816.385	6604
816.526	6540
816.666	6483
816.807	6342
816.948	6448
817.089	6464
817.23	6422
817.371	6391
817.512	6369
817.653	6338
817.793	6361
817.934	6418
818.075	6452
818.216	6407
818.356	6426
818.497	6277
818.638	6095
818.778	6155
818.919	6129
819.06	6159
819.2	6410
819.341	6277
819.481	6372
819.622	6566
819.762	6745
819.903	6711
820.043	6555
820.184	6597
820.324	6532
820.465	6719
820.605	6681
820.746	6669
820.886	6483
821.026	6593
821.167	6696
821.307	6848
821.447	6734
821.588	6673
821.728	6616
821.868	6502
822.008	6350
822.149	6369
822.289	6346
822.429	6117
822.569	6087
822.709	6098
822.849	5897
822.99	5885
823.13	6011
823.27	5912
823.41	5836
823.55	5783
823.69	5760
823.83	5733
823.97	5680
824.11	5566
824.25	5554
824.389	5596
824.529	5623
824.669	5539
824.809	5691
824.949	5665
825.089	5562
825.228	5558
825.368	5387
825.508	5368
825.648	5364
825.787	5357
825.927	5383
826.067	5349
826.206	5288
826.346	5334
826.485	5349
826.625	5395
826.765	5562
826.904	5486
827.044	5242
827.183	5170
827.323	5124
827.462	5193
827.601	5170
827.741	5136
827.88	5227
828.02	5052
828.159	5220
828.298	5292
828.437	5288
828.577	5322
828.716	5482
828.855	5284
828.994	5166
829.134	5159
829.273	5128
829.412	5121
829.551	5147
829.69	5162
829.829	5204
829.968	5379
830.107	5288
830.246	5299
830.385	5128
830.524	5113
830.663	5052
830.802	5014
830.941	4896
831.08	4881
831.219	4923
831.357	5014
831.496	5185
831.635	4934
831.774	4812
831.913	4923
832.051	4752
832.19	4771
832.329	4866
832.467	4706
832.606	4592
832.744	4748
832.883	4702
833.022	4698
833.16	4797
833.299	4805
833.437	4828
833.576	4854
833.714	4885
833.852	4862
833.991	4885
834.129	4877
834.267	4930
834.406	4915
834.544	5010
834.682	4980
834.821	5010
834.959	5174
835.097	4980
835.235	5147
835.373	5083
835.511	5052
835.65	5029
835.788	4984
835.926	4885
836.064	4892
836.202	4949
836.34	5132
836.478	5246
836.615	5086
836.753	5193
836.891	5273
837.029	5223
837.167	5212
837.305	5151
837.443	5216
837.58	5090
837.718	5220
837.856	5170
837.993	5151
838.131	5227
838.269	5197
838.406	5220
838.544	5143
838.681	5048
838.819	5029
838.956	4889
839.094	4858
839.231	4980
839.369	5048
839.506	5410
839.643	5277
839.781	5075
839.918	5029
840.055	5067
840.193	5113
840.33	5105
840.467	5162
840.604	5181
840.742	5410
840.879	5060
841.016	5060
841.153	5140
841.29	5337
841.427	5406
841.564	5288
841.701	5345
841.838	5288
841.975	5159
842.112	5239
842.249	5128
842.385	5109
842.522	5318
842.659	5178
842.796	5174
842.933	5189
843.069	5151
843.206	5121
843.343	5292
843.479	5254
843.616	5250
843.752	5045
843.889	4995
844.025	5189
844.162	5003
844.298	5212
844.435	5098
844.571	5041
844.708	5223
844.844	5387
844.98	5315
845.117	5277
845.253	5105
845.389	5071
845.525	5117
845.661	5136
845.798	5041
845.934	5136
846.07	5056
846.206	5197
846.342	5235
846.478	5174
846.614	5025
846.75	4991
846.886	4934
847.022	5132
847.158	5018
847.294	5083
847.429	5094
847.565	5025
847.701	5292
847.837	4835
847.972	4778
848.108	4953
848.244	4919
848.379	4831
848.515	4763
848.65	4725
848.786	4767
848.921	4805
849.057	4900
849.192	4870
849.328	4820
849.463	4839
849.598	4771
849.734	4763
849.869	4691
850.004	4637
850.14	4683
850.275	4637
850.41	4523
850.545	4565
850.68	4603
850.815	4649
850.95	4656
851.085	4824
851.22	4748
851.355	4656
851.49	4637
851.625	4607
851.76	4702
851.895	4618
852.03	4474
852.165	4641
852.299	4717
852.434	4759
852.569	4744
852.703	4793
852.838	4831
852.973	4942
853.107	4896
853.242	4755
853.376	4702
853.511	4500
853.645	4630
853.78	4805
853.914	4649
854.048	4698
854.183	4599
854.317	4672
854.451	4828
854.585	4664
854.72	4622
854.854	4740
854.988	4622
855.122	4618
855.256	4527
855.39	4679
855.524	4790
855.658	4733
855.792	4687
855.926	4744
856.06	4805
856.194	4816
856.327	4660
856.461	4588
856.595	4645
856.729	4656
856.862	4740
856.996	4687
857.13	4790
857.263	4752
857.397	4778
857.53	4584
857.664	4656
857.797	4763
857.931	4736
858.064	4668
858.197	4752
858.331	4653
858.464	4618
858.597	4459
858.731	4588
858.864	4611
858.997	4535
859.13	4634
859.263	4672
859.396	4660
859.529	4615
859.662	4565
859.795	4497
859.928	4653
860.061	4790
860.194	4767
860.327	4649
860.46	4523
860.592	4714
860.725	4752
860.858	4755
860.99	4573
861.123	4508
861.256	4504
861.388	4580
861.521	5227
861.653	4466
861.786	4383
861.918	4447
862.05	4489
862.183	4535
862.315	4622
862.447	4672
862.58	4550
862.712	4436
862.844	4322
862.976	4409
863.108	4409
863.24	4885
863.372	4367
863.504	4405
863.636	4451
863.768	4462
863.9	4474
864.032	4329
864.164	4413
864.296	4462
864.428	4577
864.559	4580
864.691	4561
864.823	4485
864.954	4493
865.086	4538
865.217	4459
865.349	4424
865.48	4470
865.612	4481
865.743	4634
865.875	4421
866.006	4443
866.137	4478
866.269	4447
866.4	4432
866.531	4398
866.662	4379
866.793	4379
866.924	4405
867.055	4440
867.186	4451
867.317	4379
867.448	4371
867.579	4383
867.71	4402
867.841	4337
867.972	4485
868.103	4531
868.233	4459
868.364	4424
868.495	4478
868.625	4733
868.756	4767
868.886	4569
869.017	4618
869.147	4763
869.278	4771
869.408	4656
869.539	4637
869.669	4664
869.799	4653
869.929	4752
870.06	4691
870.19	4946
870.32	4908
870.45	4904
870.58	5041
870.71	5083
870.84	5136
870.97	4984
871.1	4885
871.23	5105
871.36	5079
871.489	5006
871.619	5064
871.749	5060
871.879	5121
872.008	5223
872.138	5041
872.267	4995
872.397	4828
872.526	4809
872.656	4733
872.785	4809
872.915	4923
873.044	5056
873.173	4957
873.303	4938
873.432	4930
873.561	4995
873.69	4854
873.819	4835
873.948	4858
874.077	4812
874.206	4733
874.335	4801
874.464	4923
874.593	5052
874.722	5006
874.851	5071
874.979	5064
875.108	5025
875.237	4953
875.365	4847
875.494	4870
875.623	4987
875.751	4801
875.88	4889
876.008	4942
876.136	5067
876.265	5162
876.393	5395
876.521	5216
876.65	5231
876.778	5193
876.906	5083
877.034	5037
877.162	5010
877.29	5010
877.418	5079
877.546	4972
877.674	5083
877.802	5098
877.93	5014
878.058	4961
878.185	4850
878.313	4946
878.441	4934
878.568	4790
878.696	4873
878.824	4938
878.951	4938
879.079	5105
879.206	5280
879.333	5083
879.461	4957
879.588	4980
879.715	5124
879.842	5216
879.97	4949
880.097	4782
880.224	4774
880.351	4797
880.478	4835
880.605	4767
880.732	4759
880.859	5075
880.986	4892
881.112	4885
881.239	4805
881.366	4622
881.493	4569
881.619	4546
881.746	4626
881.872	4630
881.999	4641
882.125	4660
882.252	4805
882.378	4812
882.505	4908
882.631	4805
882.757	4641
882.883	4744
883.01	4717
883.136	4664
883.262	4546
883.388	4588
883.514	4774
883.64	4828
883.766	4790
883.892	4637
884.018	4691
884.143	4828
884.269	5003
884.395	4645
884.52	4611
884.646	4592
884.772	4584
884.897	4561
885.023	4603
885.148	4778
885.274	4862
885.399	4816
885.524	4736
885.65	4641
885.775	4759
885.9	4706
886.025	4847
886.15	4740
886.275	4740
886.4	4664
886.525	4706
886.65	4717
886.775	4679
886.9	4896
887.025	5029
887.149	4809
887.274	4641
887.399	4577
887.523	4573
887.648	4569
887.773	4603
887.897	4702
888.021	4763
888.146	4626
888.27	4793
888.395	4911
888.519	4809
888.643	4831
888.767	4809
888.891	4691
889.015	4615
889.139	4649
889.263	4656
889.387	4755
889.511	4850
889.635	4774
889.759	4630
889.883	4660
890.006	4729
890.13	4854
890.254	4630
890.377	4687
890.501	4588
890.624	4512
890.748	4637
890.871	4542
890.995	4428
891.118	4455
891.241	4508
891.364	4565
891.488	4683
891.611	4516
891.734	4516
891.857	4679
891.98	4603
892.103	4668
892.226	4630
892.349	4523
892.471	4436
892.594	4607
892.717	4603
892.839	4611
892.962	4664
893.085	4664
893.207	4630
893.33	4508
893.452	4554
893.575	4721
893.697	4603
893.819	4870
893.941	4873
894.064	4858
894.186	4607
894.308	4558
894.43	4778
894.552	4892
894.674	4793
894.796	4565
894.918	4626
895.04	4656
895.161	4740
895.283	4694
895.405	4592
895.526	4725
895.648	4683
895.769	4740
895.891	4744
896.012	4790
896.134	4771
896.255	4653
896.376	4630
896.498	4653
896.619	4679
896.74	4645
896.861	4672
896.982	4976
897.103	5151
897.224	4866
897.345	4801
897.466	4694
897.587	4771
897.708	4881
897.828	4805
897.949	4710
898.07	4607
898.19	4649
898.311	4858
898.431	4721
898.552	4767
898.672	4835
898.792	4831
898.913	4721
899.033	4634
899.153	4500
899.273	4459
899.393	4500
899.513	4558
899.633	4558
899.753	4542
899.873	4531
899.993	4603
900.113	4580
900.232	4596
900.352	4573
900.472	4550
900.591	4386
900.711	4512
900.83	4459
900.95	4611
901.069	4736
901.189	4569
901.308	4405
901.427	4356
901.546	4443
901.665	4546
901.784	4577
901.904	4421
902.023	4356
902.141	4253
902.26	4223
902.379	4383
902.498	4249
902.617	4249
902.735	4402
902.854	4413
902.973	4386
903.091	4238
903.21	4246
903.328	4325
903.446	4322
903.565	4325
903.683	4360
903.801	4344
903.919	4443
904.038	4466
904.156	4337
904.274	4462
904.392	4436
904.51	4497
904.627	4489
904.745	4615
904.863	4645
904.981	4436
905.098	4318
905.216	4383
905.334	4474
905.451	4481
905.569	4443
905.686	4599
905.803	4592
905.921	4470
906.038	4603
906.155	4436
906.272	4409
906.389	4470
906.506	4409
906.623	4398
906.74	4402
906.857	4306
906.974	4402
907.091	4592
907.208	4675
907.324	4577
907.441	4481
907.557	4390
907.674	4379
907.79	4329
907.907	4421
908.023	4535
908.139	4489
908.256	4466
908.372	4489
908.488	4493
908.604	4402
908.72	4356
908.836	4428
908.952	4379
909.068	4443
909.184	4599
909.3	4504
909.415	4592
909.531	4596
909.647	4356
909.762	4421
909.878	4409
909.993	4455
910.108	4470
910.224	4447
910.339	4474
910.454	4424
910.57	4348
910.685	4363
910.8	4641
910.915	4596
911.03	4497
911.145	4394
911.259	4379
911.374	4428
911.489	4318
911.604	4295
911.718	4234
911.833	4268
911.947	4124
912.062	4086
912.176	4265
912.291	4322
912.405	4291
912.519	4527
912.633	4546
912.748	4394
912.862	4352
912.976	4299
913.09	4139
913.204	4215
913.318	4265
913.431	4417
913.545	4440
913.659	4443
913.772	4360
913.886	4253
914	4242
914.113	4398
914.226	4466
914.34	4428
914.453	4268
914.566	4405
914.68	4352
914.793	4363
914.906	4192
915.019	4181
915.132	4112
915.245	4169
915.358	4238
915.47	4284
915.583	4287
915.696	4352
915.809	4417
915.921	4485
916.034	4314
916.146	4227
916.259	4249
916.371	4421
916.483	4394
916.595	4268
916.708	4352
916.82	4356
916.932	4310
917.044	4356
917.156	4348
917.268	4238
917.38	4325
917.491	4291
917.603	4344
917.715	4466
917.826	4462
917.938	4379
918.049	4314
918.161	4424
918.272	4558
918.384	4558
918.495	4470
918.606	4325
918.717	4291
918.828	4413
918.939	4394
919.05	4299
919.161	4352
919.272	4166
919.383	4265
919.494	4474
919.604	4672
919.715	4447
919.826	4386
919.936	4424
920.047	4523
920.157	4493
920.267	4702
920.378	4584
920.488	4573
920.598	4748
920.708	4946
920.818	4748
920.928	4744
921.038	4949
921.148	4923
921.258	4599
921.368	4592
921.477	4531
921.587	4489
921.697	4398
921.806	4573
921.916	4436
922.025	4284
922.134	4265
922.244	4299
922.353	4390
922.462	4219
922.571	4143
922.68	4029
922.789	3979
922.898	4055
923.007	4040
923.116	4150
923.224	4029
923.333	4090
923.442	4010
923.55	3998
923.659	4051
923.767	4112
923.876	4010
923.984	4147
924.092	4029
924.201	4120
924.309	4147
924.417	4150
924.525	4055
924.633	4154
924.741	5060
924.849	3975
924.956	4166
925.064	3994
925.172	3941
925.279	3968
925.387	4048
925.494	4067
925.602	4238
925.709	4200
925.816	4109
925.924	4131
926.031	4215
926.138	4181
926.245	4238
926.352	4097
926.459	4306
926.566	4299
926.673	4177
926.779	4143
926.886	4135
926.993	3975
927.099	3975
927.206	3960
927.312	3979
927.419	4055
927.525	4017
927.631	4120
927.737	4010
927.843	3941
927.95	3869
928.056	4002
928.162	3998
928.267	4086
928.373	4656
928.479	4181
928.585	3896
928.69	4074
928.796	4101
928.901	3998
929.007	3880
929.112	3960
929.218	4025
929.323	4017
929.428	3975
929.533	4128
929.638	3903
929.743	4002
929.848	4040
929.953	4021
930.058	3934
930.163	3842
930.267	3869
930.372	4017
930.477	3819
930.581	4120
930.685	3949
930.79	3812
930.894	3892
930.998	3861
931.103	4025
931.207	3743
931.311	3736
931.415	3701
931.519	3538
931.623	3557
