Data from test_V78500241_1857.txt Node
Date: Fri Mar 25 17:01:54 CST 2022
User: usil
Spectrometer: V785-0024
Trigger mode: 0
Integration Time (sec): 4.000000E-1
Scans to average: 1
Nonlinearity correction enabled: false
Boxcar width: 0
Storing dark spectrum: false
XAxis mode: Wavelengths
Number of Pixels in Spectrum: 1024
>>>>>Begin Spectral Data<<<<<
801.071	8008
801.214	7967
801.356	7860
801.499	7795
801.641	7852
801.783	7811
801.926	7967
802.068	8005
802.211	7986
802.353	7940
802.496	7875
802.638	7852
802.78	7868
802.923	7894
803.065	7883
803.208	7894
803.35	7944
803.492	8096
803.635	8161
803.777	8001
803.919	8157
804.061	8442
804.204	8256
804.346	8073
804.488	8024
804.63	8077
804.773	8020
804.915	8126
805.057	8290
805.199	8161
805.341	8279
805.483	8210
805.626	8138
805.768	8168
805.91	8199
806.052	8221
806.194	8180
806.336	8244
806.478	8100
806.62	8050
806.762	8172
806.904	8286
807.046	8465
807.188	8385
807.33	8305
807.472	8324
807.614	8126
807.756	8199
807.898	8062
808.04	7852
808.182	7879
808.324	7864
808.465	7936
808.607	8084
808.749	8084
808.891	8180
809.033	8305
809.174	8229
809.316	8119
809.458	8096
809.6	8062
809.741	8134
809.883	8039
810.025	8134
810.166	8065
810.308	8020
810.45	7997
810.591	7890
810.733	7708
810.875	7597
811.016	7468
811.158	7445
811.299	7567
811.441	7731
811.582	7696
811.724	7540
811.865	7525
812.007	7518
812.148	7601
812.29	7552
812.431	7734
812.573	7871
812.714	7936
812.855	8107
812.997	8229
813.138	8374
813.279	8195
813.421	8058
813.562	7925
813.703	7856
813.845	7643
813.986	7407
814.127	7232
814.268	7213
814.41	7251
814.551	7217
814.692	7247
814.833	7114
814.974	7095
815.115	7103
815.256	6954
815.397	6939
815.539	6954
815.68	6795
815.821	6741
815.962	6833
816.103	6806
816.244	6684
816.385	6612
816.526	6608
816.666	6467
816.807	6338
816.948	6403
817.089	6467
817.23	6388
817.371	6334
817.512	6346
817.653	6376
817.793	6376
817.934	6361
818.075	6433
818.216	6445
818.356	6441
818.497	6220
818.638	6072
818.778	6136
818.919	6148
819.06	6136
819.2	6296
819.341	6254
819.481	6342
819.622	6544
819.762	6749
819.903	6700
820.043	6521
820.184	6513
820.324	6555
820.465	6677
820.605	6650
820.746	6631
820.886	6506
821.026	6673
821.167	6662
821.307	6738
821.447	6776
821.588	6616
821.728	6585
821.868	6528
822.008	6365
822.149	6361
822.289	6357
822.429	6163
822.569	6091
822.709	6106
822.849	5946
822.99	5931
823.13	5969
823.27	5912
823.41	5752
823.55	5790
823.69	5764
823.83	5786
823.97	5665
824.11	5535
824.25	5528
824.389	5512
824.529	5551
824.669	5493
824.809	5562
824.949	5619
825.089	5619
825.228	5516
825.368	5391
825.508	5334
825.648	5330
825.787	5417
825.927	5433
826.067	5307
826.206	5299
826.346	5410
826.485	5379
826.625	5398
826.765	5463
826.904	5455
827.044	5254
827.183	5140
827.323	5170
827.462	5254
827.601	5117
827.741	5185
827.88	5239
828.02	5140
828.159	5178
828.298	5193
828.437	5391
828.577	5307
828.716	5528
828.855	5322
828.994	5185
829.134	5181
829.273	5216
829.412	5113
829.551	5147
829.69	5212
829.829	5280
829.968	5395
830.107	5265
830.246	5277
830.385	5170
830.524	5117
830.663	5086
830.802	4995
830.941	4877
831.08	4866
831.219	5025
831.357	4984
831.496	5185
831.635	4934
831.774	4843
831.913	4850
832.051	4771
832.19	4725
832.329	4835
832.467	4687
832.606	4630
832.744	4740
832.883	4725
833.022	4736
833.16	4763
833.299	4790
833.437	4759
833.576	4778
833.714	4839
833.852	4862
833.991	4892
834.129	4915
834.267	4930
834.406	4938
834.544	4968
834.682	4934
834.821	4972
834.959	5124
835.097	4984
835.235	5166
835.373	5079
835.511	5064
835.65	5067
835.788	4995
835.926	4900
836.064	4889
836.202	4957
836.34	5174
836.478	5178
836.615	5128
836.753	5208
836.891	5273
837.029	5254
837.167	5140
837.305	5124
837.443	5117
837.58	5132
837.718	5235
837.856	5201
837.993	5117
838.131	5174
838.269	5204
838.406	5216
838.544	5178
838.681	5006
838.819	4976
838.956	4885
839.094	4911
839.231	4999
839.369	5136
839.506	5410
839.643	5284
839.781	5064
839.918	4984
840.055	5109
840.193	5102
840.33	5048
840.467	5094
840.604	5140
840.742	5448
840.879	5045
841.016	5067
841.153	5124
841.29	5376
841.427	5326
841.564	5322
841.701	5345
841.838	5231
841.975	5269
842.112	5246
842.249	5121
842.385	5117
842.522	5296
842.659	5197
842.796	5140
842.933	5170
843.069	5143
843.206	5105
843.343	5269
843.479	5231
843.616	5265
843.752	5033
843.889	5022
844.025	5174
844.162	5010
844.298	5220
844.435	5113
844.571	5045
844.708	5204
844.844	5296
844.98	5311
845.117	5330
845.253	5189
845.389	5075
845.525	5094
845.661	5159
845.798	5037
845.934	5121
846.07	5075
846.206	5235
846.342	5303
846.478	5201
846.614	4980
846.75	4999
846.886	4949
847.022	5109
847.158	5079
847.294	5083
847.429	5109
847.565	5071
847.701	5288
847.837	4850
847.972	4812
848.108	4949
848.244	4927
848.379	4774
848.515	4774
848.65	4710
848.786	4729
848.921	4736
849.057	4805
849.192	4904
849.328	4820
849.463	4828
849.598	4828
849.734	4744
849.869	4687
850.004	4634
850.14	4641
850.275	4611
850.41	4519
850.545	4558
850.68	4645
850.815	4603
850.95	4634
851.085	4831
851.22	4698
851.355	4714
851.49	4577
851.625	4630
851.76	4660
851.895	4546
852.03	4523
852.165	4683
852.299	4634
852.434	4740
852.569	4721
852.703	4801
852.838	4786
852.973	4908
853.107	4896
853.242	4702
853.376	4660
853.511	4565
853.645	4622
853.78	4763
853.914	4683
854.048	4664
854.183	4634
854.317	4702
854.451	4797
854.585	4630
854.72	4637
854.854	4774
854.988	4626
855.122	4618
855.256	4542
855.39	4622
855.524	4790
855.658	4717
855.792	4687
855.926	4691
856.06	4778
856.194	4809
856.327	4649
856.461	4588
856.595	4542
856.729	4603
856.862	4748
856.996	4649
857.13	4744
857.263	4763
857.397	4767
857.53	4653
857.664	4721
857.797	4706
857.931	4774
858.064	4672
858.197	4733
858.331	4615
858.464	4580
858.597	4523
858.731	4630
858.864	4611
858.997	4588
859.13	4637
859.263	4656
859.396	4672
859.529	4588
859.662	4538
859.795	4542
859.928	4630
860.061	4755
860.194	4721
860.327	4569
860.46	4584
860.592	4706
860.725	4717
860.858	4729
860.99	4580
861.123	4485
861.256	4531
861.388	4565
861.521	5379
861.653	4466
861.786	4432
861.918	4436
862.05	4493
862.183	4561
862.315	4656
862.447	4615
862.58	4546
862.712	4405
862.844	4348
862.976	4466
863.108	4447
863.24	4885
863.372	4325
863.504	4417
863.636	4386
863.768	4462
863.9	4436
864.032	4352
864.164	4417
864.296	4451
864.428	4481
864.559	4504
864.691	4481
864.823	4500
864.954	4478
865.086	4508
865.217	4409
865.349	4432
865.48	4447
865.612	4516
865.743	4668
865.875	4497
866.006	4443
866.137	4424
866.269	4440
866.4	4443
866.531	4417
866.662	4386
866.793	4417
866.924	4424
867.055	4478
867.186	4443
867.317	4375
867.448	4367
867.579	4413
867.71	4402
867.841	4394
867.972	4470
868.103	4440
868.233	4436
868.364	4386
868.495	4470
868.625	4611
868.756	4767
868.886	4580
869.017	4603
869.147	4748
869.278	4782
869.408	4637
869.539	4645
869.669	4641
869.799	4664
869.929	4744
870.06	4744
870.19	4968
870.32	4904
870.45	4946
870.58	4987
870.71	5041
870.84	5060
870.97	4881
871.1	4908
871.23	5140
871.36	5124
871.489	5006
871.619	5079
871.749	5048
871.879	5128
872.008	5162
872.138	5037
872.267	4980
872.397	4790
872.526	4782
872.656	4733
872.785	4786
872.915	4961
873.044	5014
873.173	4930
873.303	4938
873.432	4930
873.561	4927
873.69	4900
873.819	4850
873.948	4949
874.077	4839
874.206	4755
874.335	4759
874.464	4927
874.593	5037
874.722	4892
874.851	5052
874.979	5041
875.108	5029
875.237	4919
875.365	4850
875.494	4805
875.623	4961
875.751	4831
875.88	4866
876.008	4965
876.136	5022
876.265	5227
876.393	5334
876.521	5322
876.65	5197
876.778	5193
876.906	5048
877.034	5025
877.162	4984
877.29	5018
877.418	5025
877.546	5033
877.674	5075
877.802	5045
877.93	4976
878.058	4927
878.185	4877
878.313	4976
878.441	4904
878.568	4805
878.696	4858
878.824	4896
878.951	5010
879.079	5128
879.206	5288
879.333	5060
879.461	5006
879.588	4965
879.715	5105
879.842	5162
879.97	5022
880.097	4797
880.224	4725
880.351	4835
880.478	4786
880.605	4816
880.732	4771
880.859	5033
880.986	4870
881.112	4877
881.239	4816
881.366	4649
881.493	4577
881.619	4599
881.746	4656
881.872	4634
881.999	4599
882.125	4679
882.252	4801
882.378	4831
882.505	4961
882.631	4793
882.757	4664
882.883	4717
883.01	4717
883.136	4694
883.262	4584
883.388	4596
883.514	4850
883.64	4862
883.766	4797
883.892	4675
884.018	4725
884.143	4908
884.269	4991
884.395	4687
884.52	4596
884.646	4679
884.772	4550
884.897	4527
885.023	4691
885.148	4786
885.274	4873
885.399	4812
885.524	4714
885.65	4698
885.775	4740
885.9	4714
886.025	4892
886.15	4782
886.275	4725
886.4	4668
886.525	4774
886.65	4675
886.775	4729
886.9	4866
887.025	4995
887.149	4774
887.274	4645
887.399	4611
887.523	4630
887.648	4569
887.773	4584
887.897	4759
888.021	4793
888.146	4645
888.27	4767
888.395	4873
888.519	4740
888.643	4839
888.767	4774
888.891	4691
889.015	4569
889.139	4649
889.263	4615
889.387	4755
889.511	4805
889.635	4767
889.759	4622
889.883	4626
890.006	4778
890.13	4816
890.254	4622
890.377	4672
890.501	4523
890.624	4497
890.748	4634
890.871	4508
890.995	4390
891.118	4367
891.241	4459
891.364	4554
891.488	4653
891.611	4527
891.734	4516
891.857	4588
891.98	4550
892.103	4634
892.226	4618
892.349	4523
892.471	4432
892.594	4554
892.717	4565
892.839	4573
892.962	4588
893.085	4664
893.207	4584
893.33	4462
893.452	4516
893.575	4675
893.697	4558
893.819	4763
893.941	4831
894.064	4759
894.186	4584
894.308	4580
894.43	4729
894.552	4797
894.674	4733
894.796	4630
894.918	4580
895.04	4584
895.161	4733
895.283	4691
895.405	4554
895.526	4607
895.648	4706
895.769	4656
895.891	4668
896.012	4694
896.134	4683
896.255	4687
896.376	4653
896.498	4580
896.619	4706
896.74	4615
896.861	4637
896.982	4866
897.103	5105
897.224	4847
897.345	4767
897.466	4687
897.587	4698
897.708	4877
897.828	4790
897.949	4672
898.07	4573
898.19	4618
898.311	4812
898.431	4702
898.552	4714
898.672	4801
898.792	4847
898.913	4736
899.033	4637
899.153	4455
899.273	4421
899.393	4512
899.513	4470
899.633	4542
899.753	4481
899.873	4565
899.993	4535
900.113	4519
900.232	4615
900.352	4577
900.472	4474
900.591	4474
900.711	4504
900.83	4424
900.95	4615
901.069	4675
901.189	4558
901.308	4344
901.427	4344
901.546	4356
901.665	4474
901.784	4512
901.904	4432
902.023	4303
902.141	4173
902.26	4181
902.379	4325
902.498	4257
902.617	4238
902.735	4360
902.854	4402
902.973	4363
903.091	4211
903.21	4215
903.328	4310
903.446	4253
903.565	4261
903.683	4344
903.801	4257
903.919	4405
904.038	4394
904.156	4261
904.274	4432
904.392	4386
904.51	4436
904.627	4451
904.745	4565
904.863	4656
904.981	4375
905.098	4268
905.216	4344
905.334	4413
905.451	4451
905.569	4440
905.686	4554
905.803	4535
905.921	4455
906.038	4531
906.155	4493
906.272	4375
906.389	4409
906.506	4379
906.623	4386
906.74	4383
906.857	4291
906.974	4352
907.091	4550
907.208	4725
907.324	4573
907.441	4485
907.557	4360
907.674	4356
907.79	4337
907.907	4337
908.023	4478
908.139	4447
908.256	4428
908.372	4447
908.488	4413
908.604	4306
908.72	4356
908.836	4344
908.952	4390
909.068	4402
909.184	4569
909.3	4459
909.415	4580
909.531	4611
909.647	4360
909.762	4424
909.878	4356
909.993	4428
910.108	4436
910.224	4375
910.339	4478
910.454	4413
910.57	4348
910.685	4333
910.8	4637
910.915	4592
911.03	4500
911.145	4284
911.259	4333
911.374	4390
911.489	4329
911.604	4265
911.718	4166
911.833	4219
911.947	4105
912.062	4036
912.176	4227
912.291	4249
912.405	4249
912.519	4459
912.633	4554
912.748	4421
912.862	4322
912.976	4200
913.09	4090
913.204	4124
913.318	4242
913.431	4371
913.545	4390
913.659	4428
913.772	4318
913.886	4238
914	4242
914.113	4371
914.226	4421
914.34	4394
914.453	4181
914.566	4424
914.68	4287
914.793	4322
914.906	4143
915.019	4093
915.132	4093
915.245	4196
915.358	4204
915.47	4234
915.583	4306
915.696	4280
915.809	4443
915.921	4455
916.034	4238
916.146	4249
916.259	4211
916.371	4352
916.483	4318
916.595	4242
916.708	4325
916.82	4325
916.932	4318
917.044	4348
917.156	4344
917.268	4253
917.38	4291
917.491	4272
917.603	4398
917.715	4402
917.826	4413
917.938	4348
918.049	4253
918.161	4379
918.272	4508
918.384	4546
918.495	4409
918.606	4265
918.717	4272
918.828	4337
918.939	4367
919.05	4242
919.161	4322
919.272	4162
919.383	4253
919.494	4405
919.604	4577
919.715	4440
919.826	4356
919.936	4421
920.047	4519
920.157	4455
920.267	4702
920.378	4599
920.488	4462
920.598	4698
920.708	4873
920.818	4763
920.928	4778
921.038	4976
921.148	4927
921.258	4618
921.368	4641
921.477	4497
921.587	4459
921.697	4352
921.806	4580
921.916	4428
922.025	4265
922.134	4265
922.244	4238
922.353	4291
922.462	4230
922.571	4131
922.68	3991
922.789	3998
922.898	4006
923.007	3991
923.116	4147
923.224	4059
923.333	4071
923.442	3994
923.55	3994
923.659	4051
923.767	4078
923.876	3998
923.984	4128
924.092	4025
924.201	4082
924.309	4101
924.417	4097
924.525	4036
924.633	4124
924.741	5041
924.849	3918
924.956	4120
925.064	4036
925.172	3903
925.279	3945
925.387	4067
925.494	4055
925.602	4166
925.709	4128
925.816	4040
925.924	4150
926.031	4223
926.138	4204
926.245	4223
926.352	4112
926.459	4223
926.566	4314
926.673	4162
926.779	4044
926.886	4067
926.993	3960
927.099	3949
927.206	3945
927.312	3911
927.419	4048
927.525	4010
927.631	4093
927.737	3956
927.843	3964
927.95	3812
928.056	3926
928.162	4010
928.267	4109
928.373	4569
928.479	4078
928.585	3854
928.69	4032
928.796	4055
928.901	3903
929.007	3846
929.112	3975
929.218	3991
929.323	3937
929.428	3911
929.533	4101
929.638	3854
929.743	3953
929.848	4074
929.953	3979
930.058	3903
930.163	3789
930.267	3812
930.372	3953
930.477	3762
930.581	4101
930.685	3960
930.79	3808
930.894	3880
930.998	3857
931.103	3998
931.207	3717
931.311	3690
931.415	3705
931.519	3534
931.623	3526
