Data from test_V78500241_708.txt Node
Date: Fri Mar 25 16:53:55 CST 2022
User: usil
Spectrometer: V785-0024
Trigger mode: 0
Integration Time (sec): 4.000000E-1
Scans to average: 1
Nonlinearity correction enabled: false
Boxcar width: 0
Storing dark spectrum: false
XAxis mode: Wavelengths
Number of Pixels in Spectrum: 1024
>>>>>Begin Spectral Data<<<<<
801.071	8058
801.214	8012
801.356	7887
801.499	7928
801.641	7830
801.783	7883
801.926	7967
802.068	7936
802.211	7967
802.353	7989
802.496	7871
802.638	7970
802.78	7970
802.923	7849
803.065	7822
803.208	7883
803.35	7989
803.492	8168
803.635	8180
803.777	7997
803.919	8100
804.061	8396
804.204	8164
804.346	8054
804.488	7917
804.63	8084
804.773	8016
804.915	8058
805.057	8267
805.199	8153
805.341	8248
805.483	8290
805.626	8202
805.768	8142
805.91	8252
806.052	8172
806.194	8142
806.336	8317
806.478	8043
806.62	8088
806.762	8142
806.904	8294
807.046	8381
807.188	8358
807.33	8290
807.472	8366
807.614	8157
807.756	8126
807.898	7932
808.04	7928
808.182	7936
808.324	7928
808.465	7963
808.607	8058
808.749	8046
808.891	8229
809.033	8301
809.174	8161
809.316	8088
809.458	8073
809.6	8062
809.741	7978
809.883	8005
810.025	8065
810.166	8065
810.308	8008
810.45	8062
810.591	7890
810.733	7757
810.875	7685
811.016	7548
811.158	7533
811.299	7597
811.441	7723
811.582	7746
811.724	7590
811.865	7544
812.007	7552
812.148	7552
812.29	7620
812.431	7685
812.573	7871
812.714	7970
812.855	8111
812.997	8180
813.138	8336
813.279	8180
813.421	8153
813.562	8035
813.703	7864
813.845	7788
813.986	7472
814.127	7247
814.268	7282
814.41	7190
814.551	7171
814.692	7194
814.833	7015
814.974	7099
815.115	7061
815.256	7034
815.397	6924
815.539	6935
815.68	6856
815.821	6806
815.962	6875
816.103	6802
816.244	6715
816.385	6635
816.526	6669
816.666	6475
816.807	6277
816.948	6464
817.089	6460
817.23	6441
817.371	6350
817.512	6353
817.653	6376
817.793	6391
817.934	6433
818.075	6467
818.216	6399
818.356	6380
818.497	6235
818.638	6060
818.778	6167
818.919	6125
819.06	6106
819.2	6292
819.341	6338
819.481	6384
819.622	6525
819.762	6719
819.903	6684
820.043	6578
820.184	6555
820.324	6566
820.465	6684
820.605	6631
820.746	6544
820.886	6502
821.026	6654
821.167	6734
821.307	6779
821.447	6779
821.588	6658
821.728	6490
821.868	6464
822.008	6353
822.149	6369
822.289	6289
822.429	6144
822.569	6087
822.709	6095
822.849	5866
822.99	5901
823.13	5950
823.27	5950
823.41	5779
823.55	5783
823.69	5836
823.83	5805
823.97	5608
824.11	5524
824.25	5562
824.389	5539
824.529	5570
824.669	5474
824.809	5608
824.949	5684
825.089	5577
825.228	5520
825.368	5357
825.508	5330
825.648	5311
825.787	5395
825.927	5387
826.067	5288
826.206	5353
826.346	5357
826.485	5391
826.625	5395
826.765	5581
826.904	5471
827.044	5261
827.183	5189
827.323	5136
827.462	5220
827.601	5178
827.741	5201
827.88	5189
828.02	5094
828.159	5235
828.298	5303
828.437	5379
828.577	5265
828.716	5501
828.855	5311
828.994	5189
829.134	5083
829.273	5185
829.412	5147
829.551	5121
829.69	5201
829.829	5239
829.968	5387
830.107	5277
830.246	5261
830.385	5174
830.524	5166
830.663	5109
830.802	5041
830.941	4831
831.08	4854
831.219	5003
831.357	4984
831.496	5143
831.635	4946
831.774	4831
831.913	4847
832.051	4740
832.19	4778
832.329	4831
832.467	4679
832.606	4649
832.744	4721
832.883	4748
833.022	4710
833.16	4786
833.299	4835
833.437	4843
833.576	4828
833.714	4858
833.852	4885
833.991	4900
834.129	4934
834.267	4927
834.406	4949
834.544	4911
834.682	4995
834.821	4968
834.959	5124
835.097	5006
835.235	5159
835.373	5060
835.511	5143
835.65	5022
835.788	5006
835.926	4949
836.064	4831
836.202	4930
836.34	5155
836.478	5239
836.615	5113
836.753	5227
836.891	5296
837.029	5242
837.167	5250
837.305	5162
837.443	5159
837.58	5121
837.718	5288
837.856	5208
837.993	5166
838.131	5235
838.269	5204
838.406	5185
838.544	5162
838.681	5086
838.819	5029
838.956	4930
839.094	4885
839.231	4972
839.369	5094
839.506	5387
839.643	5223
839.781	5102
839.918	5075
840.055	5090
840.193	5071
840.33	5159
840.467	5170
840.604	5204
840.742	5417
840.879	5105
841.016	5109
841.153	5136
841.29	5368
841.427	5303
841.564	5296
841.701	5307
841.838	5216
841.975	5201
842.112	5269
842.249	5136
842.385	5159
842.522	5379
842.659	5166
842.796	5102
842.933	5174
843.069	5170
843.206	5136
843.343	5299
843.479	5223
843.616	5254
843.752	5083
843.889	4976
844.025	5181
844.162	4991
844.298	5223
844.435	5052
844.571	5075
844.708	5204
844.844	5284
844.98	5334
845.117	5299
845.253	5143
845.389	5109
845.525	5178
845.661	5113
845.798	5003
845.934	5136
846.07	5060
846.206	5147
846.342	5261
846.478	5170
846.614	5018
846.75	5003
846.886	4938
847.022	5193
847.158	5022
847.294	5086
847.429	5090
847.565	5064
847.701	5345
847.837	4828
847.972	4843
848.108	4991
848.244	4930
848.379	4755
848.515	4679
848.65	4714
848.786	4733
848.921	4744
849.057	4881
849.192	4934
849.328	4812
849.463	4820
849.598	4828
849.734	4710
849.869	4675
850.004	4622
850.14	4630
850.275	4603
850.41	4508
850.545	4588
850.68	4622
850.815	4656
850.95	4626
851.085	4801
851.22	4767
851.355	4664
851.49	4607
851.625	4592
851.76	4630
851.895	4558
852.03	4500
852.165	4660
852.299	4691
852.434	4771
852.569	4702
852.703	4812
852.838	4892
852.973	4923
853.107	4968
853.242	4725
853.376	4653
853.511	4554
853.645	4592
853.78	4812
853.914	4710
854.048	4706
854.183	4668
854.317	4691
854.451	4809
854.585	4611
854.72	4664
854.854	4763
854.988	4615
855.122	4653
855.256	4554
855.39	4641
855.524	4767
855.658	4729
855.792	4714
855.926	4755
856.06	4797
856.194	4797
856.327	4649
856.461	4641
856.595	4630
856.729	4611
856.862	4706
856.996	4679
857.13	4672
857.263	4755
857.397	4790
857.53	4679
857.664	4714
857.797	4698
857.931	4763
858.064	4687
858.197	4729
858.331	4641
858.464	4592
858.597	4546
858.731	4645
858.864	4596
858.997	4611
859.13	4634
859.263	4656
859.396	4668
859.529	4607
859.662	4573
859.795	4527
859.928	4634
860.061	4736
860.194	4790
860.327	4580
860.46	4512
860.592	4656
860.725	4691
860.858	4740
860.99	4603
861.123	4478
861.256	4485
861.388	4573
861.521	5391
861.653	4478
861.786	4451
861.918	4428
862.05	4546
862.183	4512
862.315	4618
862.447	4634
862.58	4573
862.712	4394
862.844	4291
862.976	4489
863.108	4455
863.24	4862
863.372	4303
863.504	4421
863.636	4390
863.768	4474
863.9	4443
864.032	4341
864.164	4386
864.296	4500
864.428	4485
864.559	4523
864.691	4523
864.823	4512
864.954	4481
865.086	4504
865.217	4474
865.349	4470
865.48	4459
865.612	4474
865.743	4626
865.875	4466
866.006	4424
866.137	4436
866.269	4470
866.4	4432
866.531	4447
866.662	4394
866.793	4428
866.924	4443
867.055	4485
867.186	4504
867.317	4436
867.448	4333
867.579	4409
867.71	4398
867.841	4352
867.972	4447
868.103	4481
868.233	4466
868.364	4443
868.495	4455
868.625	4683
868.756	4725
868.886	4592
869.017	4634
869.147	4782
869.278	4774
869.408	4710
869.539	4622
869.669	4725
869.799	4683
869.929	4755
870.06	4714
870.19	4904
870.32	4927
870.45	4957
870.58	5029
870.71	5086
870.84	5109
870.97	4885
871.1	4873
871.23	5117
871.36	5102
871.489	5060
871.619	5086
871.749	5109
871.879	5098
872.008	5181
872.138	5071
872.267	4980
872.397	4835
872.526	4786
872.656	4717
872.785	4782
872.915	4930
873.044	5003
873.173	4949
873.303	4961
873.432	4934
873.561	4961
873.69	4885
873.819	4816
873.948	4934
874.077	4771
874.206	4729
874.335	4835
874.464	4896
874.593	5071
874.722	4942
874.851	5071
874.979	5064
875.108	5090
875.237	4942
875.365	4896
875.494	4877
875.623	4972
875.751	4816
875.88	4877
876.008	4961
876.136	5033
876.265	5239
876.393	5345
876.521	5284
876.65	5189
876.778	5109
876.906	5037
877.034	4968
877.162	4999
877.29	4984
877.418	5022
877.546	5067
877.674	5083
877.802	5003
877.93	5018
878.058	4961
878.185	4885
878.313	4949
878.441	4927
878.568	4782
878.696	4843
878.824	4980
878.951	4999
879.079	5121
879.206	5284
879.333	5124
879.461	4980
879.588	5056
879.715	5060
879.842	5201
879.97	5003
880.097	4812
880.224	4698
880.351	4736
880.478	4843
880.605	4816
880.732	4763
880.859	5075
880.986	4873
881.112	4927
881.239	4797
881.366	4683
881.493	4569
881.619	4573
881.746	4603
881.872	4687
881.999	4645
882.125	4660
882.252	4839
882.378	4786
882.505	4919
882.631	4797
882.757	4630
882.883	4736
883.01	4740
883.136	4664
883.262	4626
883.388	4596
883.514	4786
883.64	4801
883.766	4782
883.892	4622
884.018	4782
884.143	4919
884.269	4987
884.395	4672
884.52	4607
884.646	4649
884.772	4603
884.897	4599
885.023	4649
885.148	4786
885.274	4831
885.399	4759
885.524	4755
885.65	4687
885.775	4717
885.9	4687
886.025	4824
886.15	4748
886.275	4744
886.4	4634
886.525	4736
886.65	4706
886.775	4698
886.9	4881
887.025	5071
887.149	4801
887.274	4660
887.399	4561
887.523	4611
887.648	4596
887.773	4580
887.897	4763
888.021	4793
888.146	4702
888.27	4816
888.395	4889
888.519	4812
888.643	4771
888.767	4790
888.891	4683
889.015	4592
889.139	4706
889.263	4649
889.387	4736
889.511	4828
889.635	4782
889.759	4615
889.883	4649
890.006	4714
890.13	4816
890.254	4615
890.377	4687
890.501	4580
890.624	4554
890.748	4599
890.871	4493
890.995	4409
891.118	4436
891.241	4554
891.364	4466
891.488	4622
891.611	4504
891.734	4519
891.857	4569
891.98	4523
892.103	4626
892.226	4580
892.349	4508
892.471	4428
892.594	4542
892.717	4573
892.839	4531
892.962	4577
893.085	4607
893.207	4615
893.33	4443
893.452	4493
893.575	4683
893.697	4599
893.819	4793
893.941	4839
894.064	4782
894.186	4569
894.308	4565
894.43	4733
894.552	4809
894.674	4710
894.796	4535
894.918	4607
895.04	4596
895.161	4710
895.283	4660
895.405	4561
895.526	4656
895.648	4706
895.769	4706
895.891	4774
896.012	4752
896.134	4714
896.255	4683
896.376	4615
896.498	4596
896.619	4675
896.74	4580
896.861	4630
896.982	4919
897.103	5083
897.224	4805
897.345	4740
897.466	4668
897.587	4706
897.708	4892
897.828	4771
897.949	4649
898.07	4580
898.19	4615
898.311	4839
898.431	4607
898.552	4763
898.672	4843
898.792	4843
898.913	4763
899.033	4630
899.153	4535
899.273	4417
899.393	4474
899.513	4500
899.633	4497
899.753	4535
899.873	4489
899.993	4580
900.113	4519
900.232	4561
900.352	4542
900.472	4470
900.591	4405
900.711	4519
900.83	4394
900.95	4565
901.069	4653
901.189	4527
901.308	4413
901.427	4280
901.546	4363
901.665	4436
901.784	4481
901.904	4386
902.023	4303
902.141	4181
902.26	4128
902.379	4318
902.498	4200
902.617	4257
902.735	4379
902.854	4360
902.973	4306
903.091	4207
903.21	4204
903.328	4272
903.446	4253
903.565	4234
903.683	4383
903.801	4284
903.919	4341
904.038	4432
904.156	4325
904.274	4451
904.392	4375
904.51	4405
904.627	4436
904.745	4565
904.863	4668
904.981	4409
905.098	4322
905.216	4398
905.334	4459
905.451	4383
905.569	4432
905.686	4569
905.803	4584
905.921	4383
906.038	4603
906.155	4455
906.272	4421
906.389	4489
906.506	4398
906.623	4363
906.74	4386
906.857	4257
906.974	4356
907.091	4527
907.208	4630
907.324	4558
907.441	4535
907.557	4352
907.674	4348
907.79	4295
907.907	4371
908.023	4474
908.139	4485
908.256	4451
908.372	4443
908.488	4500
908.604	4329
908.72	4280
908.836	4379
908.952	4337
909.068	4432
909.184	4580
909.3	4500
909.415	4565
909.531	4580
909.647	4348
909.762	4379
909.878	4371
909.993	4436
910.108	4367
910.224	4459
910.339	4440
910.454	4371
910.57	4375
910.685	4272
910.8	4656
910.915	4561
911.03	4493
911.145	4306
911.259	4371
911.374	4383
911.489	4306
911.604	4291
911.718	4150
911.833	4154
911.947	4059
912.062	4029
912.176	4207
912.291	4242
912.405	4280
912.519	4440
912.633	4535
912.748	4394
912.862	4287
912.976	4200
913.09	4109
913.204	4185
913.318	4272
913.431	4386
913.545	4360
913.659	4383
913.772	4337
913.886	4249
914	4261
914.113	4409
914.226	4409
914.34	4363
914.453	4253
914.566	4405
914.68	4284
914.793	4356
914.906	4135
915.019	4093
915.132	4071
915.245	4207
915.358	4173
915.47	4257
915.583	4249
915.696	4314
915.809	4413
915.921	4394
916.034	4238
916.146	4257
916.259	4257
916.371	4383
916.483	4329
916.595	4276
916.708	4329
916.82	4367
916.932	4276
917.044	4276
917.156	4276
917.268	4227
917.38	4318
917.491	4261
917.603	4348
917.715	4440
917.826	4428
917.938	4299
918.049	4272
918.161	4390
918.272	4538
918.384	4527
918.495	4436
918.606	4295
918.717	4253
918.828	4318
918.939	4379
919.05	4280
919.161	4295
919.272	4135
919.383	4242
919.494	4455
919.604	4641
919.715	4459
919.826	4367
919.936	4432
920.047	4512
920.157	4394
920.267	4649
920.378	4565
920.488	4489
920.598	4763
920.708	4877
920.818	4793
920.928	4767
921.038	4946
921.148	4877
921.258	4630
921.368	4573
921.477	4512
921.587	4489
921.697	4352
921.806	4489
921.916	4405
922.025	4299
922.134	4287
922.244	4227
922.353	4356
922.462	4181
922.571	4116
922.68	3983
922.789	3979
922.898	4044
923.007	3968
923.116	4086
923.224	4071
923.333	4063
923.442	3994
923.55	3983
923.659	4032
923.767	4120
923.876	3998
923.984	4055
924.092	3953
924.201	4082
924.309	4093
924.417	4093
924.525	4082
924.633	4029
924.741	5067
924.849	3884
924.956	4090
925.064	3991
925.172	3937
925.279	3960
925.387	4086
925.494	4063
925.602	4188
925.709	4192
925.816	4032
925.924	4120
926.031	4204
926.138	4166
926.245	4166
926.352	4131
926.459	4253
926.566	4303
926.673	4173
926.779	4086
926.886	4067
926.993	3983
927.099	3956
927.206	3937
927.312	3964
927.419	4071
927.525	4002
927.631	4090
927.737	3956
927.843	3941
927.95	3804
928.056	3934
928.162	3972
928.267	4074
928.373	4626
928.479	4158
928.585	3838
928.69	3998
928.796	4074
928.901	3991
929.007	3896
929.112	4013
929.218	4010
929.323	3922
929.428	3956
929.533	4116
929.638	3865
929.743	3975
929.848	4071
929.953	3998
930.058	3949
930.163	3774
930.267	3876
930.372	3994
930.477	3816
930.581	4112
930.685	3960
930.79	3827
930.894	3899
930.998	3850
931.103	4040
931.207	3720
931.311	3694
931.415	3637
931.519	3538
931.623	3580
