Data from test_V78500241_1248.txt Node
Date: Fri Mar 25 16:57:40 CST 2022
User: usil
Spectrometer: V785-0024
Trigger mode: 0
Integration Time (sec): 4.000000E-1
Scans to average: 1
Nonlinearity correction enabled: false
Boxcar width: 0
Storing dark spectrum: false
XAxis mode: Wavelengths
Number of Pixels in Spectrum: 1024
>>>>>Begin Spectral Data<<<<<
801.071	8012
801.214	7951
801.356	7837
801.499	7833
801.641	7788
801.783	7776
801.926	7970
802.068	7879
802.211	7974
802.353	7947
802.496	7814
802.638	7837
802.78	7970
802.923	8001
803.065	7864
803.208	7928
803.35	7898
803.492	8062
803.635	8119
803.777	7955
803.919	8138
804.061	8492
804.204	8115
804.346	8100
804.488	7909
804.63	8081
804.773	7955
804.915	8065
805.057	8309
805.199	8218
805.341	8202
805.483	8218
805.626	8206
805.768	8073
805.91	8252
806.052	8149
806.194	8134
806.336	8191
806.478	8039
806.62	8043
806.762	8103
806.904	8248
807.046	8507
807.188	8339
807.33	8267
807.472	8294
807.614	8153
807.756	8123
807.898	8035
808.04	7921
808.182	7913
808.324	7780
808.465	7917
808.607	8043
808.749	8119
808.891	8199
809.033	8233
809.174	8191
809.316	8065
809.458	8020
809.6	7879
809.741	7959
809.883	8024
810.025	8016
810.166	8005
810.308	7959
810.45	7944
810.591	7921
810.733	7696
810.875	7571
811.016	7506
811.158	7480
811.299	7609
811.441	7723
811.582	7658
811.724	7559
811.865	7476
812.007	7548
812.148	7533
812.29	7586
812.431	7780
812.573	7887
812.714	7993
812.855	8084
812.997	8119
813.138	8271
813.279	8183
813.421	8111
813.562	7997
813.703	7890
813.845	7731
813.986	7426
814.127	7179
814.268	7251
814.41	7221
814.551	7240
814.692	7259
814.833	7080
814.974	7061
815.115	7088
815.256	6973
815.397	6916
815.539	6951
815.68	6806
815.821	6814
815.962	6825
816.103	6749
816.244	6639
816.385	6597
816.526	6582
816.666	6475
816.807	6266
816.948	6433
817.089	6509
817.23	6426
817.371	6376
817.512	6342
817.653	6441
817.793	6376
817.934	6407
818.075	6437
818.216	6376
818.356	6331
818.497	6247
818.638	6110
818.778	6121
818.919	6159
819.06	6136
819.2	6304
819.341	6273
819.481	6357
819.622	6502
819.762	6688
819.903	6654
820.043	6585
820.184	6612
820.324	6532
820.465	6631
820.605	6677
820.746	6551
820.886	6441
821.026	6711
821.167	6692
821.307	6749
821.447	6734
821.588	6677
821.728	6563
821.868	6452
822.008	6353
822.149	6323
822.289	6399
822.429	6098
822.569	6034
822.709	6106
822.849	5889
822.99	5859
823.13	5889
823.27	5916
823.41	5764
823.55	5771
823.69	5707
823.83	5798
823.97	5604
824.11	5471
824.25	5474
824.389	5520
824.529	5543
824.669	5528
824.809	5657
824.949	5604
825.089	5585
825.228	5562
825.368	5364
825.508	5318
825.648	5349
825.787	5383
825.927	5345
826.067	5277
826.206	5250
826.346	5307
826.485	5383
826.625	5345
826.765	5516
826.904	5459
827.044	5181
827.183	5216
827.323	5109
827.462	5254
827.601	5136
827.741	5216
827.88	5197
828.02	5105
828.159	5181
828.298	5258
828.437	5368
828.577	5273
828.716	5493
828.855	5311
828.994	5166
829.134	5132
829.273	5155
829.412	5140
829.551	5098
829.69	5147
829.829	5170
829.968	5364
830.107	5216
830.246	5307
830.385	5185
830.524	5132
830.663	5033
830.802	4911
830.941	4889
831.08	4892
831.219	4976
831.357	4915
831.496	5124
831.635	4927
831.774	4839
831.913	4782
832.051	4714
832.19	4729
832.329	4831
832.467	4710
832.606	4618
832.744	4721
832.883	4694
833.022	4714
833.16	4812
833.299	4809
833.437	4870
833.576	4881
833.714	4831
833.852	4862
833.991	4873
834.129	4946
834.267	4927
834.406	4923
834.544	4961
834.682	4946
834.821	4976
834.959	5124
835.097	5010
835.235	5113
835.373	5098
835.511	5094
835.65	5010
835.788	5060
835.926	4892
836.064	4904
836.202	4923
836.34	5208
836.478	5258
836.615	5128
836.753	5277
836.891	5315
837.029	5280
837.167	5223
837.305	5170
837.443	5231
837.58	5140
837.718	5277
837.856	5201
837.993	5132
838.131	5235
838.269	5296
838.406	5181
838.544	5208
838.681	5086
838.819	5006
838.956	4934
839.094	4942
839.231	5014
839.369	5098
839.506	5452
839.643	5242
839.781	5056
839.918	5067
840.055	5132
840.193	5147
840.33	5178
840.467	5185
840.604	5189
840.742	5459
840.879	5109
841.016	5090
841.153	5170
841.29	5368
841.427	5391
841.564	5406
841.701	5414
841.838	5265
841.975	5242
842.112	5299
842.249	5201
842.385	5045
842.522	5322
842.659	5197
842.796	5159
842.933	5231
843.069	5166
843.206	5216
843.343	5322
843.479	5299
843.616	5223
843.752	5105
843.889	5045
844.025	5212
844.162	5094
844.298	5220
844.435	5102
844.571	5075
844.708	5197
844.844	5311
844.98	5357
845.117	5341
845.253	5185
845.389	5113
845.525	5181
845.661	5189
845.798	5045
845.934	5155
846.07	5010
846.206	5246
846.342	5288
846.478	5208
846.614	5010
846.75	4995
846.886	4953
847.022	5136
847.158	5060
847.294	5098
847.429	5124
847.565	5102
847.701	5398
847.837	4904
847.972	4889
848.108	4965
848.244	4984
848.379	4767
848.515	4748
848.65	4714
848.786	4771
848.921	4820
849.057	4866
849.192	4923
849.328	4824
849.463	4850
849.598	4831
849.734	4767
849.869	4725
850.004	4637
850.14	4672
850.275	4615
850.41	4527
850.545	4565
850.68	4596
850.815	4615
850.95	4687
851.085	4831
851.22	4839
851.355	4714
851.49	4607
851.625	4660
851.76	4740
851.895	4592
852.03	4485
852.165	4634
852.299	4691
852.434	4801
852.569	4782
852.703	4801
852.838	4858
852.973	4949
853.107	4915
853.242	4710
853.376	4733
853.511	4588
853.645	4653
853.78	4820
853.914	4687
854.048	4675
854.183	4683
854.317	4744
854.451	4843
854.585	4733
854.72	4683
854.854	4774
854.988	4637
855.122	4660
855.256	4561
855.39	4691
855.524	4805
855.658	4725
855.792	4721
855.926	4771
856.06	4778
856.194	4831
856.327	4698
856.461	4622
856.595	4656
856.729	4683
856.862	4771
856.996	4683
857.13	4733
857.263	4793
857.397	4828
857.53	4656
857.664	4740
857.797	4778
857.931	4812
858.064	4691
858.197	4771
858.331	4656
858.464	4565
858.597	4573
858.731	4675
858.864	4664
858.997	4615
859.13	4694
859.263	4694
859.396	4729
859.529	4656
859.662	4561
859.795	4558
859.928	4592
860.061	4805
860.194	4763
860.327	4599
860.46	4569
860.592	4710
860.725	4782
860.858	4782
860.99	4641
861.123	4538
861.256	4535
861.388	4645
861.521	5288
861.653	4500
861.786	4478
861.918	4485
862.05	4584
862.183	4535
862.315	4611
862.447	4679
862.58	4577
862.712	4413
862.844	4352
862.976	4508
863.108	4489
863.24	4908
863.372	4398
863.504	4455
863.636	4413
863.768	4489
863.9	4481
864.032	4421
864.164	4459
864.296	4443
864.428	4554
864.559	4577
864.691	4577
864.823	4550
864.954	4588
865.086	4538
865.217	4466
865.349	4470
865.48	4424
865.612	4493
865.743	4672
865.875	4470
866.006	4432
866.137	4478
866.269	4504
866.4	4466
866.531	4451
866.662	4409
866.793	4421
866.924	4443
867.055	4523
867.186	4504
867.317	4455
867.448	4375
867.579	4440
867.71	4405
867.841	4405
867.972	4459
868.103	4481
868.233	4497
868.364	4474
868.495	4451
868.625	4664
868.756	4774
868.886	4649
869.017	4675
869.147	4748
869.278	4801
869.408	4687
869.539	4634
869.669	4702
869.799	4672
869.929	4721
870.06	4774
870.19	4911
870.32	4938
870.45	4904
870.58	5060
870.71	5105
870.84	5109
870.97	4953
871.1	4904
871.23	5174
871.36	5170
871.489	5022
871.619	5079
871.749	5098
871.879	5132
872.008	5204
872.138	5045
872.267	5014
872.397	4839
872.526	4831
872.656	4717
872.785	4801
872.915	4995
873.044	5052
873.173	4942
873.303	4957
873.432	4980
873.561	4942
873.69	4885
873.819	4927
873.948	4923
874.077	4824
874.206	4801
874.335	4828
874.464	4915
874.593	5086
874.722	4968
874.851	5113
874.979	5079
875.108	5029
875.237	4946
875.365	4889
875.494	4900
875.623	5010
875.751	4812
875.88	4911
876.008	4980
876.136	5083
876.265	5193
876.393	5360
876.521	5280
876.65	5208
876.778	5159
876.906	5147
877.034	5071
877.162	5052
877.29	4984
877.418	5048
877.546	5025
877.674	5067
877.802	5018
877.93	5025
878.058	4938
878.185	4896
878.313	4953
878.441	4942
878.568	4786
878.696	4892
878.824	4999
878.951	4980
879.079	5178
879.206	5292
879.333	5098
879.461	4995
879.588	5045
879.715	5162
879.842	5208
879.97	4968
880.097	4812
880.224	4725
880.351	4778
880.478	4831
880.605	4809
880.732	4824
880.859	5132
880.986	4870
881.112	4953
881.239	4774
881.366	4679
881.493	4645
881.619	4649
881.746	4649
881.872	4706
881.999	4672
882.125	4656
882.252	4702
882.378	4847
882.505	4965
882.631	4828
882.757	4675
882.883	4774
883.01	4736
883.136	4660
883.262	4664
883.388	4588
883.514	4831
883.64	4831
883.766	4858
883.892	4714
884.018	4744
884.143	4915
884.269	4995
884.395	4675
884.52	4630
884.646	4691
884.772	4611
884.897	4569
885.023	4679
885.148	4816
885.274	4889
885.399	4778
885.524	4710
885.65	4691
885.775	4786
885.9	4672
886.025	4843
886.15	4809
886.275	4755
886.4	4668
886.525	4725
886.65	4721
886.775	4725
886.9	4889
887.025	5041
887.149	4797
887.274	4733
887.399	4626
887.523	4634
887.648	4558
887.773	4607
887.897	4767
888.021	4793
888.146	4698
888.27	4862
888.395	4927
888.519	4812
888.643	4801
888.767	4816
888.891	4668
889.015	4596
889.139	4698
889.263	4626
889.387	4759
889.511	4900
889.635	4774
889.759	4645
889.883	4664
890.006	4698
890.13	4820
890.254	4615
890.377	4668
890.501	4527
890.624	4523
890.748	4672
890.871	4497
890.995	4436
891.118	4409
891.241	4558
891.364	4523
891.488	4588
891.611	4493
891.734	4596
891.857	4599
891.98	4550
892.103	4691
892.226	4577
892.349	4512
892.471	4478
892.594	4527
892.717	4584
892.839	4634
892.962	4580
893.085	4675
893.207	4603
893.33	4485
893.452	4512
893.575	4672
893.697	4573
893.819	4831
893.941	4828
894.064	4778
894.186	4584
894.308	4558
894.43	4736
894.552	4843
894.674	4774
894.796	4592
894.918	4645
895.04	4561
895.161	4752
895.283	4694
895.405	4618
895.526	4656
895.648	4691
895.769	4736
895.891	4748
896.012	4763
896.134	4748
896.255	4687
896.376	4660
896.498	4569
896.619	4717
896.74	4618
896.861	4656
896.982	4896
897.103	5071
897.224	4835
897.345	4694
897.466	4656
897.587	4729
897.708	4858
897.828	4812
897.949	4687
898.07	4569
898.19	4664
898.311	4835
898.431	4672
898.552	4733
898.672	4828
898.792	4843
898.913	4710
899.033	4641
899.153	4561
899.273	4424
899.393	4523
899.513	4569
899.633	4516
899.753	4588
899.873	4516
899.993	4599
900.113	4538
900.232	4622
900.352	4554
900.472	4485
900.591	4421
900.711	4535
900.83	4447
900.95	4599
901.069	4675
901.189	4573
901.308	4363
901.427	4272
901.546	4379
901.665	4447
901.784	4489
901.904	4398
902.023	4318
902.141	4200
902.26	4173
902.379	4318
902.498	4272
902.617	4268
902.735	4398
902.854	4379
902.973	4360
903.091	4181
903.21	4287
903.328	4284
903.446	4280
903.565	4223
903.683	4333
903.801	4318
903.919	4394
904.038	4417
904.156	4310
904.274	4443
904.392	4409
904.51	4413
904.627	4478
904.745	4550
904.863	4641
904.981	4424
905.098	4318
905.216	4379
905.334	4436
905.451	4443
905.569	4428
905.686	4542
905.803	4569
905.921	4398
906.038	4546
906.155	4436
906.272	4367
906.389	4440
906.506	4284
906.623	4432
906.74	4424
906.857	4314
906.974	4367
907.091	4569
907.208	4637
907.324	4592
907.441	4504
907.557	4344
907.674	4360
907.79	4318
907.907	4394
908.023	4493
908.139	4493
908.256	4440
908.372	4512
908.488	4474
908.604	4325
908.72	4284
908.836	4394
908.952	4413
909.068	4409
909.184	4611
909.3	4527
909.415	4615
909.531	4592
909.647	4409
909.762	4379
909.878	4367
909.993	4485
910.108	4432
910.224	4436
910.339	4489
910.454	4405
910.57	4394
910.685	4367
910.8	4668
910.915	4679
911.03	4592
911.145	4390
911.259	4337
911.374	4394
911.489	4383
911.604	4310
911.718	4234
911.833	4223
911.947	4131
912.062	4059
912.176	4234
912.291	4249
912.405	4276
912.519	4516
912.633	4519
912.748	4375
912.862	4379
912.976	4261
913.09	4154
913.204	4207
913.318	4303
913.431	4409
913.545	4394
913.659	4459
913.772	4405
913.886	4322
914	4257
914.113	4436
914.226	4421
914.34	4436
914.453	4253
914.566	4470
914.68	4318
914.793	4367
914.906	4169
915.019	4192
915.132	4101
915.245	4196
915.358	4246
915.47	4272
915.583	4329
915.696	4363
915.809	4474
915.921	4470
916.034	4318
916.146	4306
916.259	4276
916.371	4379
916.483	4440
916.595	4284
916.708	4341
916.82	4367
916.932	4413
917.044	4405
917.156	4363
917.268	4333
917.38	4318
917.491	4329
917.603	4360
917.715	4489
917.826	4493
917.938	4367
918.049	4230
918.161	4413
918.272	4569
918.384	4531
918.495	4489
918.606	4356
918.717	4257
918.828	4352
918.939	4402
919.05	4322
919.161	4299
919.272	4219
919.383	4265
919.494	4478
919.604	4687
919.715	4500
919.826	4390
919.936	4409
920.047	4592
920.157	4577
920.267	4767
920.378	4538
920.488	4523
920.598	4740
920.708	4885
920.818	4763
920.928	4790
921.038	4980
921.148	4919
921.258	4645
921.368	4573
921.477	4558
921.587	4527
921.697	4398
921.806	4542
921.916	4466
922.025	4261
922.134	4287
922.244	4246
922.353	4379
922.462	4192
922.571	4143
922.68	4036
922.789	4017
922.898	4032
923.007	4032
923.116	4105
923.224	4090
923.333	4101
923.442	4013
923.55	4010
923.659	4055
923.767	4128
923.876	4025
923.984	4150
924.092	3998
924.201	4112
924.309	4093
924.417	4204
924.525	4109
924.633	4166
924.741	5132
924.849	3991
924.956	4154
925.064	4002
925.172	3918
925.279	3991
925.387	4063
925.494	4090
925.602	4268
925.709	4219
925.816	4055
925.924	4154
926.031	4291
926.138	4230
926.245	4234
926.352	4139
926.459	4272
926.566	4280
926.673	4181
926.779	4112
926.886	4101
926.993	4025
927.099	3979
927.206	3972
927.312	3941
927.419	4063
927.525	4032
927.631	4120
927.737	4006
927.843	4002
927.95	3861
928.056	3960
928.162	4048
928.267	4067
928.373	4653
928.479	4139
928.585	3907
928.69	4063
928.796	4059
928.901	3994
929.007	3865
929.112	4067
929.218	4021
929.323	3964
929.428	3994
929.533	4150
929.638	3956
929.743	4044
929.848	4105
929.953	4036
930.058	4006
930.163	3823
930.267	3869
930.372	4025
930.477	3861
930.581	4147
930.685	3934
930.79	3865
930.894	3956
930.998	3922
931.103	4040
931.207	3759
931.311	3736
931.415	3701
931.519	3561
931.623	3576
