Data from test_V78500241_1646.txt Node
Date: Fri Mar 25 17:00:26 CST 2022
User: usil
Spectrometer: V785-0024
Trigger mode: 0
Integration Time (sec): 4.000000E-1
Scans to average: 1
Nonlinearity correction enabled: false
Boxcar width: 0
Storing dark spectrum: false
XAxis mode: Wavelengths
Number of Pixels in Spectrum: 1024
>>>>>Begin Spectral Data<<<<<
801.071	8050
801.214	8069
801.356	7879
801.499	7894
801.641	7780
801.783	7860
801.926	7970
802.068	7940
802.211	8069
802.353	8005
802.496	7883
802.638	7890
802.78	7883
802.923	7826
803.065	7879
803.208	7887
803.35	7970
803.492	8096
803.635	8153
803.777	8062
803.919	8115
804.061	8457
804.204	8183
804.346	8046
804.488	7997
804.63	8084
804.773	8100
804.915	8081
805.057	8259
805.199	8214
805.341	8202
805.483	8244
805.626	8248
805.768	8180
805.91	8157
806.052	8252
806.194	8180
806.336	8256
806.478	8062
806.62	8039
806.762	8172
806.904	8317
807.046	8499
807.188	8385
807.33	8282
807.472	8309
807.614	8221
807.756	8096
807.898	8012
808.04	7871
808.182	7921
808.324	7890
808.465	7970
808.607	8111
808.749	8138
808.891	8244
809.033	8358
809.174	8183
809.316	7997
809.458	8100
809.6	7997
809.741	8084
809.883	8043
810.025	8035
810.166	8134
810.308	8043
810.45	7974
810.591	7833
810.733	7780
810.875	7696
811.016	7499
811.158	7510
811.299	7681
811.441	7674
811.582	7670
811.724	7594
811.865	7544
812.007	7548
812.148	7571
812.29	7597
812.431	7776
812.573	7921
812.714	7928
812.855	8180
812.997	8218
813.138	8324
813.279	8210
813.421	8096
813.562	8046
813.703	7894
813.845	7769
813.986	7445
814.127	7285
814.268	7183
814.41	7183
814.551	7145
814.692	7225
814.833	7084
814.974	7088
815.115	7107
815.256	6970
815.397	6920
815.539	6935
815.68	6894
815.821	6818
815.962	6825
816.103	6798
816.244	6711
816.385	6635
816.526	6608
816.666	6566
816.807	6296
816.948	6479
817.089	6509
817.23	6471
817.371	6353
817.512	6380
817.653	6471
817.793	6323
817.934	6456
818.075	6494
818.216	6448
818.356	6460
818.497	6323
818.638	6121
818.778	6171
818.919	6171
819.06	6133
819.2	6342
819.341	6327
819.481	6403
819.622	6555
819.762	6779
819.903	6688
820.043	6639
820.184	6627
820.324	6620
820.465	6757
820.605	6711
820.746	6642
820.886	6559
821.026	6711
821.167	6688
821.307	6837
821.447	6810
821.588	6688
821.728	6574
821.868	6555
822.008	6327
822.149	6365
822.289	6327
822.429	6190
822.569	6144
822.709	6068
822.849	5939
822.99	5885
823.13	5923
823.27	5939
823.41	5809
823.55	5786
823.69	5760
823.83	5783
823.97	5657
824.11	5539
824.25	5512
824.389	5558
824.529	5592
824.669	5543
824.809	5581
824.949	5752
825.089	5627
825.228	5539
825.368	5425
825.508	5337
825.648	5334
825.787	5372
825.927	5387
826.067	5273
826.206	5292
826.346	5368
826.485	5364
826.625	5421
826.765	5604
826.904	5505
827.044	5227
827.183	5239
827.323	5159
827.462	5220
827.601	5143
827.741	5178
827.88	5250
828.02	5159
828.159	5181
828.298	5303
828.437	5372
828.577	5307
828.716	5493
828.855	5311
828.994	5143
829.134	5128
829.273	5189
829.412	5151
829.551	5132
829.69	5117
829.829	5265
829.968	5398
830.107	5258
830.246	5315
830.385	5216
830.524	5140
830.663	5060
830.802	4999
830.941	4870
831.08	4927
831.219	4972
831.357	4987
831.496	5162
831.635	4965
831.774	4820
831.913	4885
832.051	4740
832.19	4740
832.329	4889
832.467	4706
832.606	4645
832.744	4748
832.883	4714
833.022	4698
833.16	4778
833.299	4786
833.437	4831
833.576	4828
833.714	4870
833.852	4858
833.991	4957
834.129	5003
834.267	4942
834.406	4892
834.544	4968
834.682	4968
834.821	5018
834.959	5132
835.097	4999
835.235	5147
835.373	5086
835.511	5109
835.65	5075
835.788	5029
835.926	4946
836.064	4847
836.202	4965
836.34	5170
836.478	5208
836.615	5147
836.753	5235
836.891	5261
837.029	5292
837.167	5212
837.305	5155
837.443	5155
837.58	5064
837.718	5273
837.856	5201
837.993	5212
838.131	5231
838.269	5220
838.406	5208
838.544	5181
838.681	5041
838.819	4976
838.956	4919
839.094	4919
839.231	4999
839.369	5067
839.506	5376
839.643	5250
839.781	5014
839.918	5033
840.055	5083
840.193	5086
840.33	5060
840.467	5121
840.604	5227
840.742	5417
840.879	5143
841.016	5105
841.153	5185
841.29	5368
841.427	5372
841.564	5395
841.701	5391
841.838	5269
841.975	5220
842.112	5269
842.249	5117
842.385	5140
842.522	5345
842.659	5189
842.796	5124
842.933	5235
843.069	5128
843.206	5208
843.343	5261
843.479	5216
843.616	5277
843.752	5052
843.889	4968
844.025	5212
844.162	5056
844.298	5197
844.435	5018
844.571	5071
844.708	5227
844.844	5296
844.98	5322
845.117	5277
845.253	5124
845.389	5079
845.525	5143
845.661	5128
845.798	5029
845.934	5090
846.07	5067
846.206	5189
846.342	5315
846.478	5121
846.614	4980
846.75	4938
846.886	4923
847.022	5128
847.158	5018
847.294	5090
847.429	5102
847.565	5086
847.701	5322
847.837	4870
847.972	4786
848.108	4930
848.244	4927
848.379	4778
848.515	4721
848.65	4725
848.786	4752
848.921	4782
849.057	4927
849.192	4900
849.328	4759
849.463	4873
849.598	4782
849.734	4786
849.869	4687
850.004	4618
850.14	4687
850.275	4645
850.41	4523
850.545	4607
850.68	4611
850.815	4683
850.95	4637
851.085	4839
851.22	4759
851.355	4672
851.49	4645
851.625	4641
851.76	4618
851.895	4558
852.03	4554
852.165	4668
852.299	4729
852.434	4793
852.569	4778
852.703	4774
852.838	4824
852.973	4957
853.107	4927
853.242	4763
853.376	4668
853.511	4519
853.645	4618
853.78	4797
853.914	4725
854.048	4664
854.183	4645
854.317	4714
854.451	4824
854.585	4679
854.72	4592
854.854	4820
854.988	4584
855.122	4637
855.256	4554
855.39	4672
855.524	4755
855.658	4740
855.792	4736
855.926	4721
856.06	4721
856.194	4809
856.327	4683
856.461	4611
856.595	4645
856.729	4580
856.862	4767
856.996	4675
857.13	4706
857.263	4748
857.397	4778
857.53	4656
857.664	4721
857.797	4786
857.931	4767
858.064	4687
858.197	4774
858.331	4588
858.464	4580
858.597	4470
858.731	4611
858.864	4603
858.997	4611
859.13	4637
859.263	4675
859.396	4668
859.529	4569
859.662	4542
859.795	4550
859.928	4592
860.061	4744
860.194	4774
860.327	4569
860.46	4550
860.592	4744
860.725	4721
860.858	4710
860.99	4584
861.123	4478
861.256	4462
861.388	4618
861.521	5185
861.653	4478
861.786	4466
861.918	4424
862.05	4527
862.183	4580
862.315	4607
862.447	4656
862.58	4519
862.712	4394
862.844	4352
862.976	4512
863.108	4447
863.24	4755
863.372	4329
863.504	4436
863.636	4413
863.768	4508
863.9	4398
864.032	4360
864.164	4375
864.296	4497
864.428	4531
864.559	4542
864.691	4573
864.823	4519
864.954	4470
865.086	4493
865.217	4424
865.349	4417
865.48	4436
865.612	4466
865.743	4607
865.875	4504
866.006	4478
866.137	4462
866.269	4428
866.4	4436
866.531	4405
866.662	4394
866.793	4375
866.924	4459
867.055	4489
867.186	4417
867.317	4451
867.448	4363
867.579	4398
867.71	4394
867.841	4356
867.972	4462
868.103	4512
868.233	4424
868.364	4462
868.495	4493
868.625	4649
868.756	4755
868.886	4531
869.017	4561
869.147	4748
869.278	4748
869.408	4649
869.539	4634
869.669	4729
869.799	4634
869.929	4721
870.06	4736
870.19	4965
870.32	4946
870.45	4927
870.58	4999
870.71	5094
870.84	5094
870.97	4934
871.1	4885
871.23	5155
871.36	5128
871.489	4995
871.619	5071
871.749	5083
871.879	5086
872.008	5136
872.138	5006
872.267	4984
872.397	4816
872.526	4820
872.656	4767
872.785	4782
872.915	4915
873.044	5003
873.173	4911
873.303	4930
873.432	4930
873.561	4930
873.69	4835
873.819	4885
873.948	4847
874.077	4782
874.206	4778
874.335	4763
874.464	4923
874.593	5067
874.722	4976
874.851	5060
874.979	5045
875.108	4976
875.237	4881
875.365	4786
875.494	4870
875.623	4953
875.751	4820
875.88	4820
876.008	4995
876.136	4984
876.265	5181
876.393	5360
876.521	5250
876.65	5193
876.778	5178
876.906	5060
877.034	4999
877.162	5090
877.29	5014
877.418	5052
877.546	5105
877.674	5083
877.802	5041
877.93	5003
878.058	4957
878.185	4862
878.313	4987
878.441	4942
878.568	4805
878.696	4873
878.824	4915
878.951	5006
879.079	5083
879.206	5273
879.333	5086
879.461	4980
879.588	4987
879.715	5117
879.842	5235
879.97	4984
880.097	4774
880.224	4729
880.351	4797
880.478	4812
880.605	4778
880.732	4805
880.859	5045
880.986	4919
881.112	4915
881.239	4831
881.366	4679
881.493	4546
881.619	4577
881.746	4656
881.872	4656
881.999	4630
882.125	4691
882.252	4740
882.378	4786
882.505	4938
882.631	4809
882.757	4607
882.883	4733
883.01	4771
883.136	4641
883.262	4588
883.388	4584
883.514	4797
883.64	4862
883.766	4793
883.892	4656
884.018	4694
884.143	4873
884.269	4980
884.395	4698
884.52	4584
884.646	4618
884.772	4615
884.897	4558
885.023	4626
885.148	4740
885.274	4881
885.399	4828
885.524	4759
885.65	4653
885.775	4778
885.9	4687
886.025	4877
886.15	4782
886.275	4721
886.4	4649
886.525	4744
886.65	4668
886.775	4702
886.9	4873
887.025	4987
887.149	4820
887.274	4649
887.399	4596
887.523	4573
887.648	4573
887.773	4554
887.897	4748
888.021	4763
888.146	4691
888.27	4809
888.395	4885
888.519	4850
888.643	4786
888.767	4816
888.891	4660
889.015	4588
889.139	4641
889.263	4615
889.387	4748
889.511	4805
889.635	4809
889.759	4637
889.883	4626
890.006	4721
890.13	4740
890.254	4596
890.377	4698
890.501	4516
890.624	4500
890.748	4565
890.871	4470
890.995	4436
891.118	4375
891.241	4508
891.364	4504
891.488	4634
891.611	4462
891.734	4519
891.857	4546
891.98	4527
892.103	4634
892.226	4565
892.349	4519
892.471	4394
892.594	4527
892.717	4584
892.839	4577
892.962	4622
893.085	4668
893.207	4611
893.33	4432
893.452	4538
893.575	4668
893.697	4561
893.819	4774
893.941	4839
894.064	4767
894.186	4596
894.308	4546
894.43	4664
894.552	4816
894.674	4702
894.796	4565
894.918	4554
895.04	4523
895.161	4729
895.283	4603
895.405	4569
895.526	4649
895.648	4687
895.769	4710
895.891	4714
896.012	4679
896.134	4714
896.255	4672
896.376	4592
896.498	4603
896.619	4645
896.74	4596
896.861	4607
896.982	4900
897.103	5071
897.224	4816
897.345	4740
897.466	4679
897.587	4706
897.708	4904
897.828	4793
897.949	4656
898.07	4538
898.19	4645
898.311	4820
898.431	4641
898.552	4729
898.672	4736
898.792	4809
898.913	4679
899.033	4580
899.153	4500
899.273	4417
899.393	4500
899.513	4550
899.633	4542
899.753	4558
899.873	4481
899.993	4569
900.113	4558
900.232	4573
900.352	4500
900.472	4474
900.591	4363
900.711	4516
900.83	4440
900.95	4618
901.069	4656
901.189	4489
901.308	4367
901.427	4295
901.546	4356
901.665	4451
901.784	4558
901.904	4379
902.023	4318
902.141	4227
902.26	4173
902.379	4318
902.498	4207
902.617	4238
902.735	4356
902.854	4443
902.973	4367
903.091	4227
903.21	4227
903.328	4303
903.446	4272
903.565	4227
903.683	4363
903.801	4303
903.919	4390
904.038	4440
904.156	4303
904.274	4421
904.392	4371
904.51	4421
904.627	4462
904.745	4592
904.863	4683
904.981	4375
905.098	4314
905.216	4337
905.334	4440
905.451	4413
905.569	4462
905.686	4569
905.803	4573
905.921	4379
906.038	4538
906.155	4424
906.272	4383
906.389	4489
906.506	4405
906.623	4379
906.74	4409
906.857	4360
906.974	4375
907.091	4565
907.208	4656
907.324	4607
907.441	4500
907.557	4322
907.674	4341
907.79	4329
907.907	4375
908.023	4478
908.139	4462
908.256	4443
908.372	4497
908.488	4440
908.604	4322
908.72	4280
908.836	4398
908.952	4344
909.068	4409
909.184	4535
909.3	4523
909.415	4596
909.531	4561
909.647	4428
909.762	4390
909.878	4329
909.993	4394
910.108	4417
910.224	4417
910.339	4470
910.454	4413
910.57	4306
910.685	4284
910.8	4630
910.915	4577
911.03	4504
911.145	4299
911.259	4287
911.374	4383
911.489	4344
911.604	4291
911.718	4139
911.833	4204
911.947	4071
912.062	4006
912.176	4181
912.291	4234
912.405	4230
912.519	4455
912.633	4485
912.748	4360
912.862	4276
912.976	4185
913.09	4120
913.204	4196
913.318	4291
913.431	4352
913.545	4348
913.659	4409
913.772	4306
913.886	4246
914	4265
914.113	4341
914.226	4436
914.34	4360
914.453	4192
914.566	4428
914.68	4348
914.793	4329
914.906	4192
915.019	4120
915.132	4086
915.245	4147
915.358	4246
915.47	4223
915.583	4261
915.696	4291
915.809	4405
915.921	4424
916.034	4272
916.146	4284
916.259	4238
916.371	4348
916.483	4306
916.595	4234
916.708	4352
916.82	4360
916.932	4367
917.044	4356
917.156	4390
917.268	4230
917.38	4284
917.491	4284
917.603	4363
917.715	4424
917.826	4424
917.938	4367
918.049	4234
918.161	4424
918.272	4538
918.384	4584
918.495	4447
918.606	4280
918.717	4207
918.828	4371
918.939	4398
919.05	4234
919.161	4344
919.272	4166
919.383	4204
919.494	4402
919.604	4603
919.715	4413
919.826	4322
919.936	4371
920.047	4519
920.157	4504
920.267	4698
920.378	4573
920.488	4462
920.598	4698
920.708	4816
920.818	4714
920.928	4771
921.038	4965
921.148	4885
921.258	4611
921.368	4516
921.477	4493
921.587	4470
921.697	4394
921.806	4527
921.916	4455
922.025	4291
922.134	4234
922.244	4207
922.353	4306
922.462	4116
922.571	4120
922.68	3998
922.789	3956
922.898	4021
923.007	4025
923.116	4097
923.224	4059
923.333	4044
923.442	4002
923.55	3949
923.659	4017
923.767	4078
923.876	4044
923.984	4154
924.092	3934
924.201	4086
924.309	4116
924.417	4067
924.525	4074
924.633	4051
924.741	5029
924.849	3975
924.956	4116
925.064	3956
925.172	3953
925.279	3964
925.387	4055
925.494	4055
925.602	4196
925.709	4227
925.816	4017
925.924	4097
926.031	4196
926.138	4154
926.245	4139
926.352	4071
926.459	4242
926.566	4234
926.673	4109
926.779	4059
926.886	4067
926.993	4013
927.099	3937
927.206	3956
927.312	3956
927.419	4078
927.525	4040
927.631	4139
927.737	3968
927.843	3949
927.95	3842
928.056	3960
928.162	3937
928.267	4086
928.373	4558
928.479	4147
928.585	3861
928.69	4055
928.796	4071
928.901	3994
929.007	3899
929.112	3964
929.218	4010
929.323	3945
929.428	3911
929.533	4109
929.638	3915
929.743	3979
929.848	4029
929.953	3987
930.058	3926
930.163	3755
930.267	3816
930.372	3956
930.477	3838
930.581	4059
930.685	3937
930.79	3831
930.894	3888
930.998	3835
931.103	4071
931.207	3728
931.311	3728
931.415	3701
931.519	3557
931.623	3526
