Data from test_V78500241_1538.txt Node
Date: Fri Mar 25 16:59:41 CST 2022
User: usil
Spectrometer: V785-0024
Trigger mode: 0
Integration Time (sec): 4.000000E-1
Scans to average: 1
Nonlinearity correction enabled: false
Boxcar width: 0
Storing dark spectrum: false
XAxis mode: Wavelengths
Number of Pixels in Spectrum: 1024
>>>>>Begin Spectral Data<<<<<
801.071	7997
801.214	8005
801.356	7894
801.499	7849
801.641	7807
801.783	7826
801.926	7967
802.068	7871
802.211	7993
802.353	8035
802.496	7875
802.638	7856
802.78	7894
802.923	7875
803.065	7894
803.208	7811
803.35	8008
803.492	8054
803.635	8183
803.777	8043
803.919	8157
804.061	8434
804.204	8161
804.346	8081
804.488	7951
804.63	8058
804.773	8016
804.915	8077
805.057	8347
805.199	8126
805.341	8191
805.483	8256
805.626	8168
805.768	8077
805.91	8142
806.052	8248
806.194	8153
806.336	8317
806.478	8077
806.62	8100
806.762	8164
806.904	8275
807.046	8476
807.188	8301
807.33	8298
807.472	8286
807.614	8126
807.756	8115
807.898	7947
808.04	7925
808.182	7921
808.324	7944
808.465	7894
808.607	8088
808.749	8115
808.891	8180
809.033	8347
809.174	8210
809.316	8039
809.458	8077
809.6	7944
809.741	8043
809.883	8050
810.025	8164
810.166	8081
810.308	8012
810.45	8046
810.591	7913
810.733	7670
810.875	7689
811.016	7529
811.158	7491
811.299	7636
811.441	7715
811.582	7689
811.724	7613
811.865	7567
812.007	7575
812.148	7613
812.29	7586
812.431	7746
812.573	7833
812.714	7986
812.855	8138
812.997	8206
813.138	8305
813.279	8199
813.421	8100
813.562	7986
813.703	7887
813.845	7799
813.986	7449
814.127	7213
814.268	7244
814.41	7244
814.551	7145
814.692	7202
814.833	7053
814.974	7118
815.115	7149
815.256	6962
815.397	6909
815.539	6935
815.68	6840
815.821	6707
815.962	6928
816.103	6764
816.244	6722
816.385	6589
816.526	6566
816.666	6460
816.807	6327
816.948	6429
817.089	6464
817.23	6460
817.371	6433
817.512	6357
817.653	6407
817.793	6353
817.934	6410
818.075	6471
818.216	6445
818.356	6384
818.497	6178
818.638	6114
818.778	6144
818.919	6114
819.06	6144
819.2	6342
819.341	6353
819.481	6410
819.622	6544
819.762	6700
819.903	6669
820.043	6604
820.184	6532
820.324	6585
820.465	6696
820.605	6673
820.746	6642
820.886	6502
821.026	6662
821.167	6631
821.307	6795
821.447	6760
821.588	6646
821.728	6544
821.868	6536
822.008	6323
822.149	6323
822.289	6353
822.429	6110
822.569	6106
822.709	6083
822.849	5958
822.99	5904
823.13	5969
823.27	5939
823.41	5737
823.55	5748
823.69	5707
823.83	5756
823.97	5695
824.11	5520
824.25	5524
824.389	5589
824.529	5604
824.669	5535
824.809	5615
824.949	5672
825.089	5604
825.228	5524
825.368	5349
825.508	5349
825.648	5364
825.787	5387
825.927	5406
826.067	5326
826.206	5372
826.346	5402
826.485	5402
826.625	5368
826.765	5520
826.904	5452
827.044	5246
827.183	5162
827.323	5166
827.462	5258
827.601	5197
827.741	5189
827.88	5235
828.02	5128
828.159	5273
828.298	5307
828.437	5345
828.577	5250
828.716	5410
828.855	5326
828.994	5143
829.134	5159
829.273	5193
829.412	5185
829.551	5117
829.69	5185
829.829	5265
829.968	5364
830.107	5242
830.246	5303
830.385	5174
830.524	5121
830.663	5037
830.802	4961
830.941	4908
831.08	4850
831.219	4972
831.357	4919
831.496	5151
831.635	4957
831.774	4831
831.913	4881
832.051	4729
832.19	4736
832.329	4771
832.467	4763
832.606	4634
832.744	4740
832.883	4733
833.022	4740
833.16	4801
833.299	4793
833.437	4847
833.576	4828
833.714	4870
833.852	4873
833.991	4896
834.129	4957
834.267	4976
834.406	4885
834.544	4942
834.682	4995
834.821	4946
834.959	5147
835.097	4976
835.235	5155
835.373	5075
835.511	5083
835.65	5010
835.788	5041
835.926	4900
836.064	4885
836.202	4892
836.34	5143
836.478	5258
836.615	5109
836.753	5197
836.891	5326
837.029	5220
837.167	5136
837.305	5159
837.443	5132
837.58	5064
837.718	5246
837.856	5143
837.993	5132
838.131	5318
838.269	5178
838.406	5227
838.544	5147
838.681	5090
838.819	5018
838.956	4896
839.094	4923
839.231	4991
839.369	5071
839.506	5421
839.643	5254
839.781	5060
839.918	4995
840.055	5098
840.193	5132
840.33	5121
840.467	5113
840.604	5162
840.742	5417
840.879	5094
841.016	5052
841.153	5151
841.29	5345
841.427	5334
841.564	5269
841.701	5330
841.838	5273
841.975	5231
842.112	5311
842.249	5117
842.385	5064
842.522	5357
842.659	5151
842.796	5166
842.933	5220
843.069	5197
843.206	5124
843.343	5284
843.479	5250
843.616	5261
843.752	5018
843.889	5006
844.025	5174
844.162	4965
844.298	5166
844.435	5075
844.571	5064
844.708	5220
844.844	5261
844.98	5337
845.117	5246
845.253	5162
845.389	5090
845.525	5124
845.661	5109
845.798	5048
845.934	5162
846.07	5045
846.206	5201
846.342	5288
846.478	5174
846.614	5014
846.75	4919
846.886	4976
847.022	5086
847.158	5022
847.294	5029
847.429	5117
847.565	5064
847.701	5322
847.837	4854
847.972	4824
848.108	4908
848.244	4896
848.379	4767
848.515	4698
848.65	4706
848.786	4744
848.921	4793
849.057	4839
849.192	4896
849.328	4820
849.463	4801
849.598	4812
849.734	4767
849.869	4637
850.004	4634
850.14	4698
850.275	4622
850.41	4504
850.545	4588
850.68	4599
850.815	4577
850.95	4603
851.085	4824
851.22	4771
851.355	4668
851.49	4653
851.625	4634
851.76	4637
851.895	4538
852.03	4519
852.165	4649
852.299	4763
852.434	4824
852.569	4812
852.703	4805
852.838	4824
852.973	4900
853.107	4915
853.242	4752
853.376	4649
853.511	4531
853.645	4645
853.78	4820
853.914	4672
854.048	4672
854.183	4618
854.317	4687
854.451	4805
854.585	4656
854.72	4664
854.854	4763
854.988	4584
855.122	4664
855.256	4489
855.39	4679
855.524	4740
855.658	4717
855.792	4664
855.926	4733
856.06	4733
856.194	4748
856.327	4698
856.461	4577
856.595	4584
856.729	4569
856.862	4774
856.996	4687
857.13	4733
857.263	4683
857.397	4786
857.53	4630
857.664	4740
857.797	4767
857.931	4744
858.064	4725
858.197	4748
858.331	4637
858.464	4622
858.597	4565
858.731	4611
858.864	4584
858.997	4660
859.13	4672
859.263	4687
859.396	4714
859.529	4558
859.662	4573
859.795	4558
859.928	4596
860.061	4790
860.194	4782
860.327	4561
860.46	4565
860.592	4725
860.725	4687
860.858	4733
860.99	4558
861.123	4527
861.256	4508
861.388	4611
861.521	5299
861.653	4512
861.786	4489
861.918	4451
862.05	4531
862.183	4527
862.315	4580
862.447	4630
862.58	4561
862.712	4409
862.844	4337
862.976	4504
863.108	4447
863.24	4820
863.372	4329
863.504	4436
863.636	4390
863.768	4485
863.9	4413
864.032	4367
864.164	4367
864.296	4481
864.428	4546
864.559	4550
864.691	4512
864.823	4493
864.954	4493
865.086	4504
865.217	4447
865.349	4383
865.48	4432
865.612	4478
865.743	4599
865.875	4481
866.006	4402
866.137	4421
866.269	4443
866.4	4405
866.531	4409
866.662	4405
866.793	4383
866.924	4436
867.055	4462
867.186	4428
867.317	4417
867.448	4333
867.579	4379
867.71	4413
867.841	4344
867.972	4462
868.103	4466
868.233	4466
868.364	4443
868.495	4485
868.625	4634
868.756	4755
868.886	4561
869.017	4580
869.147	4805
869.278	4706
869.408	4626
869.539	4630
869.669	4725
869.799	4618
869.929	4752
870.06	4755
870.19	4919
870.32	4904
870.45	4938
870.58	5014
870.71	5094
870.84	5064
870.97	4946
871.1	4911
871.23	5151
871.36	5079
871.489	5045
871.619	5064
871.749	5083
871.879	5075
872.008	5159
872.138	5045
872.267	4930
872.397	4782
872.526	4816
872.656	4710
872.785	4793
872.915	4911
873.044	4980
873.173	4919
873.303	4965
873.432	4946
873.561	4934
873.69	4866
873.819	4850
873.948	4870
874.077	4797
874.206	4736
874.335	4782
874.464	4927
874.593	5056
874.722	4938
874.851	5067
874.979	5083
875.108	5006
875.237	4915
875.365	4881
875.494	4896
875.623	5006
875.751	4858
875.88	4908
876.008	4938
876.136	5014
876.265	5216
876.393	5330
876.521	5239
876.65	5269
876.778	5231
876.906	5037
877.034	4976
877.162	5064
877.29	5033
877.418	5041
877.546	5075
877.674	5025
877.802	5014
877.93	4961
878.058	4968
878.185	4839
878.313	5018
878.441	4942
878.568	4778
878.696	4831
878.824	4984
878.951	4976
879.079	5121
879.206	5288
879.333	5064
879.461	4968
879.588	5010
879.715	5086
879.842	5212
879.97	4953
880.097	4809
880.224	4725
880.351	4797
880.478	4820
880.605	4828
880.732	4816
880.859	5075
880.986	4911
881.112	4854
881.239	4801
881.366	4672
881.493	4596
881.619	4558
881.746	4603
881.872	4637
881.999	4660
882.125	4702
882.252	4809
882.378	4805
882.505	4980
882.631	4782
882.757	4641
882.883	4683
883.01	4793
883.136	4672
883.262	4618
883.388	4622
883.514	4801
883.64	4771
883.766	4771
883.892	4683
884.018	4679
884.143	4881
884.269	5041
884.395	4656
884.52	4622
884.646	4588
884.772	4588
884.897	4554
885.023	4656
885.148	4805
885.274	4873
885.399	4767
885.524	4694
885.65	4649
885.775	4755
885.9	4672
886.025	4938
886.15	4744
886.275	4679
886.4	4618
886.525	4679
886.65	4717
886.775	4630
886.9	4877
887.025	5086
887.149	4809
887.274	4630
887.399	4596
887.523	4596
887.648	4558
887.773	4550
887.897	4736
888.021	4733
888.146	4622
888.27	4801
888.395	4881
888.519	4812
888.643	4793
888.767	4843
888.891	4641
889.015	4622
889.139	4664
889.263	4630
889.387	4744
889.511	4873
889.635	4790
889.759	4626
889.883	4634
890.006	4740
890.13	4790
890.254	4702
890.377	4645
890.501	4527
890.624	4546
890.748	4599
890.871	4485
890.995	4394
891.118	4356
891.241	4462
891.364	4554
891.488	4649
891.611	4519
891.734	4508
891.857	4596
891.98	4573
892.103	4637
892.226	4592
892.349	4500
892.471	4436
892.594	4573
892.717	4531
892.839	4584
892.962	4584
893.085	4645
893.207	4580
893.33	4462
893.452	4535
893.575	4672
893.697	4599
893.819	4778
893.941	4900
894.064	4801
894.186	4561
894.308	4573
894.43	4706
894.552	4873
894.674	4744
894.796	4508
894.918	4675
895.04	4588
895.161	4687
895.283	4698
895.405	4569
895.526	4664
895.648	4721
895.769	4683
895.891	4740
896.012	4717
896.134	4714
896.255	4668
896.376	4645
896.498	4584
896.619	4649
896.74	4656
896.861	4592
896.982	4911
897.103	5022
897.224	4828
897.345	4736
897.466	4656
897.587	4725
897.708	4892
897.828	4805
897.949	4645
898.07	4561
898.19	4637
898.311	4839
898.431	4653
898.552	4694
898.672	4801
898.792	4816
898.913	4767
899.033	4626
899.153	4512
899.273	4390
899.393	4512
899.513	4466
899.633	4516
899.753	4504
899.873	4455
899.993	4603
900.113	4573
900.232	4626
900.352	4531
900.472	4527
900.591	4383
900.711	4474
900.83	4436
900.95	4618
901.069	4649
901.189	4565
901.308	4371
901.427	4314
901.546	4390
901.665	4443
901.784	4523
901.904	4363
902.023	4383
902.141	4162
902.26	4192
902.379	4261
902.498	4188
902.617	4185
902.735	4344
902.854	4386
902.973	4363
903.091	4192
903.21	4230
903.328	4310
903.446	4265
903.565	4291
903.683	4337
903.801	4242
903.919	4413
904.038	4440
904.156	4318
904.274	4428
904.392	4394
904.51	4409
904.627	4474
904.745	4542
904.863	4637
904.981	4333
905.098	4310
905.216	4371
905.334	4436
905.451	4432
905.569	4413
905.686	4497
905.803	4588
905.921	4405
906.038	4516
906.155	4470
906.272	4348
906.389	4402
906.506	4284
906.623	4356
906.74	4424
906.857	4333
906.974	4352
907.091	4538
907.208	4672
907.324	4592
907.441	4508
907.557	4341
907.674	4390
907.79	4306
907.907	4352
908.023	4443
908.139	4470
908.256	4421
908.372	4440
908.488	4405
908.604	4363
908.72	4352
908.836	4394
908.952	4360
909.068	4398
909.184	4599
909.3	4512
909.415	4584
909.531	4531
909.647	4341
909.762	4356
909.878	4287
909.993	4447
910.108	4390
910.224	4352
910.339	4470
910.454	4379
910.57	4329
910.685	4322
910.8	4656
910.915	4580
911.03	4504
911.145	4310
911.259	4337
911.374	4356
911.489	4299
911.604	4268
911.718	4139
911.833	4185
911.947	4059
912.062	4006
912.176	4204
912.291	4238
912.405	4242
912.519	4432
912.633	4436
912.748	4371
912.862	4280
912.976	4188
913.09	4082
913.204	4173
913.318	4219
913.431	4371
913.545	4352
913.659	4462
913.772	4379
913.886	4230
914	4249
914.113	4432
914.226	4394
914.34	4394
914.453	4265
914.566	4413
914.68	4280
914.793	4329
914.906	4131
915.019	4135
915.132	4067
915.245	4188
915.358	4185
915.47	4215
915.583	4322
915.696	4322
915.809	4386
915.921	4432
916.034	4230
916.146	4196
916.259	4181
916.371	4405
916.483	4314
916.595	4234
916.708	4337
916.82	4303
916.932	4318
917.044	4284
917.156	4314
917.268	4246
917.38	4310
917.491	4257
917.603	4344
917.715	4447
917.826	4443
917.938	4360
918.049	4261
918.161	4363
918.272	4516
918.384	4516
918.495	4428
918.606	4310
918.717	4249
918.828	4314
918.939	4318
919.05	4227
919.161	4318
919.272	4135
919.383	4211
919.494	4459
919.604	4645
919.715	4421
919.826	4344
919.936	4398
920.047	4500
920.157	4493
920.267	4675
920.378	4512
920.488	4485
920.598	4725
920.708	4877
920.818	4740
920.928	4736
921.038	4942
921.148	4953
921.258	4637
921.368	4584
921.477	4474
921.587	4504
921.697	4390
921.806	4523
921.916	4424
922.025	4246
922.134	4257
922.244	4185
922.353	4299
922.462	4192
922.571	4147
922.68	3998
922.789	3949
922.898	4048
923.007	4002
923.116	4067
923.224	4055
923.333	4082
923.442	4002
923.55	3983
923.659	4032
923.767	4143
923.876	3987
923.984	4101
924.092	4029
924.201	4048
924.309	4101
924.417	4147
924.525	4078
924.633	4078
924.741	4881
924.849	3899
924.956	4112
925.064	3972
925.172	3899
925.279	3964
925.387	4101
925.494	4055
925.602	4200
925.709	4181
925.816	4055
925.924	4101
926.031	4276
926.138	4173
926.245	4166
926.352	4093
926.459	4268
926.566	4318
926.673	4139
926.779	4067
926.886	4082
926.993	3956
927.099	4010
927.206	3941
927.312	3960
927.419	4059
927.525	4010
927.631	4128
927.737	3979
927.843	3945
927.95	3827
928.056	3968
928.162	3998
928.267	4040
928.373	4569
928.479	4158
928.585	3861
928.69	4021
928.796	4044
928.901	3949
929.007	3800
929.112	4002
929.218	3968
929.323	3937
929.428	3926
929.533	4112
929.638	3873
929.743	3983
929.848	4010
929.953	4006
930.058	3937
930.163	3778
930.267	3774
930.372	3953
930.477	3789
930.581	4059
930.685	3930
930.79	3797
930.894	3873
930.998	3850
931.103	4048
931.207	3694
931.311	3686
931.415	3690
931.519	3496
931.623	3538
