Data from test_V78500241_1921.txt Node
Date: Fri Mar 25 17:02:21 CST 2022
User: usil
Spectrometer: V785-0024
Trigger mode: 0
Integration Time (sec): 4.000000E-1
Scans to average: 1
Nonlinearity correction enabled: false
Boxcar width: 0
Storing dark spectrum: false
XAxis mode: Wavelengths
Number of Pixels in Spectrum: 1024
>>>>>Begin Spectral Data<<<<<
801.071	8008
801.214	8024
801.356	7852
801.499	7837
801.641	7830
801.783	7860
801.926	7932
802.068	7989
802.211	7997
802.353	8031
802.496	7826
802.638	7795
802.78	7890
802.923	7864
803.065	7826
803.208	7894
803.35	7906
803.492	8081
803.635	8115
803.777	7955
803.919	8107
804.061	8396
804.204	8153
804.346	8062
804.488	8008
804.63	8119
804.773	7978
804.915	8107
805.057	8313
805.199	8103
805.341	8202
805.483	8256
805.626	8168
805.768	8176
805.91	8240
806.052	8206
806.194	8138
806.336	8305
806.478	8088
806.62	8020
806.762	8100
806.904	8202
807.046	8488
807.188	8358
807.33	8313
807.472	8286
807.614	8138
807.756	8142
807.898	8043
808.04	7883
808.182	7879
808.324	7932
808.465	7890
808.607	8130
808.749	8142
808.891	8195
809.033	8240
809.174	8290
809.316	8149
809.458	8065
809.6	8020
809.741	8039
809.883	8073
810.025	8062
810.166	8016
810.308	8020
810.45	7978
810.591	7799
810.733	7731
810.875	7674
811.016	7544
811.158	7468
811.299	7624
811.441	7685
811.582	7636
811.724	7571
811.865	7537
812.007	7563
812.148	7582
812.29	7601
812.431	7757
812.573	7875
812.714	7959
812.855	8081
812.997	8134
813.138	8328
813.279	8134
813.421	8081
813.562	8001
813.703	7837
813.845	7693
813.986	7457
814.127	7240
814.268	7244
814.41	7236
814.551	7187
814.692	7228
814.833	7187
814.974	7129
815.115	7156
815.256	7034
815.397	6954
815.539	6970
815.68	6848
815.821	6722
815.962	6958
816.103	6863
816.244	6654
816.385	6658
816.526	6608
816.666	6555
816.807	6323
816.948	6460
817.089	6422
817.23	6471
817.371	6319
817.512	6418
817.653	6418
817.793	6353
817.934	6422
818.075	6445
818.216	6479
818.356	6460
818.497	6266
818.638	6110
818.778	6171
818.919	6205
819.06	6171
819.2	6346
819.341	6315
819.481	6323
819.622	6486
819.762	6692
819.903	6707
820.043	6597
820.184	6540
820.324	6566
820.465	6741
820.605	6677
820.746	6669
820.886	6570
821.026	6726
821.167	6730
821.307	6722
821.447	6806
821.588	6760
821.728	6578
821.868	6517
822.008	6281
822.149	6331
822.289	6334
822.429	6182
822.569	6095
822.709	6152
822.849	5958
822.99	5866
823.13	5912
823.27	5942
823.41	5805
823.55	5729
823.69	5745
823.83	5741
823.97	5676
824.11	5535
824.25	5497
824.389	5497
824.529	5589
824.669	5482
824.809	5646
824.949	5634
825.089	5630
825.228	5562
825.368	5417
825.508	5322
825.648	5337
825.787	5376
825.927	5391
826.067	5227
826.206	5292
826.346	5372
826.485	5429
826.625	5398
826.765	5535
826.904	5478
827.044	5246
827.183	5208
827.323	5105
827.462	5212
827.601	5170
827.741	5227
827.88	5235
828.02	5086
828.159	5258
828.298	5250
828.437	5364
828.577	5315
828.716	5459
828.855	5299
828.994	5162
829.134	5132
829.273	5178
829.412	5090
829.551	5170
829.69	5143
829.829	5246
829.968	5330
830.107	5235
830.246	5303
830.385	5197
830.524	5140
830.663	5033
830.802	4987
830.941	4889
831.08	4862
831.219	4957
831.357	4980
831.496	5105
831.635	4930
831.774	4858
831.913	4873
832.051	4729
832.19	4771
832.329	4828
832.467	4698
832.606	4691
832.744	4736
832.883	4744
833.022	4763
833.16	4828
833.299	4828
833.437	4805
833.576	4843
833.714	4850
833.852	4870
833.991	4904
834.129	4968
834.267	4927
834.406	4911
834.544	4961
834.682	4984
834.821	4995
834.959	5185
835.097	4987
835.235	5094
835.373	5060
835.511	5117
835.65	5018
835.788	5025
835.926	4881
836.064	4843
836.202	4923
836.34	5162
836.478	5155
836.615	5128
836.753	5246
836.891	5273
837.029	5250
837.167	5185
837.305	5193
837.443	5132
837.58	5048
837.718	5197
837.856	5189
837.993	5155
838.131	5212
838.269	5185
838.406	5170
838.544	5174
838.681	5056
838.819	4980
838.956	4820
839.094	4881
839.231	4911
839.369	5090
839.506	5452
839.643	5254
839.781	5025
839.918	5056
840.055	5086
840.193	5064
840.33	5067
840.467	5109
840.604	5178
840.742	5421
840.879	5048
841.016	5147
841.153	5132
841.29	5334
841.427	5334
841.564	5364
841.701	5406
841.838	5261
841.975	5189
842.112	5254
842.249	5147
842.385	5102
842.522	5368
842.659	5189
842.796	5185
842.933	5189
843.069	5121
843.206	5162
843.343	5296
843.479	5231
843.616	5307
843.752	5022
843.889	5037
844.025	5201
844.162	4999
844.298	5208
844.435	5090
844.571	5006
844.708	5159
844.844	5307
844.98	5273
845.117	5299
845.253	5155
845.389	5056
845.525	5159
845.661	5098
845.798	5056
845.934	5170
846.07	5018
846.206	5189
846.342	5265
846.478	5181
846.614	4999
846.75	4953
846.886	4908
847.022	5113
847.158	5029
847.294	5048
847.429	5140
847.565	5060
847.701	5265
847.837	4843
847.972	4820
848.108	4953
848.244	4904
848.379	4809
848.515	4725
848.65	4752
848.786	4790
848.921	4729
849.057	4816
849.192	4908
849.328	4816
849.463	4843
849.598	4831
849.734	4748
849.869	4656
850.004	4626
850.14	4702
850.275	4618
850.41	4550
850.545	4516
850.68	4611
850.815	4615
850.95	4618
851.085	4839
851.22	4717
851.355	4668
851.49	4618
851.625	4584
851.76	4637
851.895	4554
852.03	4573
852.165	4637
852.299	4748
852.434	4774
852.569	4778
852.703	4767
852.838	4847
852.973	4911
853.107	4953
853.242	4763
853.376	4687
853.511	4561
853.645	4618
853.78	4755
853.914	4698
854.048	4634
854.183	4588
854.317	4656
854.451	4831
854.585	4672
854.72	4649
854.854	4748
854.988	4584
855.122	4641
855.256	4470
855.39	4698
855.524	4714
855.658	4759
855.792	4714
855.926	4763
856.06	4721
856.194	4790
856.327	4675
856.461	4607
856.595	4611
856.729	4569
856.862	4763
856.996	4668
857.13	4691
857.263	4786
857.397	4786
857.53	4630
857.664	4729
857.797	4782
857.931	4755
858.064	4687
858.197	4771
858.331	4630
858.464	4634
858.597	4508
858.731	4611
858.864	4683
858.997	4596
859.13	4634
859.263	4691
859.396	4649
859.529	4504
859.662	4527
859.795	4573
859.928	4592
860.061	4767
860.194	4767
860.327	4519
860.46	4538
860.592	4706
860.725	4717
860.858	4675
860.99	4596
861.123	4497
861.256	4538
861.388	4660
861.521	5292
861.653	4489
861.786	4459
861.918	4443
862.05	4519
862.183	4577
862.315	4584
862.447	4637
862.58	4527
862.712	4394
862.844	4329
862.976	4443
863.108	4398
863.24	4755
863.372	4390
863.504	4421
863.636	4398
863.768	4462
863.9	4405
864.032	4394
864.164	4432
864.296	4481
864.428	4569
864.559	4561
864.691	4565
864.823	4516
864.954	4462
865.086	4504
865.217	4455
865.349	4436
865.48	4447
865.612	4481
865.743	4603
865.875	4447
866.006	4432
866.137	4485
866.269	4455
866.4	4436
866.531	4432
866.662	4402
866.793	4356
866.924	4402
867.055	4466
867.186	4474
867.317	4383
867.448	4375
867.579	4402
867.71	4398
867.841	4375
867.972	4451
868.103	4443
868.233	4424
868.364	4417
868.495	4489
868.625	4683
868.756	4740
868.886	4554
869.017	4584
869.147	4748
869.278	4744
869.408	4645
869.539	4630
869.669	4736
869.799	4679
869.929	4725
870.06	4748
870.19	4968
870.32	4896
870.45	4930
870.58	5022
870.71	5079
870.84	5094
870.97	4949
871.1	4873
871.23	5151
871.36	5132
871.489	5014
871.619	5094
871.749	5083
871.879	5113
872.008	5166
872.138	5083
872.267	4995
872.397	4854
872.526	4790
872.656	4717
872.785	4805
872.915	4923
873.044	5041
873.173	4919
873.303	4953
873.432	4946
873.561	4980
873.69	4828
873.819	4908
873.948	4934
874.077	4847
874.206	4790
874.335	4824
874.464	4934
874.593	5037
874.722	4999
874.851	5086
874.979	5086
875.108	5033
875.237	4900
875.365	4885
875.494	4843
875.623	5018
875.751	4839
875.88	4873
876.008	4942
876.136	5033
876.265	5170
876.393	5345
876.521	5185
876.65	5185
876.778	5170
876.906	5045
877.034	5056
877.162	5071
877.29	5003
877.418	5071
877.546	5037
877.674	4987
877.802	4987
877.93	5022
878.058	4949
878.185	4885
878.313	4942
878.441	4919
878.568	4774
878.696	4866
878.824	4987
878.951	4991
879.079	5098
879.206	5254
879.333	5056
879.461	5025
879.588	4968
879.715	5140
879.842	5185
879.97	5022
880.097	4786
880.224	4763
880.351	4797
880.478	4843
880.605	4755
880.732	4835
880.859	5071
880.986	4889
881.112	4900
881.239	4740
881.366	4653
881.493	4588
881.619	4550
881.746	4588
881.872	4687
881.999	4634
882.125	4675
882.252	4767
882.378	4820
882.505	4919
882.631	4835
882.757	4618
882.883	4752
883.01	4698
883.136	4721
883.262	4561
883.388	4611
883.514	4763
883.64	4870
883.766	4793
883.892	4649
884.018	4675
884.143	4870
884.269	4961
884.395	4656
884.52	4622
884.646	4626
884.772	4573
884.897	4558
885.023	4626
885.148	4786
885.274	4847
885.399	4771
885.524	4733
885.65	4706
885.775	4717
885.9	4687
886.025	4824
886.15	4805
886.275	4744
886.4	4664
886.525	4725
886.65	4679
886.775	4664
886.9	4881
887.025	5045
887.149	4831
887.274	4653
887.399	4618
887.523	4592
887.648	4596
887.773	4558
887.897	4763
888.021	4767
888.146	4656
888.27	4763
888.395	4866
888.519	4771
888.643	4778
888.767	4801
888.891	4672
889.015	4565
889.139	4641
889.263	4542
889.387	4736
889.511	4877
889.635	4752
889.759	4634
889.883	4664
890.006	4698
890.13	4797
890.254	4577
890.377	4645
890.501	4523
890.624	4577
890.748	4641
890.871	4489
890.995	4428
891.118	4371
891.241	4504
891.364	4569
891.488	4611
891.611	4508
891.734	4573
891.857	4615
891.98	4535
892.103	4630
892.226	4519
892.349	4546
892.471	4409
892.594	4516
892.717	4584
892.839	4580
892.962	4573
893.085	4675
893.207	4641
893.33	4417
893.452	4538
893.575	4637
893.697	4577
893.819	4809
893.941	4801
894.064	4786
894.186	4554
894.308	4523
894.43	4706
894.552	4812
894.674	4706
894.796	4588
894.918	4599
895.04	4603
895.161	4691
895.283	4672
895.405	4538
895.526	4588
895.648	4691
895.769	4672
895.891	4714
896.012	4736
896.134	4702
896.255	4694
896.376	4618
896.498	4611
896.619	4691
896.74	4596
896.861	4679
896.982	4938
897.103	5052
897.224	4824
897.345	4717
897.466	4645
897.587	4771
897.708	4854
897.828	4736
897.949	4641
898.07	4573
898.19	4649
898.311	4843
898.431	4634
898.552	4694
898.672	4771
898.792	4793
898.913	4698
899.033	4626
899.153	4466
899.273	4470
899.393	4474
899.513	4500
899.633	4512
899.753	4512
899.873	4493
899.993	4558
900.113	4558
900.232	4611
900.352	4508
900.472	4470
900.591	4383
900.711	4500
900.83	4428
900.95	4607
901.069	4660
901.189	4504
901.308	4352
901.427	4306
901.546	4398
901.665	4470
901.784	4512
901.904	4371
902.023	4325
902.141	4219
902.26	4150
902.379	4325
902.498	4238
902.617	4204
902.735	4367
902.854	4443
902.973	4363
903.091	4200
903.21	4211
903.328	4295
903.446	4223
903.565	4253
903.683	4356
903.801	4291
903.919	4394
904.038	4413
904.156	4306
904.274	4409
904.392	4394
904.51	4386
904.627	4459
904.745	4558
904.863	4645
904.981	4413
905.098	4325
905.216	4352
905.334	4402
905.451	4375
905.569	4363
905.686	4577
905.803	4497
905.921	4417
906.038	4527
906.155	4481
906.272	4356
906.389	4417
906.506	4329
906.623	4337
906.74	4379
906.857	4329
906.974	4394
907.091	4573
907.208	4641
907.324	4588
907.441	4558
907.557	4337
907.674	4356
907.79	4268
907.907	4367
908.023	4436
908.139	4481
908.256	4394
908.372	4443
908.488	4462
908.604	4363
908.72	4333
908.836	4405
908.952	4337
909.068	4405
909.184	4546
909.3	4504
909.415	4565
909.531	4527
909.647	4360
909.762	4371
909.878	4356
909.993	4440
910.108	4390
910.224	4360
910.339	4421
910.454	4383
910.57	4341
910.685	4322
910.8	4618
910.915	4569
911.03	4504
911.145	4299
911.259	4348
911.374	4352
911.489	4284
911.604	4227
911.718	4158
911.833	4196
911.947	4071
912.062	4021
912.176	4150
912.291	4200
912.405	4257
912.519	4474
912.633	4504
912.748	4348
912.862	4325
912.976	4173
913.09	4112
913.204	4166
913.318	4246
913.431	4363
913.545	4341
913.659	4443
913.772	4337
913.886	4207
914	4211
914.113	4371
914.226	4409
914.34	4367
914.453	4215
914.566	4417
914.68	4280
914.793	4325
914.906	4196
915.019	4112
915.132	4040
915.245	4162
915.358	4204
915.47	4238
915.583	4219
915.696	4337
915.809	4409
915.921	4432
916.034	4261
916.146	4272
916.259	4204
916.371	4363
916.483	4348
916.595	4253
916.708	4303
916.82	4329
916.932	4318
917.044	4276
917.156	4303
917.268	4261
917.38	4280
917.491	4234
917.603	4306
917.715	4428
917.826	4447
917.938	4371
918.049	4211
918.161	4398
918.272	4512
918.384	4512
918.495	4432
918.606	4265
918.717	4227
918.828	4348
918.939	4371
919.05	4246
919.161	4367
919.272	4147
919.383	4215
919.494	4409
919.604	4569
919.715	4440
919.826	4333
919.936	4398
920.047	4542
920.157	4489
920.267	4698
920.378	4535
920.488	4512
920.598	4752
920.708	4847
920.818	4763
920.928	4793
921.038	4892
921.148	4908
921.258	4603
921.368	4550
921.477	4481
921.587	4489
921.697	4413
921.806	4527
921.916	4421
922.025	4234
922.134	4284
922.244	4188
922.353	4333
922.462	4192
922.571	4158
922.68	4074
922.789	3956
922.898	4029
923.007	3994
923.116	4093
923.224	4044
923.333	4029
923.442	3994
923.55	3949
923.659	4036
923.767	4093
923.876	4025
923.984	4135
924.092	3968
924.201	4040
924.309	4082
924.417	4124
924.525	4040
924.633	4120
924.741	5033
924.849	3937
924.956	4154
925.064	3945
925.172	3918
925.279	3987
925.387	4051
925.494	4006
925.602	4219
925.709	4215
925.816	4101
925.924	4166
926.031	4227
926.138	4177
926.245	4249
926.352	4124
926.459	4272
926.566	4310
926.673	4166
926.779	4063
926.886	4063
926.993	3979
927.099	3956
927.206	3937
927.312	3930
927.419	4032
927.525	4032
927.631	4128
927.737	3968
927.843	3903
927.95	3869
928.056	3964
928.162	4002
928.267	4044
928.373	4569
928.479	4105
928.585	3880
928.69	4010
928.796	4059
928.901	3972
929.007	3838
929.112	3979
929.218	4013
929.323	3934
929.428	3945
929.533	4128
929.638	3911
929.743	3907
929.848	4051
929.953	3964
930.058	3880
930.163	3759
930.267	3804
930.372	3945
930.477	3778
930.581	4071
930.685	3968
930.79	3812
930.894	3876
930.998	3831
931.103	4063
931.207	3694
931.311	3709
931.415	3701
931.519	3542
931.623	3595
