Data from test_V78500241_1293.txt Node
Date: Fri Mar 25 16:57:59 CST 2022
User: usil
Spectrometer: V785-0024
Trigger mode: 0
Integration Time (sec): 4.000000E-1
Scans to average: 1
Nonlinearity correction enabled: false
Boxcar width: 0
Storing dark spectrum: false
XAxis mode: Wavelengths
Number of Pixels in Spectrum: 1024
>>>>>Begin Spectral Data<<<<<
801.071	8024
801.214	8012
801.356	7852
801.499	7845
801.641	7795
801.783	7788
801.926	7921
802.068	7875
802.211	7944
802.353	7940
802.496	7769
802.638	7845
802.78	7890
802.923	7875
803.065	7879
803.208	7864
803.35	8005
803.492	8077
803.635	8161
803.777	8043
803.919	8138
804.061	8351
804.204	8123
804.346	8092
804.488	7940
804.63	8058
804.773	7970
804.915	8096
805.057	8317
805.199	8096
805.341	8221
805.483	8221
805.626	8267
805.768	8153
805.91	8218
806.052	8157
806.194	8088
806.336	8240
806.478	8103
806.62	8062
806.762	8164
806.904	8324
807.046	8503
807.188	8267
807.33	8320
807.472	8259
807.614	8107
807.756	8145
807.898	7978
808.04	7928
808.182	7894
808.324	7887
808.465	7913
808.607	8191
808.749	8145
808.891	8176
809.033	8317
809.174	8191
809.316	8027
809.458	7989
809.6	7997
809.741	8050
809.883	7974
810.025	8103
810.166	8050
810.308	8103
810.45	7989
810.591	7830
810.733	7746
810.875	7674
811.016	7510
811.158	7487
811.299	7613
811.441	7704
811.582	7731
811.724	7567
811.865	7556
812.007	7521
812.148	7495
812.29	7628
812.431	7719
812.573	7906
812.714	7989
812.855	8142
812.997	8157
813.138	8282
813.279	8199
813.421	8073
813.562	7993
813.703	7852
813.845	7769
813.986	7411
814.127	7266
814.268	7217
814.41	7149
814.551	7149
814.692	7206
814.833	7046
814.974	7118
815.115	7080
815.256	6966
815.397	6928
815.539	6916
815.68	6882
815.821	6810
815.962	6821
816.103	6779
816.244	6688
816.385	6616
816.526	6578
816.666	6460
816.807	6277
816.948	6456
817.089	6486
817.23	6426
817.371	6304
817.512	6407
817.653	6410
817.793	6338
817.934	6365
818.075	6467
818.216	6426
818.356	6414
818.497	6228
818.638	6091
818.778	6102
818.919	6095
819.06	6178
819.2	6342
819.341	6292
819.481	6369
819.622	6551
819.762	6719
819.903	6662
820.043	6589
820.184	6566
820.324	6601
820.465	6700
820.605	6646
820.746	6620
820.886	6471
821.026	6612
821.167	6658
821.307	6753
821.447	6787
821.588	6635
821.728	6536
821.868	6445
822.008	6308
822.149	6361
822.289	6334
822.429	6079
822.569	6026
822.709	6098
822.849	5847
822.99	5840
823.13	5866
823.27	5866
823.41	5775
823.55	5767
823.69	5745
823.83	5737
823.97	5649
824.11	5436
824.25	5520
824.389	5562
824.529	5577
824.669	5505
824.809	5611
824.949	5638
825.089	5554
825.228	5524
825.368	5353
825.508	5345
825.648	5330
825.787	5330
825.927	5337
826.067	5330
826.206	5258
826.346	5311
826.485	5372
826.625	5387
826.765	5543
826.904	5429
827.044	5261
827.183	5208
827.323	5140
827.462	5273
827.601	5235
827.741	5136
827.88	5201
828.02	5143
828.159	5235
828.298	5265
828.437	5357
828.577	5269
828.716	5459
828.855	5341
828.994	5193
829.134	5128
829.273	5231
829.412	5143
829.551	5109
829.69	5197
829.829	5242
829.968	5395
830.107	5296
830.246	5273
830.385	5204
830.524	5174
830.663	5151
830.802	4953
830.941	4892
831.08	4873
831.219	5041
831.357	4972
831.496	5140
831.635	4889
831.774	4850
831.913	4892
832.051	4752
832.19	4790
832.329	4858
832.467	4691
832.606	4645
832.744	4759
832.883	4714
833.022	4809
833.16	4847
833.299	4877
833.437	4839
833.576	4889
833.714	4900
833.852	4873
833.991	4889
834.129	4980
834.267	4968
834.406	4919
834.544	5037
834.682	4984
834.821	4991
834.959	5220
835.097	5018
835.235	5181
835.373	5128
835.511	5140
835.65	5033
835.788	5090
835.926	4957
836.064	4892
836.202	4949
836.34	5204
836.478	5265
836.615	5174
836.753	5204
836.891	5341
837.029	5288
837.167	5235
837.305	5189
837.443	5170
837.58	5067
837.718	5277
837.856	5284
837.993	5151
838.131	5250
838.269	5216
838.406	5242
838.544	5223
838.681	5098
838.819	5052
838.956	4881
839.094	4934
839.231	4957
839.369	5113
839.506	5471
839.643	5265
839.781	5083
839.918	5037
840.055	5147
840.193	5140
840.33	5121
840.467	5170
840.604	5197
840.742	5444
840.879	5147
841.016	5109
841.153	5189
841.29	5383
841.427	5383
841.564	5315
841.701	5395
841.838	5277
841.975	5261
842.112	5288
842.249	5193
842.385	5124
842.522	5368
842.659	5174
842.796	5178
842.933	5208
843.069	5193
843.206	5181
843.343	5322
843.479	5258
843.616	5296
843.752	5045
843.889	5018
844.025	5181
844.162	5060
844.298	5220
844.435	5090
844.571	5083
844.708	5197
844.844	5311
844.98	5353
845.117	5349
845.253	5136
845.389	5064
845.525	5147
845.661	5140
845.798	5033
845.934	5159
846.07	5029
846.206	5220
846.342	5273
846.478	5216
846.614	5075
846.75	4957
846.886	4976
847.022	5162
847.158	5083
847.294	5098
847.429	5121
847.565	5105
847.701	5372
847.837	4877
847.972	4828
848.108	4957
848.244	4942
848.379	4816
848.515	4759
848.65	4767
848.786	4755
848.921	4816
849.057	4881
849.192	4942
849.328	4850
849.463	4911
849.598	4797
849.734	4763
849.869	4755
850.004	4603
850.14	4706
850.275	4611
850.41	4546
850.545	4584
850.68	4603
850.815	4630
850.95	4615
851.085	4858
851.22	4771
851.355	4714
851.49	4641
851.625	4637
851.76	4717
851.895	4588
852.03	4580
852.165	4683
852.299	4733
852.434	4812
852.569	4774
852.703	4782
852.838	4824
852.973	4961
853.107	4953
853.242	4752
853.376	4717
853.511	4538
853.645	4637
853.78	4854
853.914	4698
854.048	4725
854.183	4656
854.317	4736
854.451	4793
854.585	4702
854.72	4649
854.854	4733
854.988	4611
855.122	4683
855.256	4531
855.39	4656
855.524	4812
855.658	4778
855.792	4694
855.926	4721
856.06	4778
856.194	4862
856.327	4702
856.461	4637
856.595	4706
856.729	4656
856.862	4801
856.996	4725
857.13	4721
857.263	4736
857.397	4816
857.53	4668
857.664	4736
857.797	4778
857.931	4801
858.064	4687
858.197	4755
858.331	4664
858.464	4626
858.597	4512
858.731	4660
858.864	4672
858.997	4630
859.13	4694
859.263	4694
859.396	4748
859.529	4580
859.662	4588
859.795	4596
859.928	4679
860.061	4767
860.194	4752
860.327	4630
860.46	4550
860.592	4698
860.725	4797
860.858	4729
860.99	4573
861.123	4596
861.256	4561
861.388	4634
861.521	5124
861.653	4489
861.786	4455
861.918	4466
862.05	4516
862.183	4584
862.315	4630
862.447	4683
862.58	4565
862.712	4470
862.844	4303
862.976	4516
863.108	4512
863.24	4934
863.372	4333
863.504	4402
863.636	4428
863.768	4516
863.9	4538
864.032	4375
864.164	4386
864.296	4478
864.428	4554
864.559	4561
864.691	4531
864.823	4554
864.954	4546
865.086	4558
865.217	4478
865.349	4447
865.48	4504
865.612	4481
865.743	4618
865.875	4466
866.006	4478
866.137	4481
866.269	4493
866.4	4508
866.531	4485
866.662	4432
866.793	4432
866.924	4451
867.055	4519
867.186	4462
867.317	4451
867.448	4402
867.579	4386
867.71	4421
867.841	4367
867.972	4542
868.103	4519
868.233	4451
868.364	4455
868.495	4508
868.625	4691
868.756	4767
868.886	4588
869.017	4656
869.147	4786
869.278	4835
869.408	4714
869.539	4645
869.669	4714
869.799	4660
869.929	4744
870.06	4763
870.19	4968
870.32	4968
870.45	4942
870.58	5006
870.71	5098
870.84	5136
870.97	4908
871.1	4968
871.23	5136
871.36	5086
871.489	5048
871.619	5090
871.749	5102
871.879	5140
872.008	5208
872.138	5086
872.267	4927
872.397	4835
872.526	4809
872.656	4721
872.785	4831
872.915	4946
873.044	5018
873.173	4934
873.303	4991
873.432	4919
873.561	4976
873.69	4870
873.819	4847
873.948	4946
874.077	4828
874.206	4786
874.335	4790
874.464	4930
874.593	5041
874.722	5045
874.851	5105
874.979	5045
875.108	5037
875.237	4885
875.365	4900
875.494	4896
875.623	4961
875.751	4820
875.88	4866
876.008	4980
876.136	5060
876.265	5197
876.393	5318
876.521	5277
876.65	5189
876.778	5174
876.906	5037
877.034	5033
877.162	5022
877.29	5010
877.418	5045
877.546	5010
877.674	5056
877.802	5117
877.93	5075
878.058	4942
878.185	4881
878.313	4976
878.441	4980
878.568	4809
878.696	4904
878.824	4980
878.951	5037
879.079	5083
879.206	5288
879.333	5117
879.461	5006
879.588	5006
879.715	5098
879.842	5250
879.97	4957
880.097	4812
880.224	4755
880.351	4809
880.478	4809
880.605	4835
880.732	4816
880.859	5121
880.986	4923
881.112	4900
881.239	4782
881.366	4672
881.493	4626
881.619	4618
881.746	4672
881.872	4687
881.999	4622
882.125	4710
882.252	4790
882.378	4824
882.505	4968
882.631	4831
882.757	4683
882.883	4733
883.01	4755
883.136	4714
883.262	4588
883.388	4634
883.514	4805
883.64	4877
883.766	4786
883.892	4698
884.018	4694
884.143	4911
884.269	5006
884.395	4736
884.52	4641
884.646	4653
884.772	4588
884.897	4550
885.023	4668
885.148	4774
885.274	4896
885.399	4816
885.524	4698
885.65	4721
885.775	4793
885.9	4706
886.025	4809
886.15	4835
886.275	4755
886.4	4664
886.525	4729
886.65	4706
886.775	4694
886.9	4968
887.025	5052
887.149	4809
887.274	4634
887.399	4596
887.523	4615
887.648	4607
887.773	4630
887.897	4767
888.021	4786
888.146	4679
888.27	4847
888.395	4927
888.519	4809
888.643	4850
888.767	4801
888.891	4668
889.015	4618
889.139	4672
889.263	4615
889.387	4740
889.511	4862
889.635	4778
889.759	4626
889.883	4675
890.006	4774
890.13	4839
890.254	4584
890.377	4687
890.501	4542
890.624	4531
890.748	4618
890.871	4569
890.995	4421
891.118	4329
891.241	4516
891.364	4542
891.488	4603
891.611	4542
891.734	4500
891.857	4641
891.98	4519
892.103	4683
892.226	4596
892.349	4546
892.471	4443
892.594	4497
892.717	4618
892.839	4584
892.962	4615
893.085	4679
893.207	4611
893.33	4481
893.452	4512
893.575	4679
893.697	4626
893.819	4786
893.941	4797
894.064	4721
894.186	4603
894.308	4584
894.43	4755
894.552	4850
894.674	4786
894.796	4565
894.918	4599
895.04	4577
895.161	4687
895.283	4645
895.405	4588
895.526	4641
895.648	4664
895.769	4649
895.891	4759
896.012	4744
896.134	4706
896.255	4641
896.376	4618
896.498	4653
896.619	4702
896.74	4599
896.861	4664
896.982	4870
897.103	5113
897.224	4812
897.345	4736
897.466	4637
897.587	4752
897.708	4877
897.828	4786
897.949	4691
898.07	4588
898.19	4607
898.311	4816
898.431	4702
898.552	4672
898.672	4797
898.792	4786
898.913	4740
899.033	4622
899.153	4550
899.273	4405
899.393	4508
899.513	4535
899.633	4504
899.753	4546
899.873	4550
899.993	4592
900.113	4523
900.232	4561
900.352	4565
900.472	4500
900.591	4436
900.711	4527
900.83	4451
900.95	4599
901.069	4706
901.189	4531
901.308	4367
901.427	4230
901.546	4367
901.665	4466
901.784	4489
901.904	4413
902.023	4303
902.141	4120
902.26	4219
902.379	4276
902.498	4257
902.617	4227
902.735	4352
902.854	4394
902.973	4295
903.091	4215
903.21	4223
903.328	4295
903.446	4257
903.565	4268
903.683	4318
903.801	4310
903.919	4421
904.038	4500
904.156	4333
904.274	4470
904.392	4409
904.51	4443
904.627	4493
904.745	4622
904.863	4649
904.981	4462
905.098	4348
905.216	4409
905.334	4440
905.451	4485
905.569	4447
905.686	4535
905.803	4618
905.921	4466
906.038	4565
906.155	4527
906.272	4417
906.389	4500
906.506	4348
906.623	4409
906.74	4470
906.857	4337
906.974	4424
907.091	4554
907.208	4702
907.324	4615
907.441	4546
907.557	4379
907.674	4367
907.79	4360
907.907	4432
908.023	4554
908.139	4550
908.256	4466
908.372	4500
908.488	4478
908.604	4375
908.72	4367
908.836	4443
908.952	4398
909.068	4455
909.184	4592
909.3	4504
909.415	4596
909.531	4626
909.647	4417
909.762	4390
909.878	4363
909.993	4478
910.108	4443
910.224	4421
910.339	4535
910.454	4474
910.57	4390
910.685	4371
910.8	4687
910.915	4630
911.03	4542
911.145	4322
911.259	4322
911.374	4440
911.489	4352
911.604	4352
911.718	4227
911.833	4261
911.947	4105
912.062	4128
912.176	4280
912.291	4310
912.405	4207
912.519	4516
912.633	4519
912.748	4394
912.862	4333
912.976	4238
913.09	4116
913.204	4200
913.318	4337
913.431	4440
913.545	4390
913.659	4481
913.772	4360
913.886	4306
914	4265
914.113	4432
914.226	4497
914.34	4451
914.453	4291
914.566	4432
914.68	4375
914.793	4375
914.906	4227
915.019	4158
915.132	4139
915.245	4215
915.358	4227
915.47	4238
915.583	4314
915.696	4333
915.809	4440
915.921	4462
916.034	4333
916.146	4310
916.259	4242
916.371	4417
916.483	4398
916.595	4325
916.708	4325
916.82	4375
916.932	4363
917.044	4348
917.156	4371
917.268	4261
917.38	4310
917.491	4299
917.603	4371
917.715	4443
917.826	4451
917.938	4386
918.049	4234
918.161	4413
918.272	4580
918.384	4550
918.495	4489
918.606	4356
918.717	4295
918.828	4360
918.939	4409
919.05	4303
919.161	4402
919.272	4173
919.383	4246
919.494	4485
919.604	4683
919.715	4440
919.826	4398
919.936	4383
920.047	4565
920.157	4470
920.267	4755
920.378	4542
920.488	4538
920.598	4763
920.708	4927
920.818	4752
920.928	4774
921.038	4968
921.148	4919
921.258	4653
921.368	4569
921.477	4531
921.587	4436
921.697	4405
921.806	4592
921.916	4481
922.025	4318
922.134	4306
922.244	4249
922.353	4333
922.462	4227
922.571	4154
922.68	4017
922.789	4051
922.898	4048
923.007	4002
923.116	4154
923.224	4048
923.333	4093
923.442	4067
923.55	4025
923.659	4044
923.767	4162
923.876	4021
923.984	4192
924.092	4029
924.201	4074
924.309	4150
924.417	4173
924.525	4135
924.633	4112
924.741	5094
924.849	3918
924.956	4185
925.064	3979
925.172	3934
925.279	3998
925.387	4090
925.494	4059
925.602	4261
925.709	4200
925.816	4097
925.924	4188
926.031	4223
926.138	4223
926.245	4276
926.352	4112
926.459	4268
926.566	4344
926.673	4188
926.779	4147
926.886	4105
926.993	3983
927.099	3994
927.206	3949
927.312	3975
927.419	4067
927.525	4048
927.631	4086
927.737	3934
927.843	4013
927.95	3876
928.056	4006
928.162	4006
928.267	4093
928.373	4679
928.479	4173
928.585	3865
928.69	4017
928.796	4116
928.901	3975
929.007	3850
929.112	3994
929.218	4010
929.323	3968
929.428	3956
929.533	4116
929.638	3949
929.743	4002
929.848	4051
929.953	4021
930.058	3945
930.163	3797
930.267	3880
930.372	4036
930.477	3850
930.581	4120
930.685	3998
930.79	3838
930.894	3903
930.998	3899
931.103	4021
931.207	3740
931.311	3717
931.415	3717
931.519	3568
931.623	3572
