Data from test_V78500241_1559.txt Node
Date: Fri Mar 25 16:59:50 CST 2022
User: usil
Spectrometer: V785-0024
Trigger mode: 0
Integration Time (sec): 4.000000E-1
Scans to average: 1
Nonlinearity correction enabled: false
Boxcar width: 0
Storing dark spectrum: false
XAxis mode: Wavelengths
Number of Pixels in Spectrum: 1024
>>>>>Begin Spectral Data<<<<<
801.071	8024
801.214	7963
801.356	7906
801.499	7883
801.641	7795
801.783	7761
801.926	7921
802.068	7883
802.211	8031
802.353	7974
802.496	7883
802.638	7894
802.78	7894
802.923	7894
803.065	7879
803.208	7845
803.35	7986
803.492	8054
803.635	8157
803.777	8058
803.919	8172
804.061	8442
804.204	8103
804.346	8046
804.488	7978
804.63	8088
804.773	7989
804.915	8096
805.057	8271
805.199	8134
805.341	8176
805.483	8275
805.626	8199
805.768	8107
805.91	8202
806.052	8259
806.194	8115
806.336	8259
806.478	8157
806.62	8081
806.762	8123
806.904	8225
807.046	8442
807.188	8374
807.33	8279
807.472	8271
807.614	8180
807.756	8050
807.898	7986
808.04	7849
808.182	7871
808.324	7917
808.465	7986
808.607	8191
808.749	8096
808.891	8176
809.033	8290
809.174	8210
809.316	8058
809.458	8043
809.6	7974
809.741	8012
809.883	7989
810.025	7997
810.166	8081
810.308	8031
810.45	7940
810.591	7841
810.733	7662
810.875	7624
811.016	7407
811.158	7495
811.299	7597
811.441	7704
811.582	7628
811.724	7559
811.865	7529
812.007	7502
812.148	7559
812.29	7590
812.431	7738
812.573	7833
812.714	8069
812.855	8088
812.997	8191
813.138	8301
813.279	8187
813.421	8050
813.562	7978
813.703	7792
813.845	7666
813.986	7426
814.127	7289
814.268	7171
814.41	7202
814.551	7209
814.692	7137
814.833	7149
814.974	7061
815.115	7107
815.256	6970
815.397	6947
815.539	6916
815.68	6806
815.821	6760
815.962	6856
816.103	6814
816.244	6696
816.385	6570
816.526	6597
816.666	6490
816.807	6315
816.948	6403
817.089	6483
817.23	6456
817.371	6331
817.512	6357
817.653	6361
817.793	6357
817.934	6369
818.075	6414
818.216	6426
818.356	6365
818.497	6163
818.638	6110
818.778	6140
818.919	6136
819.06	6148
819.2	6254
819.341	6281
819.481	6384
819.622	6483
819.762	6703
819.903	6681
820.043	6639
820.184	6563
820.324	6551
820.465	6749
820.605	6662
820.746	6604
820.886	6555
821.026	6662
821.167	6692
821.307	6749
821.447	6798
821.588	6620
821.728	6528
821.868	6448
822.008	6338
822.149	6365
822.289	6281
822.429	6121
822.569	6087
822.709	6114
822.849	5897
822.99	5927
823.13	5893
823.27	5942
823.41	5710
823.55	5786
823.69	5760
823.83	5794
823.97	5611
824.11	5528
824.25	5505
824.389	5501
824.529	5558
824.669	5543
824.809	5596
824.949	5665
825.089	5592
825.228	5558
825.368	5353
825.508	5345
825.648	5322
825.787	5303
825.927	5311
826.067	5296
826.206	5220
826.346	5349
826.485	5395
826.625	5383
826.765	5516
826.904	5459
827.044	5250
827.183	5246
827.323	5090
827.462	5265
827.601	5185
827.741	5189
827.88	5220
828.02	5109
828.159	5174
828.298	5318
828.437	5364
828.577	5296
828.716	5501
828.855	5265
828.994	5159
829.134	5155
829.273	5189
829.412	5128
829.551	5090
829.69	5166
829.829	5261
829.968	5368
830.107	5250
830.246	5299
830.385	5132
830.524	5105
830.663	5083
830.802	4919
830.941	4839
831.08	4885
831.219	5003
831.357	4987
831.496	5170
831.635	4904
831.774	4881
831.913	4881
832.051	4721
832.19	4774
832.329	4828
832.467	4729
832.606	4672
832.744	4778
832.883	4740
833.022	4801
833.16	4828
833.299	4885
833.437	4896
833.576	4839
833.714	4892
833.852	4946
833.991	4900
834.129	4968
834.267	4965
834.406	4866
834.544	5045
834.682	4987
834.821	4999
834.959	5227
835.097	4995
835.235	5239
835.373	5071
835.511	5162
835.65	5037
835.788	5067
835.926	4927
836.064	4957
836.202	4953
836.34	5208
836.478	5227
836.615	5143
836.753	5227
836.891	5292
837.029	5292
837.167	5296
837.305	5178
837.443	5185
837.58	5105
837.718	5284
837.856	5242
837.993	5170
838.131	5254
838.269	5235
838.406	5178
838.544	5204
838.681	5083
838.819	5041
838.956	4934
839.094	4949
839.231	4995
839.369	5136
839.506	5459
839.643	5277
839.781	5052
839.918	5064
840.055	5124
840.193	5090
840.33	5128
840.467	5124
840.604	5181
840.742	5467
840.879	5067
841.016	5090
841.153	5140
841.29	5410
841.427	5372
841.564	5379
841.701	5337
841.838	5334
841.975	5250
842.112	5250
842.249	5162
842.385	5208
842.522	5391
842.659	5189
842.796	5132
842.933	5193
843.069	5201
843.206	5231
843.343	5299
843.479	5204
843.616	5330
843.752	5064
843.889	5014
844.025	5296
844.162	5064
844.298	5208
844.435	5105
844.571	5155
844.708	5254
844.844	5322
844.98	5315
845.117	5322
845.253	5155
845.389	5174
845.525	5178
845.661	5170
845.798	5029
845.934	5105
846.07	5075
846.206	5246
846.342	5337
846.478	5235
846.614	5018
846.75	4927
846.886	4957
847.022	5197
847.158	5071
847.294	5105
847.429	5117
847.565	5132
847.701	5360
847.837	4889
847.972	4820
848.108	4961
848.244	4923
848.379	4801
848.515	4801
848.65	4744
848.786	4771
848.921	4797
849.057	4930
849.192	4873
849.328	4809
849.463	4911
849.598	4812
849.734	4824
849.869	4717
850.004	4630
850.14	4672
850.275	4634
850.41	4569
850.545	4565
850.68	4649
850.815	4599
850.95	4634
851.085	4858
851.22	4793
851.355	4698
851.49	4641
851.625	4687
851.76	4675
851.895	4565
852.03	4550
852.165	4668
852.299	4740
852.434	4816
852.569	4778
852.703	4790
852.838	4843
852.973	4930
853.107	4923
853.242	4782
853.376	4710
853.511	4607
853.645	4675
853.78	4816
853.914	4683
854.048	4694
854.183	4694
854.317	4721
854.451	4873
854.585	4717
854.72	4653
854.854	4763
854.988	4641
855.122	4675
855.256	4516
855.39	4679
855.524	4778
855.658	4748
855.792	4744
855.926	4793
856.06	4820
856.194	4797
856.327	4717
856.461	4653
856.595	4622
856.729	4634
856.862	4790
856.996	4733
857.13	4771
857.263	4774
857.397	4801
857.53	4714
857.664	4771
857.797	4774
857.931	4767
858.064	4672
858.197	4771
858.331	4706
858.464	4660
858.597	4538
858.731	4679
858.864	4630
858.997	4599
859.13	4618
859.263	4698
859.396	4714
859.529	4626
859.662	4592
859.795	4618
859.928	4615
860.061	4778
860.194	4778
860.327	4660
860.46	4584
860.592	4717
860.725	4748
860.858	4809
860.99	4580
861.123	4527
861.256	4531
861.388	4649
861.521	5261
861.653	4485
861.786	4466
861.918	4481
862.05	4531
862.183	4580
862.315	4596
862.447	4656
862.58	4542
862.712	4417
862.844	4341
862.976	4493
863.108	4504
863.24	4809
863.372	4344
863.504	4424
863.636	4440
863.768	4516
863.9	4447
864.032	4356
864.164	4413
864.296	4489
864.428	4523
864.559	4584
864.691	4561
864.823	4580
864.954	4538
865.086	4466
865.217	4474
865.349	4455
865.48	4466
865.612	4542
865.743	4656
865.875	4447
866.006	4474
866.137	4519
866.269	4459
866.4	4470
866.531	4485
866.662	4402
866.793	4409
866.924	4443
867.055	4531
867.186	4512
867.317	4462
867.448	4424
867.579	4470
867.71	4421
867.841	4383
867.972	4519
868.103	4481
868.233	4459
868.364	4451
868.495	4478
868.625	4691
868.756	4786
868.886	4630
869.017	4668
869.147	4797
869.278	4816
869.408	4656
869.539	4653
869.669	4717
869.799	4702
869.929	4793
870.06	4729
870.19	4976
870.32	4938
870.45	4923
870.58	5052
870.71	5109
870.84	5128
870.97	4965
871.1	4915
871.23	5174
871.36	5132
871.489	4987
871.619	5113
871.749	5071
871.879	5094
872.008	5151
872.138	5102
872.267	4999
872.397	4854
872.526	4839
872.656	4714
872.785	4820
872.915	4938
873.044	5094
873.173	4968
873.303	4995
873.432	5003
873.561	4961
873.69	4881
873.819	4850
873.948	4934
874.077	4850
874.206	4782
874.335	4881
874.464	4972
874.593	5098
874.722	4968
874.851	5132
874.979	5071
875.108	5037
875.237	4908
875.365	4892
875.494	4938
875.623	4999
875.751	4797
875.88	4942
876.008	5006
876.136	5090
876.265	5223
876.393	5341
876.521	5299
876.65	5273
876.778	5159
876.906	5094
877.034	5025
877.162	5029
877.29	5048
877.418	5105
877.546	5083
877.674	5060
877.802	5094
877.93	5060
878.058	4942
878.185	4843
878.313	5014
878.441	4946
878.568	4805
878.696	4934
878.824	4991
878.951	5045
879.079	5128
879.206	5349
879.333	5109
879.461	4957
879.588	5022
879.715	5113
879.842	5216
879.97	4980
880.097	4763
880.224	4778
880.351	4790
880.478	4847
880.605	4805
880.732	4816
880.859	5079
880.986	4930
881.112	4946
881.239	4812
881.366	4691
881.493	4603
881.619	4603
881.746	4672
881.872	4660
881.999	4683
882.125	4668
882.252	4801
882.378	4850
882.505	4919
882.631	4820
882.757	4717
882.883	4736
883.01	4744
883.136	4672
883.262	4603
883.388	4649
883.514	4847
883.64	4862
883.766	4809
883.892	4687
884.018	4755
884.143	4904
884.269	4984
884.395	4668
884.52	4603
884.646	4687
884.772	4618
884.897	4542
885.023	4733
885.148	4763
885.274	4839
885.399	4812
885.524	4733
885.65	4740
885.775	4729
885.9	4714
886.025	4900
886.15	4790
886.275	4706
886.4	4653
886.525	4771
886.65	4691
886.775	4698
886.9	4930
887.025	5033
887.149	4767
887.274	4637
887.399	4558
887.523	4641
887.648	4592
887.773	4596
887.897	4778
888.021	4870
888.146	4698
888.27	4824
888.395	4885
888.519	4786
888.643	4763
888.767	4885
888.891	4733
889.015	4573
889.139	4691
889.263	4588
889.387	4767
889.511	4847
889.635	4824
889.759	4656
889.883	4656
890.006	4736
890.13	4854
890.254	4599
890.377	4675
890.501	4527
890.624	4538
890.748	4691
890.871	4489
890.995	4424
891.118	4386
891.241	4523
891.364	4599
891.488	4634
891.611	4527
891.734	4546
891.857	4618
891.98	4573
892.103	4641
892.226	4622
892.349	4504
892.471	4478
892.594	4565
892.717	4584
892.839	4573
892.962	4558
893.085	4653
893.207	4577
893.33	4478
893.452	4535
893.575	4653
893.697	4592
893.819	4805
893.941	4854
894.064	4797
894.186	4565
894.308	4569
894.43	4786
894.552	4824
894.674	4782
894.796	4546
894.918	4596
895.04	4554
895.161	4729
895.283	4679
895.405	4592
895.526	4641
895.648	4691
895.769	4683
895.891	4740
896.012	4675
896.134	4721
896.255	4626
896.376	4637
896.498	4596
896.619	4736
896.74	4603
896.861	4660
896.982	4934
897.103	5052
897.224	4847
897.345	4767
897.466	4645
897.587	4725
897.708	4812
897.828	4774
897.949	4698
898.07	4588
898.19	4618
898.311	4793
898.431	4679
898.552	4729
898.672	4839
898.792	4820
898.913	4763
899.033	4592
899.153	4493
899.273	4436
899.393	4508
899.513	4497
899.633	4481
899.753	4569
899.873	4470
899.993	4554
900.113	4497
900.232	4596
900.352	4542
900.472	4512
900.591	4421
900.711	4497
900.83	4409
900.95	4637
901.069	4664
901.189	4542
901.308	4402
901.427	4344
901.546	4341
901.665	4474
901.784	4546
901.904	4383
902.023	4348
902.141	4215
902.26	4150
902.379	4287
902.498	4276
902.617	4284
902.735	4314
902.854	4409
902.973	4333
903.091	4223
903.21	4227
903.328	4284
903.446	4257
903.565	4223
903.683	4390
903.801	4303
903.919	4394
904.038	4443
904.156	4325
904.274	4451
904.392	4383
904.51	4470
904.627	4512
904.745	4618
904.863	4656
904.981	4428
905.098	4325
905.216	4386
905.334	4455
905.451	4409
905.569	4451
905.686	4542
905.803	4508
905.921	4398
906.038	4603
906.155	4493
906.272	4447
906.389	4478
906.506	4375
906.623	4367
906.74	4428
906.857	4348
906.974	4394
907.091	4615
907.208	4748
907.324	4626
907.441	4523
907.557	4337
907.674	4402
907.79	4344
907.907	4432
908.023	4577
908.139	4474
908.256	4500
908.372	4478
908.488	4440
908.604	4394
908.72	4356
908.836	4455
908.952	4405
909.068	4474
909.184	4637
909.3	4523
909.415	4641
909.531	4618
909.647	4379
909.762	4440
909.878	4398
909.993	4481
910.108	4402
910.224	4451
910.339	4500
910.454	4497
910.57	4428
910.685	4348
910.8	4653
910.915	4691
911.03	4531
911.145	4341
911.259	4405
911.374	4436
911.489	4314
911.604	4306
911.718	4200
911.833	4230
911.947	4101
912.062	4074
912.176	4272
912.291	4337
912.405	4261
912.519	4504
912.633	4527
912.748	4367
912.862	4386
912.976	4249
913.09	4109
913.204	4219
913.318	4257
913.431	4432
913.545	4436
913.659	4432
913.772	4398
913.886	4249
914	4272
914.113	4443
914.226	4497
914.34	4455
914.453	4276
914.566	4459
914.68	4310
914.793	4348
914.906	4185
915.019	4169
915.132	4135
915.245	4215
915.358	4246
915.47	4253
915.583	4306
915.696	4333
915.809	4462
915.921	4466
916.034	4272
916.146	4284
916.259	4272
916.371	4405
916.483	4386
916.595	4284
916.708	4344
916.82	4348
916.932	4360
917.044	4356
917.156	4424
917.268	4268
917.38	4344
917.491	4322
917.603	4379
917.715	4447
917.826	4519
917.938	4375
918.049	4276
918.161	4447
918.272	4550
918.384	4538
918.495	4470
918.606	4314
918.717	4322
918.828	4337
918.939	4390
919.05	4287
919.161	4367
919.272	4192
919.383	4246
919.494	4478
919.604	4656
919.715	4428
919.826	4360
919.936	4462
920.047	4577
920.157	4516
920.267	4721
920.378	4527
920.488	4535
920.598	4733
920.708	4862
920.818	4759
920.928	4820
921.038	4999
921.148	4930
921.258	4634
921.368	4573
921.477	4538
921.587	4497
921.697	4413
921.806	4592
921.916	4436
922.025	4299
922.134	4280
922.244	4246
922.353	4379
922.462	4158
922.571	4192
922.68	4051
922.789	3968
922.898	4120
923.007	4025
923.116	4112
923.224	4109
923.333	4074
923.442	3979
923.55	4002
923.659	4105
923.767	4116
923.876	4051
923.984	4128
924.092	4002
924.201	4131
924.309	4124
924.417	4139
924.525	4124
924.633	4154
924.741	5033
924.849	3949
924.956	4162
925.064	3983
925.172	3930
925.279	3953
925.387	4086
925.494	4063
925.602	4207
925.709	4223
925.816	4082
925.924	4135
926.031	4188
926.138	4219
926.245	4204
926.352	4090
926.459	4272
926.566	4363
926.673	4177
926.779	4086
926.886	4128
926.993	4010
927.099	3956
927.206	3960
927.312	4002
927.419	4078
927.525	4051
927.631	4139
927.737	3975
927.843	3945
927.95	3869
928.056	3987
928.162	4048
928.267	4082
928.373	4596
928.479	4150
928.585	3907
928.69	4029
928.796	4147
928.901	4021
929.007	3911
929.112	4048
929.218	4013
929.323	3960
929.428	3964
929.533	4158
929.638	3899
929.743	3953
929.848	4086
929.953	4067
930.058	3994
930.163	3785
930.267	3884
930.372	4021
930.477	3846
930.581	4135
930.685	3998
930.79	3865
930.894	3930
930.998	3838
931.103	4059
931.207	3759
931.311	3682
931.415	3698
931.519	3576
931.623	3618
