Data from test_V78500241_2458.txt Node
Date: Fri Mar 25 17:06:05 CST 2022
User: usil
Spectrometer: V785-0024
Trigger mode: 0
Integration Time (sec): 4.000000E-1
Scans to average: 1
Nonlinearity correction enabled: false
Boxcar width: 0
Storing dark spectrum: false
XAxis mode: Wavelengths
Number of Pixels in Spectrum: 1024
>>>>>Begin Spectral Data<<<<<
801.071	8039
801.214	7978
801.356	7837
801.499	7833
801.641	7769
801.783	7799
801.926	7989
802.068	7906
802.211	7989
802.353	7974
802.496	7830
802.638	7841
802.78	7913
802.923	7883
803.065	7879
803.208	7807
803.35	7913
803.492	8024
803.635	8202
803.777	8046
803.919	8157
804.061	8473
804.204	8092
804.346	8145
804.488	7997
804.63	8145
804.773	8020
804.915	8107
805.057	8305
805.199	8199
805.341	8103
805.483	8240
805.626	8259
805.768	8119
805.91	8202
806.052	8176
806.194	8172
806.336	8237
806.478	8050
806.62	8043
806.762	8088
806.904	8214
807.046	8473
807.188	8347
807.33	8294
807.472	8339
807.614	8092
807.756	8126
807.898	8005
808.04	7879
808.182	7826
808.324	7890
808.465	7902
808.607	8069
808.749	8069
808.891	8248
809.033	8282
809.174	8229
809.316	8092
809.458	8084
809.6	7959
809.741	8065
809.883	7997
810.025	8050
810.166	8092
810.308	8001
810.45	7978
810.591	7940
810.733	7788
810.875	7658
811.016	7620
811.158	7472
811.299	7605
811.441	7750
811.582	7753
811.724	7495
811.865	7578
812.007	7533
812.148	7651
812.29	7609
812.431	7772
812.573	7909
812.714	7989
812.855	8043
812.997	8199
813.138	8332
813.279	8180
813.421	8050
813.562	8012
813.703	7803
813.845	7738
813.986	7438
814.127	7206
814.268	7228
814.41	7160
814.551	7168
814.692	7198
814.833	7080
814.974	7152
815.115	7168
815.256	6947
815.397	6856
815.539	6943
815.68	6818
815.821	6745
815.962	6863
816.103	6859
816.244	6711
816.385	6597
816.526	6623
816.666	6532
816.807	6369
816.948	6422
817.089	6521
817.23	6441
817.371	6395
817.512	6414
817.653	6361
817.793	6353
817.934	6437
818.075	6475
818.216	6460
818.356	6433
818.497	6254
818.638	6079
818.778	6159
818.919	6152
819.06	6152
819.2	6308
819.341	6311
819.481	6388
819.622	6536
819.762	6749
819.903	6764
820.043	6601
820.184	6544
820.324	6620
820.465	6726
820.605	6650
820.746	6578
820.886	6490
821.026	6673
821.167	6684
821.307	6821
821.447	6783
821.588	6642
821.728	6551
821.868	6570
822.008	6319
822.149	6380
822.289	6323
822.429	6148
822.569	6110
822.709	6087
822.849	5927
822.99	5942
823.13	5904
823.27	5870
823.41	5771
823.55	5798
823.69	5737
823.83	5741
823.97	5604
824.11	5554
824.25	5512
824.389	5600
824.529	5646
824.669	5482
824.809	5653
824.949	5684
825.089	5661
825.228	5512
825.368	5414
825.508	5349
825.648	5402
825.787	5436
825.927	5459
826.067	5311
826.206	5353
826.346	5383
826.485	5421
826.625	5467
826.765	5573
826.904	5547
827.044	5330
827.183	5239
827.323	5166
827.462	5273
827.601	5220
827.741	5231
827.88	5296
828.02	5159
828.159	5292
828.298	5360
828.437	5402
828.577	5280
828.716	5486
828.855	5349
828.994	5273
829.134	5185
829.273	5181
829.412	5197
829.551	5117
829.69	5204
829.829	5273
829.968	5421
830.107	5318
830.246	5311
830.385	5204
830.524	5121
830.663	5117
830.802	5045
830.941	4915
831.08	4904
831.219	5037
831.357	5022
831.496	5246
831.635	4991
831.774	4862
831.913	4949
832.051	4736
832.19	4801
832.329	4877
832.467	4778
832.606	4683
832.744	4767
832.883	4763
833.022	4759
833.16	4793
833.299	4896
833.437	4873
833.576	4889
833.714	4892
833.852	4919
833.991	4938
834.129	4991
834.267	4942
834.406	4961
834.544	5010
834.682	5018
834.821	5045
834.959	5197
835.097	5037
835.235	5151
835.373	5136
835.511	5128
835.65	5102
835.788	5102
835.926	4942
836.064	4949
836.202	4976
836.34	5166
836.478	5250
836.615	5193
836.753	5242
836.891	5330
837.029	5299
837.167	5231
837.305	5162
837.443	5220
837.58	5132
837.718	5280
837.856	5204
837.993	5147
838.131	5277
838.269	5220
838.406	5292
838.544	5242
838.681	5060
838.819	4999
838.956	5006
839.094	4946
839.231	5014
839.369	5105
839.506	5471
839.643	5315
839.781	5128
839.918	5041
840.055	5086
840.193	5128
840.33	5140
840.467	5197
840.604	5220
840.742	5467
840.879	5128
841.016	5159
841.153	5166
841.29	5364
841.427	5364
841.564	5318
841.701	5417
841.838	5296
841.975	5269
842.112	5318
842.249	5162
842.385	5212
842.522	5318
842.659	5235
842.796	5166
842.933	5254
843.069	5170
843.206	5223
843.343	5261
843.479	5284
843.616	5280
843.752	5067
843.889	5022
844.025	5280
844.162	5025
844.298	5303
844.435	5132
844.571	5102
844.708	5280
844.844	5368
844.98	5383
845.117	5360
845.253	5208
845.389	5105
845.525	5193
845.661	5185
845.798	5029
845.934	5159
846.07	5086
846.206	5235
846.342	5280
846.478	5216
846.614	5022
846.75	4995
846.886	4949
847.022	5136
847.158	5067
847.294	5086
847.429	5136
847.565	5117
847.701	5318
847.837	4900
847.972	4782
848.108	4987
848.244	4987
848.379	4786
848.515	4782
848.65	4759
848.786	4797
848.921	4824
849.057	4968
849.192	4908
849.328	4824
849.463	4881
849.598	4839
849.734	4790
849.869	4733
850.004	4721
850.14	4691
850.275	4656
850.41	4565
850.545	4580
850.68	4656
850.815	4691
850.95	4645
851.085	4873
851.22	4729
851.355	4733
851.49	4637
851.625	4653
851.76	4668
851.895	4580
852.03	4569
852.165	4649
852.299	4740
852.434	4809
852.569	4824
852.703	4748
852.838	4930
852.973	5029
853.107	4957
853.242	4744
853.376	4660
853.511	4542
853.645	4611
853.78	4812
853.914	4714
854.048	4698
854.183	4702
854.317	4702
854.451	4862
854.585	4710
854.72	4664
854.854	4793
854.988	4660
855.122	4767
855.256	4573
855.39	4717
855.524	4820
855.658	4702
855.792	4725
855.926	4782
856.06	4782
856.194	4873
856.327	4740
856.461	4596
856.595	4698
856.729	4637
856.862	4778
856.996	4721
857.13	4786
857.263	4767
857.397	4797
857.53	4706
857.664	4748
857.797	4816
857.931	4790
858.064	4714
858.197	4748
858.331	4683
858.464	4656
858.597	4573
858.731	4683
858.864	4653
858.997	4626
859.13	4664
859.263	4687
859.396	4725
859.529	4626
859.662	4611
859.795	4535
859.928	4675
860.061	4805
860.194	4763
860.327	4607
860.46	4592
860.592	4694
860.725	4759
860.858	4755
860.99	4592
861.123	4542
861.256	4527
861.388	4626
861.521	5174
861.653	4542
861.786	4470
861.918	4489
862.05	4500
862.183	4588
862.315	4622
862.447	4691
862.58	4596
862.712	4398
862.844	4325
862.976	4493
863.108	4485
863.24	4908
863.372	4363
863.504	4470
863.636	4443
863.768	4500
863.9	4462
864.032	4367
864.164	4421
864.296	4500
864.428	4565
864.559	4588
864.691	4584
864.823	4565
864.954	4554
865.086	4504
865.217	4451
865.349	4436
865.48	4523
865.612	4558
865.743	4634
865.875	4546
866.006	4409
866.137	4504
866.269	4440
866.4	4459
866.531	4428
866.662	4474
866.793	4440
866.924	4459
867.055	4500
867.186	4489
867.317	4424
867.448	4390
867.579	4379
867.71	4432
867.841	4383
867.972	4489
868.103	4485
868.233	4497
868.364	4508
868.495	4500
868.625	4649
868.756	4763
868.886	4596
869.017	4637
869.147	4824
869.278	4797
869.408	4694
869.539	4675
869.669	4774
869.799	4706
869.929	4790
870.06	4736
870.19	5006
870.32	4946
870.45	4938
870.58	5029
870.71	5098
870.84	5102
870.97	4965
871.1	4911
871.23	5132
871.36	5105
871.489	5037
871.619	5128
871.749	5109
871.879	5162
872.008	5162
872.138	5094
872.267	4949
872.397	4889
872.526	4809
872.656	4752
872.785	4812
872.915	5006
873.044	5022
873.173	4896
873.303	4980
873.432	4984
873.561	4995
873.69	4896
873.819	4881
873.948	4961
874.077	4870
874.206	4797
874.335	4824
874.464	4923
874.593	5079
874.722	4987
874.851	5151
874.979	5143
875.108	5056
875.237	4934
875.365	4885
875.494	4892
875.623	5022
875.751	4854
875.88	4911
876.008	4961
876.136	5048
876.265	5223
876.393	5406
876.521	5235
876.65	5284
876.778	5174
876.906	5098
877.034	5033
877.162	5045
877.29	5003
877.418	5060
877.546	5105
877.674	5052
877.802	5045
877.93	5113
878.058	4968
878.185	4938
878.313	4991
878.441	4980
878.568	4820
878.696	4870
878.824	4999
878.951	4972
879.079	5136
879.206	5326
879.333	5121
879.461	5006
879.588	5041
879.715	5124
879.842	5227
879.97	5033
880.097	4835
880.224	4744
880.351	4843
880.478	4862
880.605	4809
880.732	4778
880.859	5143
880.986	4923
881.112	4911
881.239	4786
881.366	4675
881.493	4626
881.619	4615
881.746	4637
881.872	4668
881.999	4634
882.125	4679
882.252	4786
882.378	4850
882.505	4972
882.631	4862
882.757	4702
882.883	4729
883.01	4752
883.136	4691
883.262	4626
883.388	4637
883.514	4843
883.64	4850
883.766	4786
883.892	4691
884.018	4763
884.143	4885
884.269	4999
884.395	4664
884.52	4641
884.646	4611
884.772	4668
884.897	4569
885.023	4691
885.148	4771
885.274	4881
885.399	4847
885.524	4767
885.65	4710
885.775	4725
885.9	4721
886.025	4843
886.15	4805
886.275	4702
886.4	4668
886.525	4706
886.65	4729
886.775	4702
886.9	4938
887.025	5037
887.149	4774
887.274	4694
887.399	4645
887.523	4645
887.648	4588
887.773	4577
887.897	4771
888.021	4755
888.146	4679
888.27	4824
888.395	4927
888.519	4835
888.643	4839
888.767	4850
888.891	4714
889.015	4603
889.139	4656
889.263	4656
889.387	4774
889.511	4843
889.635	4774
889.759	4675
889.883	4653
890.006	4664
890.13	4900
890.254	4615
890.377	4725
890.501	4538
890.624	4512
890.748	4694
890.871	4527
890.995	4474
891.118	4394
891.241	4577
891.364	4558
891.488	4645
891.611	4474
891.734	4531
891.857	4679
891.98	4599
892.103	4607
892.226	4637
892.349	4500
892.471	4443
892.594	4569
892.717	4588
892.839	4580
892.962	4599
893.085	4683
893.207	4622
893.33	4466
893.452	4493
893.575	4641
893.697	4550
893.819	4763
893.941	4828
894.064	4774
894.186	4622
894.308	4561
894.43	4740
894.552	4809
894.674	4733
894.796	4569
894.918	4615
895.04	4584
895.161	4740
895.283	4694
895.405	4588
895.526	4618
895.648	4683
895.769	4687
895.891	4771
896.012	4774
896.134	4698
896.255	4702
896.376	4634
896.498	4630
896.619	4771
896.74	4626
896.861	4641
896.982	4980
897.103	5083
897.224	4839
897.345	4797
897.466	4641
897.587	4771
897.708	4854
897.828	4771
897.949	4664
898.07	4596
898.19	4660
898.311	4866
898.431	4668
898.552	4721
898.672	4835
898.792	4801
898.913	4778
899.033	4615
899.153	4523
899.273	4417
899.393	4554
899.513	4584
899.633	4577
899.753	4558
899.873	4512
899.993	4611
900.113	4561
900.232	4580
900.352	4519
900.472	4531
900.591	4386
900.711	4523
900.83	4432
900.95	4649
901.069	4664
901.189	4538
901.308	4371
901.427	4344
901.546	4394
901.665	4474
901.784	4538
901.904	4402
902.023	4303
902.141	4173
902.26	4154
902.379	4314
902.498	4284
902.617	4211
902.735	4398
902.854	4413
902.973	4379
903.091	4238
903.21	4287
903.328	4295
903.446	4306
903.565	4219
903.683	4386
903.801	4333
903.919	4409
904.038	4413
904.156	4318
904.274	4447
904.392	4360
904.51	4466
904.627	4470
904.745	4599
904.863	4622
904.981	4436
905.098	4337
905.216	4394
905.334	4455
905.451	4379
905.569	4443
905.686	4558
905.803	4554
905.921	4478
906.038	4599
906.155	4489
906.272	4375
906.389	4497
906.506	4352
906.623	4398
906.74	4432
906.857	4272
906.974	4409
907.091	4569
907.208	4656
907.324	4588
907.441	4538
907.557	4306
907.674	4356
907.79	4363
907.907	4390
908.023	4508
908.139	4424
908.256	4405
908.372	4516
908.488	4489
908.604	4348
908.72	4325
908.836	4451
908.952	4333
909.068	4428
909.184	4596
909.3	4493
909.415	4550
909.531	4584
909.647	4329
909.762	4383
909.878	4367
909.993	4455
910.108	4413
910.224	4428
910.339	4470
910.454	4379
910.57	4348
910.685	4303
910.8	4615
910.915	4637
911.03	4485
911.145	4306
911.259	4325
911.374	4356
911.489	4303
911.604	4265
911.718	4150
911.833	4185
911.947	4101
912.062	3994
912.176	4188
912.291	4188
912.405	4265
912.519	4455
912.633	4481
912.748	4344
912.862	4314
912.976	4211
913.09	4109
913.204	4200
913.318	4272
913.431	4337
913.545	4398
913.659	4481
913.772	4352
913.886	4261
914	4219
914.113	4398
914.226	4455
914.34	4417
914.453	4295
914.566	4424
914.68	4341
914.793	4367
914.906	4154
915.019	4124
915.132	4097
915.245	4173
915.358	4246
915.47	4253
915.583	4257
915.696	4318
915.809	4405
915.921	4455
916.034	4215
916.146	4303
916.259	4242
916.371	4329
916.483	4367
916.595	4276
916.708	4333
916.82	4333
916.932	4325
917.044	4363
917.156	4306
917.268	4242
917.38	4276
917.491	4227
917.603	4402
917.715	4421
917.826	4402
917.938	4329
918.049	4265
918.161	4409
918.272	4584
918.384	4565
918.495	4436
918.606	4261
918.717	4268
918.828	4341
918.939	4367
919.05	4261
919.161	4367
919.272	4120
919.383	4257
919.494	4451
919.604	4679
919.715	4421
919.826	4329
919.936	4424
920.047	4481
920.157	4455
920.267	4717
920.378	4512
920.488	4474
920.598	4687
920.708	4858
920.818	4831
920.928	4717
921.038	4900
921.148	4911
921.258	4626
921.368	4550
921.477	4500
921.587	4428
921.697	4394
921.806	4580
921.916	4394
922.025	4246
922.134	4257
922.244	4207
922.353	4333
922.462	4173
922.571	4158
922.68	3983
922.789	3968
922.898	4040
923.007	3975
923.116	4143
923.224	4086
923.333	4032
923.442	3937
923.55	3953
923.659	4021
923.767	4112
923.876	4036
923.984	4116
924.092	3975
924.201	4044
924.309	4097
924.417	4131
924.525	4067
924.633	4078
924.741	5075
924.849	3899
924.956	4120
925.064	3949
925.172	3892
925.279	3972
925.387	4067
925.494	4055
925.602	4249
925.709	4192
925.816	4071
925.924	4120
926.031	4219
926.138	4166
926.245	4200
926.352	4074
926.459	4295
926.566	4310
926.673	4154
926.779	4093
926.886	4093
926.993	3937
927.099	3949
927.206	3994
927.312	3956
927.419	4051
927.525	4006
927.631	4135
927.737	3975
927.843	3918
927.95	3823
928.056	3926
928.162	3960
928.267	4116
928.373	4691
928.479	4112
928.585	3884
928.69	4040
928.796	4074
928.901	3975
929.007	3865
929.112	4029
929.218	4017
929.323	3953
929.428	3964
929.533	4109
929.638	3892
929.743	3975
929.848	4002
929.953	3998
930.058	3972
930.163	3759
930.267	3835
930.372	3960
930.477	3819
930.581	4071
930.685	3960
930.79	3865
930.894	3918
930.998	3835
931.103	4040
931.207	3724
931.311	3679
931.415	3682
931.519	3507
931.623	3542
