Data from test_V78500241_313.txt Node
Date: Fri Mar 25 16:51:10 CST 2022
User: usil
Spectrometer: V785-0024
Trigger mode: 0
Integration Time (sec): 4.000000E-1
Scans to average: 1
Nonlinearity correction enabled: false
Boxcar width: 0
Storing dark spectrum: false
XAxis mode: Wavelengths
Number of Pixels in Spectrum: 1024
>>>>>Begin Spectral Data<<<<<
801.071	8065
801.214	8035
801.356	7909
801.499	7868
801.641	7822
801.783	7890
801.926	8073
802.068	7921
802.211	7978
802.353	8024
802.496	7841
802.638	7951
802.78	7868
802.923	7955
803.065	7921
803.208	7887
803.35	7978
803.492	8092
803.635	8138
803.777	8016
803.919	8145
804.061	8450
804.204	8138
804.346	8012
804.488	7955
804.63	8046
804.773	8050
804.915	8073
805.057	8267
805.199	8157
805.341	8233
805.483	8263
805.626	8202
805.768	8077
805.91	8145
806.052	8168
806.194	8126
806.336	8267
806.478	8180
806.62	8084
806.762	8168
806.904	8263
807.046	8560
807.188	8339
807.33	8263
807.472	8336
807.614	8138
807.756	8111
807.898	7951
808.04	7871
808.182	7852
808.324	7909
808.465	7967
808.607	8054
808.749	8138
808.891	8107
809.033	8279
809.174	8183
809.316	8050
809.458	8081
809.6	7997
809.741	8031
809.883	8001
810.025	8123
810.166	8107
810.308	8027
810.45	7955
810.591	7894
810.733	7822
810.875	7651
811.016	7537
811.158	7533
811.299	7616
811.441	7788
811.582	7792
811.724	7540
811.865	7506
812.007	7647
812.148	7616
812.29	7624
812.431	7723
812.573	7894
812.714	7993
812.855	8092
812.997	8229
813.138	8267
813.279	8168
813.421	8126
813.562	8043
813.703	7826
813.845	7753
813.986	7487
814.127	7266
814.268	7228
814.41	7228
814.551	7194
814.692	7110
814.833	7069
814.974	7084
815.115	7118
815.256	6886
815.397	6928
815.539	7012
815.68	6802
815.821	6745
815.962	6886
816.103	6814
816.244	6669
816.385	6593
816.526	6623
816.666	6513
816.807	6327
816.948	6418
817.089	6483
817.23	6376
817.371	6422
817.512	6327
817.653	6376
817.793	6384
817.934	6395
818.075	6452
818.216	6464
818.356	6384
818.497	6216
818.638	6095
818.778	6171
818.919	6140
819.06	6144
819.2	6319
819.341	6289
819.481	6410
819.622	6471
819.762	6715
819.903	6669
820.043	6601
820.184	6525
820.324	6536
820.465	6692
820.605	6658
820.746	6604
820.886	6498
821.026	6681
821.167	6681
821.307	6791
821.447	6821
821.588	6665
821.728	6597
821.868	6483
822.008	6323
822.149	6346
822.289	6315
822.429	6136
822.569	6102
822.709	6072
822.849	5939
822.99	5885
823.13	5927
823.27	5893
823.41	5805
823.55	5767
823.69	5741
823.83	5802
823.97	5680
824.11	5516
824.25	5532
824.389	5551
824.529	5638
824.669	5543
824.809	5684
824.949	5688
825.089	5608
825.228	5539
825.368	5474
825.508	5353
825.648	5364
825.787	5330
825.927	5357
826.067	5315
826.206	5311
826.346	5414
826.485	5429
826.625	5459
826.765	5604
826.904	5528
827.044	5280
827.183	5239
827.323	5159
827.462	5250
827.601	5216
827.741	5181
827.88	5258
828.02	5170
828.159	5265
828.298	5318
828.437	5406
828.577	5292
828.716	5505
828.855	5357
828.994	5208
829.134	5216
829.273	5212
829.412	5212
829.551	5189
829.69	5208
829.829	5334
829.968	5455
830.107	5360
830.246	5337
830.385	5239
830.524	5170
830.663	5086
830.802	5060
830.941	4957
831.08	4919
831.219	5083
831.357	5060
831.496	5155
831.635	4968
831.774	4927
831.913	4938
832.051	4843
832.19	4763
832.329	4862
832.467	4744
832.606	4714
832.744	4809
832.883	4767
833.022	4782
833.16	4797
833.299	4923
833.437	4900
833.576	4881
833.714	4892
833.852	4915
833.991	4904
834.129	4972
834.267	5003
834.406	4968
834.544	5018
834.682	5018
834.821	5003
834.959	5189
835.097	5064
835.235	5197
835.373	5090
835.511	5151
835.65	5094
835.788	5067
835.926	4934
836.064	4927
836.202	4908
836.34	5246
836.478	5269
836.615	5159
836.753	5284
836.891	5318
837.029	5288
837.167	5235
837.305	5220
837.443	5170
837.58	5098
837.718	5284
837.856	5223
837.993	5181
838.131	5280
838.269	5201
838.406	5235
838.544	5292
838.681	5094
838.819	5098
838.956	4923
839.094	4984
839.231	5075
839.369	5178
839.506	5463
839.643	5334
839.781	5086
839.918	5037
840.055	5155
840.193	5166
840.33	5181
840.467	5204
840.604	5280
840.742	5482
840.879	5060
841.016	5102
841.153	5216
841.29	5364
841.427	5364
841.564	5341
841.701	5444
841.838	5311
841.975	5280
842.112	5337
842.249	5136
842.385	5128
842.522	5353
842.659	5197
842.796	5216
842.933	5250
843.069	5212
843.206	5204
843.343	5334
843.479	5303
843.616	5242
843.752	5052
843.889	5086
844.025	5254
844.162	5022
844.298	5258
844.435	5117
844.571	5090
844.708	5239
844.844	5341
844.98	5387
845.117	5322
845.253	5193
845.389	5105
845.525	5166
845.661	5216
845.798	5094
845.934	5143
846.07	5121
846.206	5212
846.342	5311
846.478	5166
846.614	5102
846.75	5045
846.886	4980
847.022	5170
847.158	5056
847.294	5117
847.429	5159
847.565	5067
847.701	5318
847.837	4904
847.972	4843
848.108	4995
848.244	4980
848.379	4797
848.515	4828
848.65	4767
848.786	4782
848.921	4824
849.057	4927
849.192	4938
849.328	4828
849.463	4923
849.598	4862
849.734	4816
849.869	4744
850.004	4641
850.14	4729
850.275	4702
850.41	4569
850.545	4596
850.68	4660
850.815	4675
850.95	4672
851.085	4915
851.22	4771
851.355	4687
851.49	4691
851.625	4675
851.76	4672
851.895	4599
852.03	4618
852.165	4714
852.299	4782
852.434	4771
852.569	4774
852.703	4828
852.838	4889
852.973	4984
853.107	4984
853.242	4786
853.376	4683
853.511	4622
853.645	4630
853.78	4854
853.914	4714
854.048	4694
854.183	4668
854.317	4782
854.451	4847
854.585	4710
854.72	4694
854.854	4805
854.988	4615
855.122	4679
855.256	4542
855.39	4767
855.524	4809
855.658	4786
855.792	4771
855.926	4755
856.06	4812
856.194	4858
856.327	4744
856.461	4634
856.595	4698
856.729	4691
856.862	4881
856.996	4771
857.13	4805
857.263	4778
857.397	4812
857.53	4649
857.664	4744
857.797	4778
857.931	4850
858.064	4736
858.197	4778
858.331	4702
858.464	4668
858.597	4542
858.731	4664
858.864	4698
858.997	4683
859.13	4645
859.263	4710
859.396	4774
859.529	4653
859.662	4622
859.795	4596
859.928	4698
860.061	4782
860.194	4786
860.327	4668
860.46	4580
860.592	4763
860.725	4710
860.858	4767
860.99	4584
861.123	4580
861.256	4519
861.388	4634
861.521	5307
861.653	4523
861.786	4462
861.918	4504
862.05	4554
862.183	4527
862.315	4660
862.447	4634
862.58	4573
862.712	4470
862.844	4344
862.976	4485
863.108	4481
863.24	4930
863.372	4356
863.504	4436
863.636	4413
863.768	4504
863.9	4455
864.032	4375
864.164	4421
864.296	4462
864.428	4603
864.559	4546
864.691	4584
864.823	4527
864.954	4508
865.086	4550
865.217	4474
865.349	4455
865.48	4478
865.612	4508
865.743	4645
865.875	4493
866.006	4459
866.137	4432
866.269	4459
866.4	4440
866.531	4481
866.662	4424
866.793	4500
866.924	4424
867.055	4512
867.186	4493
867.317	4417
867.448	4367
867.579	4383
867.71	4436
867.841	4383
867.972	4523
868.103	4497
868.233	4466
868.364	4470
868.495	4531
868.625	4763
868.756	4782
868.886	4599
869.017	4656
869.147	4752
869.278	4797
869.408	4694
869.539	4683
869.669	4786
869.799	4694
869.929	4797
870.06	4816
870.19	5037
870.32	4942
870.45	4980
870.58	5025
870.71	5140
870.84	5159
870.97	4942
871.1	4968
871.23	5197
871.36	5136
871.489	5102
871.619	5140
871.749	5124
871.879	5124
872.008	5197
872.138	5094
872.267	4991
872.397	4862
872.526	4839
872.656	4782
872.785	4820
872.915	4991
873.044	5064
873.173	4980
873.303	4999
873.432	4980
873.561	5006
873.69	4938
873.819	4889
873.948	4900
874.077	4850
874.206	4748
874.335	4854
874.464	4927
874.593	5105
874.722	5025
874.851	5147
874.979	5090
875.108	5090
875.237	4915
875.365	4923
875.494	4873
875.623	5018
875.751	4843
875.88	4930
876.008	4942
876.136	5071
876.265	5284
876.393	5364
876.521	5299
876.65	5197
876.778	5147
876.906	5075
877.034	5056
877.162	5075
877.29	5014
877.418	5075
877.546	5041
877.674	5117
877.802	5041
877.93	5041
878.058	4965
878.185	4911
878.313	4991
878.441	4942
878.568	4831
878.696	4908
878.824	4987
878.951	5060
879.079	5178
879.206	5311
879.333	5102
879.461	4987
879.588	5064
879.715	5193
879.842	5277
879.97	5045
880.097	4843
880.224	4763
880.351	4790
880.478	4850
880.605	4805
880.732	4790
880.859	5178
880.986	4968
881.112	4873
881.239	4877
881.366	4694
881.493	4645
881.619	4626
881.746	4603
881.872	4714
881.999	4622
882.125	4748
882.252	4801
882.378	4835
882.505	5010
882.631	4866
882.757	4763
882.883	4736
883.01	4752
883.136	4687
883.262	4599
883.388	4618
883.514	4839
883.64	4854
883.766	4778
883.892	4679
884.018	4752
884.143	4915
884.269	5052
884.395	4694
884.52	4618
884.646	4660
884.772	4588
884.897	4615
885.023	4645
885.148	4831
885.274	4896
885.399	4862
885.524	4733
885.65	4771
885.775	4752
885.9	4733
886.025	4881
886.15	4782
886.275	4790
886.4	4653
886.525	4740
886.65	4710
886.775	4740
886.9	4930
887.025	5045
887.149	4831
887.274	4645
887.399	4569
887.523	4607
887.648	4611
887.773	4596
887.897	4809
888.021	4831
888.146	4698
888.27	4809
888.395	4915
888.519	4786
888.643	4866
888.767	4870
888.891	4687
889.015	4611
889.139	4656
889.263	4580
889.387	4778
889.511	4900
889.635	4824
889.759	4691
889.883	4672
890.006	4755
890.13	4805
890.254	4637
890.377	4725
890.501	4577
890.624	4538
890.748	4641
890.871	4546
890.995	4451
891.118	4386
891.241	4599
891.364	4508
891.488	4653
891.611	4500
891.734	4523
891.857	4607
891.98	4565
892.103	4660
892.226	4565
892.349	4577
892.471	4440
892.594	4603
892.717	4584
892.839	4607
892.962	4622
893.085	4660
893.207	4615
893.33	4455
893.452	4588
893.575	4668
893.697	4599
893.819	4812
893.941	4847
894.064	4752
894.186	4645
894.308	4558
894.43	4752
894.552	4847
894.674	4748
894.796	4588
894.918	4580
895.04	4611
895.161	4698
895.283	4660
895.405	4584
895.526	4649
895.648	4733
895.769	4721
895.891	4767
896.012	4736
896.134	4736
896.255	4691
896.376	4687
896.498	4691
896.619	4694
896.74	4599
896.861	4668
896.982	4953
897.103	5056
897.224	4812
897.345	4763
897.466	4714
897.587	4668
897.708	4881
897.828	4820
897.949	4683
898.07	4577
898.19	4691
898.311	4835
898.431	4675
898.552	4706
898.672	4809
898.792	4812
898.913	4733
899.033	4622
899.153	4527
899.273	4455
899.393	4531
899.513	4554
899.633	4519
899.753	4577
899.873	4535
899.993	4592
900.113	4546
900.232	4580
900.352	4531
900.472	4489
900.591	4341
900.711	4481
900.83	4451
900.95	4630
901.069	4630
901.189	4611
901.308	4352
901.427	4287
901.546	4383
901.665	4561
901.784	4512
901.904	4413
902.023	4375
902.141	4211
902.26	4200
902.379	4344
902.498	4272
902.617	4230
902.735	4405
902.854	4424
902.973	4383
903.091	4261
903.21	4234
903.328	4318
903.446	4265
903.565	4276
903.683	4417
903.801	4337
903.919	4451
904.038	4474
904.156	4363
904.274	4466
904.392	4402
904.51	4523
904.627	4531
904.745	4611
904.863	4714
904.981	4443
905.098	4348
905.216	4383
905.334	4451
905.451	4474
905.569	4527
905.686	4542
905.803	4558
905.921	4466
906.038	4596
906.155	4516
906.272	4519
906.389	4504
906.506	4383
906.623	4470
906.74	4405
906.857	4325
906.974	4405
907.091	4675
907.208	4702
907.324	4611
907.441	4546
907.557	4383
907.674	4405
907.79	4367
907.907	4436
908.023	4535
908.139	4542
908.256	4493
908.372	4531
908.488	4462
908.604	4398
908.72	4375
908.836	4436
908.952	4405
909.068	4516
909.184	4626
909.3	4523
909.415	4596
909.531	4580
909.647	4424
909.762	4432
909.878	4344
909.993	4497
910.108	4447
910.224	4462
910.339	4512
910.454	4455
910.57	4390
910.685	4344
910.8	4714
910.915	4637
911.03	4550
911.145	4394
911.259	4383
911.374	4428
911.489	4371
911.604	4310
911.718	4253
911.833	4306
911.947	4147
912.062	4086
912.176	4246
912.291	4318
912.405	4291
912.519	4500
912.633	4558
912.748	4455
912.862	4348
912.976	4234
913.09	4162
913.204	4215
913.318	4333
913.431	4440
913.545	4383
913.659	4474
913.772	4413
913.886	4310
914	4246
914.113	4428
914.226	4478
914.34	4394
914.453	4238
914.566	4500
914.68	4341
914.793	4386
914.906	4207
915.019	4135
915.132	4124
915.245	4268
915.358	4284
915.47	4284
915.583	4322
915.696	4322
915.809	4455
915.921	4447
916.034	4325
916.146	4310
916.259	4295
916.371	4413
916.483	4405
916.595	4314
916.708	4333
916.82	4371
916.932	4348
917.044	4390
917.156	4348
917.268	4253
917.38	4337
917.491	4371
917.603	4371
917.715	4512
917.826	4481
917.938	4398
918.049	4318
918.161	4447
918.272	4645
918.384	4691
918.495	4451
918.606	4337
918.717	4253
918.828	4363
918.939	4409
919.05	4276
919.161	4344
919.272	4181
919.383	4268
919.494	4497
919.604	4675
919.715	4462
919.826	4398
919.936	4478
920.047	4577
920.157	4542
920.267	4763
920.378	4569
920.488	4542
920.598	4774
920.708	4942
920.818	4790
920.928	4828
921.038	4999
921.148	4949
921.258	4668
921.368	4573
921.477	4561
921.587	4500
921.697	4436
921.806	4580
921.916	4466
922.025	4272
922.134	4371
922.244	4287
922.353	4390
922.462	4276
922.571	4185
922.68	4067
922.789	4021
922.898	4086
923.007	4036
923.116	4135
923.224	4071
923.333	4082
923.442	4002
923.55	4029
923.659	4055
923.767	4135
923.876	4032
923.984	4158
924.092	4055
924.201	4116
924.309	4112
924.417	4150
924.525	4055
924.633	4177
924.741	4930
924.849	3960
924.956	4169
925.064	3972
925.172	3930
925.279	3960
925.387	4135
925.494	4090
925.602	4268
925.709	4230
925.816	4120
925.924	4177
926.031	4249
926.138	4223
926.245	4246
926.352	4135
926.459	4284
926.566	4348
926.673	4169
926.779	4093
926.886	4128
926.993	4010
927.099	4032
927.206	3896
927.312	3926
927.419	4139
927.525	4105
927.631	4147
927.737	3987
927.843	3991
927.95	3907
928.056	4029
928.162	3972
928.267	4124
928.373	4748
928.479	4169
928.585	3899
928.69	4097
928.796	4124
928.901	3975
929.007	3869
929.112	4032
929.218	4051
929.323	4002
929.428	3945
929.533	4173
929.638	3972
929.743	3983
929.848	4097
929.953	4025
930.058	3968
930.163	3865
930.267	3850
930.372	4044
930.477	3846
930.581	4101
930.685	4006
930.79	3865
930.894	3926
930.998	3884
931.103	4112
931.207	3728
931.311	3736
931.415	3648
931.519	3580
931.623	3622
