Data from test_V78500241_411.txt Node
Date: Fri Mar 25 16:51:51 CST 2022
User: usil
Spectrometer: V785-0024
Trigger mode: 0
Integration Time (sec): 4.000000E-1
Scans to average: 1
Nonlinearity correction enabled: false
Boxcar width: 0
Storing dark spectrum: false
XAxis mode: Wavelengths
Number of Pixels in Spectrum: 1024
>>>>>Begin Spectral Data<<<<<
801.071	8001
801.214	8020
801.356	7932
801.499	7898
801.641	7795
801.783	7864
801.926	8035
802.068	7974
802.211	7951
802.353	8107
802.496	7906
802.638	7879
802.78	7898
802.923	7978
803.065	7928
803.208	7799
803.35	7860
803.492	8062
803.635	8142
803.777	8024
803.919	8149
804.061	8450
804.204	8145
804.346	8054
804.488	7928
804.63	8065
804.773	7989
804.915	8103
805.057	8347
805.199	8199
805.341	8168
805.483	8248
805.626	8142
805.768	8031
805.91	8210
806.052	8199
806.194	8123
806.336	8358
806.478	8103
806.62	8054
806.762	8183
806.904	8305
807.046	8438
807.188	8286
807.33	8301
807.472	8332
807.614	8187
807.756	8138
807.898	8123
808.04	7993
808.182	7940
808.324	7970
808.465	7913
808.607	8103
808.749	8084
808.891	8202
809.033	8282
809.174	8142
809.316	8020
809.458	8077
809.6	8043
809.741	8012
809.883	8001
810.025	8111
810.166	8126
810.308	8024
810.45	8081
810.591	7898
810.733	7807
810.875	7738
811.016	7567
811.158	7540
811.299	7609
811.441	7788
811.582	7715
811.724	7578
811.865	7651
812.007	7658
812.148	7620
812.29	7628
812.431	7814
812.573	7894
812.714	8039
812.855	8164
812.997	8267
813.138	8362
813.279	8183
813.421	8164
813.562	8050
813.703	8001
813.845	7807
813.986	7453
814.127	7308
814.268	7312
814.41	7171
814.551	7228
814.692	7217
814.833	7103
814.974	7118
815.115	7187
815.256	6973
815.397	6935
815.539	6939
815.68	6837
815.821	6779
815.962	6814
816.103	6878
816.244	6707
816.385	6684
816.526	6696
816.666	6509
816.807	6319
816.948	6475
817.089	6452
817.23	6471
817.371	6395
817.512	6376
817.653	6445
817.793	6365
817.934	6486
818.075	6540
818.216	6486
818.356	6403
818.497	6270
818.638	6140
818.778	6091
818.919	6140
819.06	6152
819.2	6327
819.341	6361
819.481	6323
819.622	6490
819.762	6798
819.903	6741
820.043	6597
820.184	6563
820.324	6570
820.465	6711
820.605	6677
820.746	6646
820.886	6547
821.026	6646
821.167	6753
821.307	6768
821.447	6757
821.588	6696
821.728	6559
821.868	6555
822.008	6334
822.149	6369
822.289	6365
822.429	6144
822.569	6121
822.709	6136
822.849	5950
822.99	5874
823.13	5988
823.27	5904
823.41	5786
823.55	5748
823.69	5786
823.83	5764
823.97	5642
824.11	5547
824.25	5493
824.389	5573
824.529	5589
824.669	5524
824.809	5668
824.949	5691
825.089	5615
825.228	5619
825.368	5391
825.508	5387
825.648	5391
825.787	5436
825.927	5417
826.067	5322
826.206	5330
826.346	5345
826.485	5459
826.625	5372
826.765	5562
826.904	5490
827.044	5254
827.183	5166
827.323	5113
827.462	5250
827.601	5216
827.741	5197
827.88	5208
828.02	5121
828.159	5269
828.298	5284
828.437	5349
828.577	5307
828.716	5505
828.855	5322
828.994	5189
829.134	5140
829.273	5147
829.412	5147
829.551	5162
829.69	5121
829.829	5296
829.968	5387
830.107	5311
830.246	5326
830.385	5181
830.524	5102
830.663	5064
830.802	4972
830.941	4896
831.08	4930
831.219	4999
831.357	4995
831.496	5147
831.635	4980
831.774	4835
831.913	4831
832.051	4721
832.19	4721
832.329	4850
832.467	4721
832.606	4603
832.744	4660
832.883	4755
833.022	4744
833.16	4782
833.299	4816
833.437	4828
833.576	4843
833.714	4809
833.852	4843
833.991	4850
834.129	4991
834.267	4938
834.406	4896
834.544	4961
834.682	4942
834.821	4984
834.959	5193
835.097	4991
835.235	5094
835.373	5075
835.511	5128
835.65	5010
835.788	5018
835.926	4877
836.064	4854
836.202	4927
836.34	5151
836.478	5193
836.615	5090
836.753	5265
836.891	5284
837.029	5181
837.167	5162
837.305	5178
837.443	5166
837.58	5079
837.718	5235
837.856	5162
837.993	5147
838.131	5239
838.269	5242
838.406	5242
838.544	5250
838.681	5025
838.819	5014
838.956	4908
839.094	4942
839.231	4995
839.369	5071
839.506	5433
839.643	5269
839.781	5048
839.918	5037
840.055	5105
840.193	5121
840.33	5117
840.467	5136
840.604	5208
840.742	5433
840.879	5117
841.016	5109
841.153	5143
841.29	5349
841.427	5357
841.564	5299
841.701	5376
841.838	5261
841.975	5254
842.112	5330
842.249	5189
842.385	5124
842.522	5322
842.659	5178
842.796	5197
842.933	5197
843.069	5185
843.206	5193
843.343	5360
843.479	5235
843.616	5269
843.752	5083
843.889	5064
844.025	5258
844.162	5033
844.298	5292
844.435	5132
844.571	5064
844.708	5273
844.844	5337
844.98	5395
845.117	5318
845.253	5162
845.389	5132
845.525	5254
845.661	5193
845.798	5086
845.934	5181
846.07	5109
846.206	5250
846.342	5364
846.478	5204
846.614	5067
846.75	5022
846.886	4942
847.022	5124
847.158	5124
847.294	5075
847.429	5143
847.565	5124
847.701	5337
847.837	4858
847.972	4877
848.108	4957
848.244	5029
848.379	4843
848.515	4797
848.65	4782
848.786	4797
848.921	4858
849.057	4828
849.192	4980
849.328	4911
849.463	4892
849.598	4824
849.734	4805
849.869	4733
850.004	4714
850.14	4733
850.275	4672
850.41	4584
850.545	4611
850.68	4630
850.815	4660
850.95	4668
851.085	4873
851.22	4797
851.355	4698
851.49	4694
851.625	4706
851.76	4683
851.895	4607
852.03	4592
852.165	4672
852.299	4771
852.434	4816
852.569	4790
852.703	4767
852.838	4866
852.973	4980
853.107	4949
853.242	4805
853.376	4710
853.511	4626
853.645	4634
853.78	4828
853.914	4721
854.048	4752
854.183	4641
854.317	4778
854.451	4900
854.585	4710
854.72	4683
854.854	4835
854.988	4645
855.122	4664
855.256	4558
855.39	4694
855.524	4778
855.658	4778
855.792	4752
855.926	4778
856.06	4763
856.194	4854
856.327	4755
856.461	4615
856.595	4649
856.729	4656
856.862	4790
856.996	4717
857.13	4748
857.263	4790
857.397	4831
857.53	4698
857.664	4721
857.797	4744
857.931	4850
858.064	4710
858.197	4771
858.331	4679
858.464	4675
858.597	4554
858.731	4630
858.864	4641
858.997	4634
859.13	4687
859.263	4755
859.396	4714
859.529	4607
859.662	4580
859.795	4535
859.928	4664
860.061	4790
860.194	4755
860.327	4649
860.46	4573
860.592	4725
860.725	4706
860.858	4763
860.99	4611
861.123	4542
861.256	4542
861.388	4622
861.521	5433
861.653	4485
861.786	4512
861.918	4508
862.05	4558
862.183	4599
862.315	4599
862.447	4721
862.58	4569
862.712	4474
862.844	4379
862.976	4512
863.108	4459
863.24	4809
863.372	4344
863.504	4474
863.636	4462
863.768	4535
863.9	4436
864.032	4402
864.164	4470
864.296	4504
864.428	4588
864.559	4630
864.691	4588
864.823	4558
864.954	4573
865.086	4531
865.217	4455
865.349	4428
865.48	4481
865.612	4508
865.743	4653
865.875	4485
866.006	4489
866.137	4497
866.269	4489
866.4	4497
866.531	4436
866.662	4432
866.793	4455
866.924	4459
867.055	4531
867.186	4470
867.317	4455
867.448	4447
867.579	4485
867.71	4413
867.841	4436
867.972	4500
868.103	4508
868.233	4455
868.364	4474
868.495	4546
868.625	4664
868.756	4797
868.886	4630
869.017	4664
869.147	4854
869.278	4793
869.408	4729
869.539	4637
869.669	4782
869.799	4725
869.929	4835
870.06	4812
870.19	5006
870.32	4949
870.45	4968
870.58	5045
870.71	5113
870.84	5193
870.97	5006
871.1	4892
871.23	5170
871.36	5204
871.489	5098
871.619	5098
871.749	5132
871.879	5132
872.008	5201
872.138	5083
872.267	4984
872.397	4816
872.526	4843
872.656	4752
872.785	4870
872.915	4980
873.044	5109
873.173	4999
873.303	4987
873.432	4995
873.561	4999
873.69	4892
873.819	4911
873.948	4991
874.077	4843
874.206	4820
874.335	4812
874.464	4938
874.593	5086
874.722	5003
874.851	5105
874.979	5170
875.108	5052
875.237	4987
875.365	4915
875.494	4938
875.623	4984
875.751	4866
875.88	4919
876.008	5025
876.136	5079
876.265	5220
876.393	5345
876.521	5254
876.65	5223
876.778	5212
876.906	5105
877.034	5090
877.162	5105
877.29	4995
877.418	5079
877.546	5090
877.674	5045
877.802	5094
877.93	5010
878.058	4953
878.185	4881
878.313	4942
878.441	4961
878.568	4835
878.696	4934
878.824	5037
878.951	5014
879.079	5159
879.206	5288
879.333	5204
879.461	5067
879.588	5056
879.715	5201
879.842	5223
879.97	5014
880.097	4877
880.224	4843
880.351	4858
880.478	4900
880.605	4774
880.732	4828
880.859	5121
880.986	4881
881.112	4968
881.239	4782
881.366	4702
881.493	4630
881.619	4622
881.746	4653
881.872	4683
881.999	4691
882.125	4748
882.252	4839
882.378	4877
882.505	4999
882.631	4839
882.757	4759
882.883	4755
883.01	4805
883.136	4717
883.262	4611
883.388	4675
883.514	4816
883.64	4892
883.766	4843
883.892	4664
884.018	4733
884.143	4892
884.269	5056
884.395	4710
884.52	4694
884.646	4721
884.772	4630
884.897	4584
885.023	4679
885.148	4755
885.274	4858
885.399	4873
885.524	4691
885.65	4729
885.775	4828
885.9	4721
886.025	4877
886.15	4812
886.275	4714
886.4	4664
886.525	4725
886.65	4702
886.775	4740
886.9	4949
887.025	5045
887.149	4816
887.274	4691
887.399	4611
887.523	4660
887.648	4626
887.773	4618
887.897	4820
888.021	4774
888.146	4679
888.27	4831
888.395	4930
888.519	4831
888.643	4881
888.767	4843
888.891	4694
889.015	4634
889.139	4691
889.263	4660
889.387	4797
889.511	4938
889.635	4854
889.759	4702
889.883	4717
890.006	4790
890.13	4847
890.254	4637
890.377	4717
890.501	4538
890.624	4519
890.748	4660
890.871	4546
890.995	4440
891.118	4447
891.241	4481
891.364	4573
891.488	4691
891.611	4535
891.734	4531
891.857	4630
891.98	4504
892.103	4729
892.226	4588
892.349	4558
892.471	4478
892.594	4558
892.717	4630
892.839	4607
892.962	4618
893.085	4675
893.207	4626
893.33	4527
893.452	4538
893.575	4706
893.697	4607
893.819	4816
893.941	4831
894.064	4706
894.186	4611
894.308	4550
894.43	4733
894.552	4889
894.674	4771
894.796	4558
894.918	4611
895.04	4603
895.161	4763
895.283	4653
895.405	4577
895.526	4637
895.648	4687
895.769	4694
895.891	4702
896.012	4729
896.134	4771
896.255	4664
896.376	4679
896.498	4611
896.619	4717
896.74	4649
896.861	4668
896.982	4930
897.103	5109
897.224	4805
897.345	4774
897.466	4649
897.587	4714
897.708	4900
897.828	4824
897.949	4702
898.07	4607
898.19	4603
898.311	4805
898.431	4664
898.552	4714
898.672	4885
898.792	4778
898.913	4755
899.033	4622
899.153	4481
899.273	4443
899.393	4474
899.513	4554
899.633	4519
899.753	4561
899.873	4527
899.993	4622
900.113	4523
900.232	4592
900.352	4538
900.472	4531
900.591	4417
900.711	4527
900.83	4447
900.95	4634
901.069	4752
901.189	4550
901.308	4375
901.427	4363
901.546	4398
901.665	4531
901.784	4554
901.904	4436
902.023	4329
902.141	4196
902.26	4188
902.379	4329
902.498	4272
902.617	4253
902.735	4348
902.854	4424
902.973	4360
903.091	4268
903.21	4246
903.328	4310
903.446	4314
903.565	4249
903.683	4383
903.801	4303
903.919	4443
904.038	4440
904.156	4325
904.274	4462
904.392	4421
904.51	4500
904.627	4485
904.745	4569
904.863	4687
904.981	4455
905.098	4390
905.216	4386
905.334	4485
905.451	4455
905.569	4455
905.686	4538
905.803	4569
905.921	4424
906.038	4592
906.155	4527
906.272	4432
906.389	4485
906.506	4379
906.623	4459
906.74	4379
906.857	4352
906.974	4428
907.091	4618
907.208	4645
907.324	4660
907.441	4569
907.557	4398
907.674	4375
907.79	4341
907.907	4417
908.023	4481
908.139	4478
908.256	4459
908.372	4493
908.488	4432
908.604	4402
908.72	4314
908.836	4386
908.952	4352
909.068	4443
909.184	4592
909.3	4512
909.415	4615
909.531	4611
909.647	4375
909.762	4413
909.878	4356
909.993	4436
910.108	4421
910.224	4443
910.339	4481
910.454	4363
910.57	4390
910.685	4344
910.8	4679
910.915	4656
911.03	4500
911.145	4363
911.259	4322
911.374	4409
911.489	4314
911.604	4356
911.718	4150
911.833	4204
911.947	4120
912.062	4032
912.176	4268
912.291	4242
912.405	4253
912.519	4470
912.633	4531
912.748	4394
912.862	4333
912.976	4196
913.09	4090
913.204	4223
913.318	4261
913.431	4398
913.545	4375
913.659	4424
913.772	4390
913.886	4291
914	4238
914.113	4379
914.226	4474
914.34	4386
914.453	4284
914.566	4489
914.68	4314
914.793	4360
914.906	4223
915.019	4204
915.132	4135
915.245	4230
915.358	4257
915.47	4253
915.583	4314
915.696	4341
915.809	4459
915.921	4466
916.034	4284
916.146	4303
916.259	4272
916.371	4447
916.483	4421
916.595	4322
916.708	4402
916.82	4390
916.932	4363
917.044	4383
917.156	4386
917.268	4257
917.38	4291
917.491	4329
917.603	4379
917.715	4451
917.826	4508
917.938	4379
918.049	4287
918.161	4470
918.272	4577
918.384	4630
918.495	4447
918.606	4379
918.717	4295
918.828	4402
918.939	4459
919.05	4306
919.161	4375
919.272	4192
919.383	4306
919.494	4493
919.604	4637
919.715	4443
919.826	4436
919.936	4485
920.047	4584
920.157	4519
920.267	4740
920.378	4626
920.488	4577
920.598	4793
920.708	4892
920.818	4790
920.928	4824
921.038	4976
921.148	4942
921.258	4664
921.368	4622
921.477	4535
921.587	4516
921.697	4451
921.806	4596
921.916	4500
922.025	4344
922.134	4303
922.244	4268
922.353	4394
922.462	4223
922.571	4238
922.68	4055
922.789	4017
922.898	4063
923.007	4032
923.116	4154
923.224	4067
923.333	4131
923.442	4051
923.55	4067
923.659	4097
923.767	4105
923.876	4044
923.984	4181
924.092	4044
924.201	4147
924.309	4158
924.417	4173
924.525	4086
924.633	4173
924.741	5155
924.849	3968
924.956	4227
925.064	4021
925.172	3979
925.279	3994
925.387	4086
925.494	4074
925.602	4295
925.709	4215
925.816	4101
925.924	4185
926.031	4310
926.138	4246
926.245	4211
926.352	4162
926.459	4287
926.566	4295
926.673	4154
926.779	4135
926.886	4128
926.993	4044
927.099	3994
927.206	3991
927.312	3994
927.419	4139
927.525	4063
927.631	4135
927.737	3983
927.843	3991
927.95	3884
928.056	3998
928.162	4051
928.267	4086
928.373	4736
928.479	4135
928.585	3918
928.69	4074
928.796	4120
928.901	4002
929.007	3884
929.112	4036
929.218	4013
929.323	4010
929.428	3987
929.533	4139
929.638	3934
929.743	3998
929.848	4093
929.953	4074
930.058	3972
930.163	3880
930.267	3831
930.372	4006
930.477	3819
930.581	4139
930.685	4002
930.79	3873
930.894	3975
930.998	3869
931.103	4093
931.207	3736
931.311	3701
931.415	3732
931.519	3553
931.623	3652
