Data from test_V78500241_336.txt Node
Date: Fri Mar 25 16:51:20 CST 2022
User: usil
Spectrometer: V785-0024
Trigger mode: 0
Integration Time (sec): 4.000000E-1
Scans to average: 1
Nonlinearity correction enabled: false
Boxcar width: 0
Storing dark spectrum: false
XAxis mode: Wavelengths
Number of Pixels in Spectrum: 1024
>>>>>Begin Spectral Data<<<<<
801.071	8096
801.214	8024
801.356	7925
801.499	7864
801.641	7860
801.783	7883
801.926	8035
802.068	8012
802.211	8031
802.353	7967
802.496	7845
802.638	7906
802.78	8005
802.923	7951
803.065	7959
803.208	7932
803.35	7921
803.492	8065
803.635	8161
803.777	8008
803.919	8153
804.061	8488
804.204	8221
804.346	8077
804.488	7917
804.63	8103
804.773	7982
804.915	8103
805.057	8298
805.199	8187
805.341	8221
805.483	8252
805.626	8218
805.768	8092
805.91	8115
806.052	8138
806.194	8123
806.336	8332
806.478	8195
806.62	8206
806.762	8210
806.904	8294
807.046	8575
807.188	8377
807.33	8256
807.472	8298
807.614	8195
807.756	8187
807.898	7993
808.04	7906
808.182	7932
808.324	7986
808.465	7959
808.607	8077
808.749	8107
808.891	8157
809.033	8320
809.174	8248
809.316	8031
809.458	8073
809.6	8050
809.741	8103
809.883	8039
810.025	8123
810.166	8161
810.308	8027
810.45	7989
810.591	7925
810.733	7727
810.875	7624
811.016	7533
811.158	7544
811.299	7651
811.441	7799
811.582	7734
811.724	7677
811.865	7601
812.007	7674
812.148	7677
812.29	7670
812.431	7784
812.573	7974
812.714	7986
812.855	8180
812.997	8267
813.138	8294
813.279	8161
813.421	8142
813.562	8050
813.703	7894
813.845	7799
813.986	7449
814.127	7308
814.268	7293
814.41	7209
814.551	7247
814.692	7202
814.833	7088
814.974	7080
815.115	7137
815.256	6996
815.397	6951
815.539	7012
815.68	6840
815.821	6779
815.962	6844
816.103	6863
816.244	6779
816.385	6684
816.526	6700
816.666	6513
816.807	6369
816.948	6448
817.089	6498
817.23	6483
817.371	6471
817.512	6414
817.653	6407
817.793	6410
817.934	6407
818.075	6490
818.216	6513
818.356	6471
818.497	6258
818.638	6175
818.778	6190
818.919	6163
819.06	6167
819.2	6342
819.341	6334
819.481	6372
819.622	6532
819.762	6772
819.903	6738
820.043	6601
820.184	6623
820.324	6536
820.465	6681
820.605	6673
820.746	6673
820.886	6490
821.026	6715
821.167	6753
821.307	6829
821.447	6848
821.588	6684
821.728	6566
821.868	6532
822.008	6376
822.149	6429
822.289	6365
822.429	6155
822.569	6117
822.709	6155
822.849	5992
822.99	5965
823.13	5950
823.27	5908
823.41	5794
823.55	5783
823.69	5809
823.83	5882
823.97	5672
824.11	5547
824.25	5528
824.389	5589
824.529	5619
824.669	5558
824.809	5646
824.949	5657
825.089	5608
825.228	5577
825.368	5471
825.508	5357
825.648	5326
825.787	5364
825.927	5387
826.067	5326
826.206	5318
826.346	5398
826.485	5410
826.625	5444
826.765	5551
826.904	5463
827.044	5216
827.183	5193
827.323	5128
827.462	5227
827.601	5170
827.741	5208
827.88	5231
828.02	5128
828.159	5265
828.298	5273
828.437	5410
828.577	5345
828.716	5547
828.855	5372
828.994	5174
829.134	5201
829.273	5227
829.412	5189
829.551	5136
829.69	5162
829.829	5197
829.968	5410
830.107	5311
830.246	5334
830.385	5162
830.524	5102
830.663	5083
830.802	4980
830.941	4870
831.08	4900
831.219	5029
831.357	5010
831.496	5109
831.635	4949
831.774	4885
831.913	4927
832.051	4786
832.19	4820
832.329	4870
832.467	4702
832.606	4675
832.744	4771
832.883	4759
833.022	4729
833.16	4797
833.299	4805
833.437	4896
833.576	4873
833.714	4881
833.852	4866
833.991	4908
834.129	4949
834.267	5022
834.406	4923
834.544	4957
834.682	4968
834.821	4968
834.959	5189
835.097	5010
835.235	5166
835.373	5113
835.511	5113
835.65	5052
835.788	5025
835.926	4934
836.064	4862
836.202	4930
836.34	5204
836.478	5277
836.615	5155
836.753	5284
836.891	5269
837.029	5269
837.167	5178
837.305	5216
837.443	5151
837.58	5105
837.718	5246
837.856	5223
837.993	5174
838.131	5318
838.269	5261
838.406	5193
838.544	5159
838.681	5090
838.819	5029
838.956	4919
839.094	4942
839.231	5003
839.369	5083
839.506	5455
839.643	5318
839.781	5079
839.918	5025
840.055	5113
840.193	5166
840.33	5124
840.467	5201
840.604	5220
840.742	5444
840.879	5064
841.016	5094
841.153	5178
841.29	5410
841.427	5357
841.564	5345
841.701	5395
841.838	5212
841.975	5250
842.112	5299
842.249	5132
842.385	5140
842.522	5318
842.659	5204
842.796	5155
842.933	5227
843.069	5178
843.206	5181
843.343	5337
843.479	5261
843.616	5284
843.752	5052
843.889	4965
844.025	5143
844.162	5052
844.298	5204
844.435	5102
844.571	5064
844.708	5216
844.844	5398
844.98	5387
845.117	5273
845.253	5143
845.389	5056
845.525	5193
845.661	5140
845.798	5045
845.934	5174
846.07	5037
846.206	5220
846.342	5292
846.478	5216
846.614	5014
846.75	4976
846.886	4938
847.022	5102
847.158	5018
847.294	5060
847.429	5102
847.565	5041
847.701	5311
847.837	4908
847.972	4904
848.108	4976
848.244	4953
848.379	4835
848.515	4710
848.65	4752
848.786	4755
848.921	4763
849.057	4892
849.192	4915
849.328	4805
849.463	4858
849.598	4862
849.734	4793
849.869	4778
850.004	4637
850.14	4683
850.275	4645
850.41	4561
850.545	4580
850.68	4615
850.815	4641
850.95	4664
851.085	4889
851.22	4752
851.355	4729
851.49	4637
851.625	4618
851.76	4618
851.895	4538
852.03	4546
852.165	4660
852.299	4740
852.434	4782
852.569	4782
852.703	4748
852.838	4862
852.973	4949
853.107	4896
853.242	4752
853.376	4687
853.511	4531
853.645	4573
853.78	4790
853.914	4672
854.048	4683
854.183	4660
854.317	4717
854.451	4866
854.585	4717
854.72	4592
854.854	4733
854.988	4615
855.122	4611
855.256	4554
855.39	4645
855.524	4805
855.658	4801
855.792	4748
855.926	4702
856.06	4771
856.194	4786
856.327	4721
856.461	4668
856.595	4596
856.729	4664
856.862	4816
856.996	4694
857.13	4721
857.263	4778
857.397	4782
857.53	4630
857.664	4706
857.797	4771
857.931	4805
858.064	4702
858.197	4752
858.331	4634
858.464	4618
858.597	4554
858.731	4599
858.864	4645
858.997	4622
859.13	4641
859.263	4687
859.396	4675
859.529	4569
859.662	4558
859.795	4527
859.928	4622
860.061	4748
860.194	4771
860.327	4596
860.46	4584
860.592	4691
860.725	4706
860.858	4706
860.99	4599
861.123	4565
861.256	4554
861.388	4615
861.521	5349
861.653	4459
861.786	4470
861.918	4402
862.05	4527
862.183	4535
862.315	4634
862.447	4698
862.58	4558
862.712	4413
862.844	4337
862.976	4493
863.108	4493
863.24	4805
863.372	4360
863.504	4451
863.636	4455
863.768	4535
863.9	4440
864.032	4375
864.164	4443
864.296	4508
864.428	4519
864.559	4561
864.691	4485
864.823	4535
864.954	4508
865.086	4523
865.217	4493
865.349	4432
865.48	4485
865.612	4474
865.743	4603
865.875	4493
866.006	4440
866.137	4485
866.269	4436
866.4	4470
866.531	4417
866.662	4409
866.793	4417
866.924	4386
867.055	4527
867.186	4451
867.317	4440
867.448	4409
867.579	4424
867.71	4424
867.841	4409
867.972	4459
868.103	4481
868.233	4470
868.364	4470
868.495	4527
868.625	4691
868.756	4763
868.886	4592
869.017	4630
869.147	4782
869.278	4740
869.408	4702
869.539	4611
869.669	4717
869.799	4630
869.929	4786
870.06	4755
870.19	4938
870.32	4896
870.45	4995
870.58	5014
870.71	5098
870.84	5086
870.97	4984
871.1	4870
871.23	5174
871.36	5170
871.489	5052
871.619	5102
871.749	5105
871.879	5132
872.008	5181
872.138	5025
872.267	5006
872.397	4866
872.526	4824
872.656	4744
872.785	4820
872.915	4999
873.044	5037
873.173	4885
873.303	4900
873.432	4927
873.561	4953
873.69	4843
873.819	4892
873.948	4911
874.077	4801
874.206	4698
874.335	4790
874.464	4908
874.593	5079
874.722	4957
874.851	5102
874.979	5052
875.108	5037
875.237	4934
875.365	4896
875.494	4850
875.623	4980
875.751	4892
875.88	4923
876.008	5006
876.136	5014
876.265	5185
876.393	5318
876.521	5212
876.65	5258
876.778	5193
876.906	5071
877.034	5083
877.162	5014
877.29	4999
877.418	5071
877.546	5025
877.674	5052
877.802	5045
877.93	5037
878.058	4919
878.185	4915
878.313	4938
878.441	4980
878.568	4812
878.696	4889
878.824	4976
878.951	4995
879.079	5098
879.206	5280
879.333	5117
879.461	4946
879.588	5029
879.715	5128
879.842	5261
879.97	5029
880.097	4812
880.224	4740
880.351	4809
880.478	4820
880.605	4809
880.732	4790
880.859	5086
880.986	4915
881.112	4911
881.239	4793
881.366	4710
881.493	4622
881.619	4630
881.746	4694
881.872	4649
881.999	4721
882.125	4702
882.252	4797
882.378	4805
882.505	4999
882.631	4790
882.757	4687
882.883	4748
883.01	4744
883.136	4691
883.262	4656
883.388	4596
883.514	4831
883.64	4854
883.766	4812
883.892	4687
884.018	4714
884.143	4877
884.269	5060
884.395	4691
884.52	4615
884.646	4687
884.772	4637
884.897	4538
885.023	4698
885.148	4774
885.274	4885
885.399	4797
885.524	4767
885.65	4710
885.775	4717
885.9	4721
886.025	4881
886.15	4797
886.275	4744
886.4	4668
886.525	4698
886.65	4660
886.775	4702
886.9	4987
887.025	5071
887.149	4835
887.274	4599
887.399	4565
887.523	4615
887.648	4584
887.773	4577
887.897	4771
888.021	4782
888.146	4683
888.27	4820
888.395	4877
888.519	4824
888.643	4839
888.767	4854
888.891	4714
889.015	4634
889.139	4691
889.263	4596
889.387	4733
889.511	4828
889.635	4805
889.759	4649
889.883	4649
890.006	4790
890.13	4812
890.254	4592
890.377	4675
890.501	4558
890.624	4538
890.748	4626
890.871	4504
890.995	4386
891.118	4432
891.241	4542
891.364	4558
891.488	4645
891.611	4478
891.734	4561
891.857	4603
891.98	4577
892.103	4630
892.226	4588
892.349	4531
892.471	4451
892.594	4554
892.717	4592
892.839	4554
892.962	4561
893.085	4645
893.207	4611
893.33	4470
893.452	4535
893.575	4675
893.697	4584
893.819	4809
893.941	4847
894.064	4778
894.186	4611
894.308	4573
894.43	4706
894.552	4816
894.674	4767
894.796	4577
894.918	4561
895.04	4538
895.161	4729
895.283	4683
895.405	4611
895.526	4592
895.648	4736
895.769	4672
895.891	4717
896.012	4774
896.134	4763
896.255	4679
896.376	4634
896.498	4683
896.619	4668
896.74	4611
896.861	4634
896.982	4885
897.103	5128
897.224	4782
897.345	4771
897.466	4664
897.587	4698
897.708	4870
897.828	4793
897.949	4668
898.07	4531
898.19	4641
898.311	4816
898.431	4698
898.552	4729
898.672	4809
898.792	4793
898.913	4736
899.033	4622
899.153	4489
899.273	4455
899.393	4489
899.513	4527
899.633	4558
899.753	4546
899.873	4546
899.993	4588
900.113	4554
900.232	4550
900.352	4542
900.472	4459
900.591	4466
900.711	4546
900.83	4398
900.95	4603
901.069	4710
901.189	4542
901.308	4363
901.427	4344
901.546	4356
901.665	4462
901.784	4531
901.904	4371
902.023	4310
902.141	4196
902.26	4162
902.379	4325
902.498	4261
902.617	4246
902.735	4375
902.854	4398
902.973	4375
903.091	4219
903.21	4257
903.328	4333
903.446	4291
903.565	4261
903.683	4337
903.801	4310
903.919	4398
904.038	4504
904.156	4333
904.274	4390
904.392	4405
904.51	4500
904.627	4474
904.745	4580
904.863	4675
904.981	4428
905.098	4291
905.216	4379
905.334	4436
905.451	4436
905.569	4481
905.686	4577
905.803	4558
905.921	4436
906.038	4550
906.155	4489
906.272	4417
906.389	4447
906.506	4337
906.623	4386
906.74	4398
906.857	4344
906.974	4402
907.091	4493
907.208	4675
907.324	4626
907.441	4523
907.557	4360
907.674	4348
907.79	4329
907.907	4375
908.023	4504
908.139	4455
908.256	4440
908.372	4504
908.488	4500
908.604	4367
908.72	4322
908.836	4375
908.952	4413
909.068	4440
909.184	4561
909.3	4489
909.415	4561
909.531	4584
909.647	4356
909.762	4398
909.878	4344
909.993	4451
910.108	4428
910.224	4474
910.339	4538
910.454	4363
910.57	4386
910.685	4329
910.8	4641
910.915	4599
911.03	4500
911.145	4306
911.259	4303
911.374	4390
911.489	4280
911.604	4261
911.718	4143
911.833	4192
911.947	4101
912.062	4048
912.176	4223
912.291	4249
912.405	4268
912.519	4455
912.633	4535
912.748	4371
912.862	4348
912.976	4223
913.09	4086
913.204	4211
913.318	4242
913.431	4367
913.545	4390
913.659	4436
913.772	4413
913.886	4272
914	4230
914.113	4417
914.226	4428
914.34	4405
914.453	4192
914.566	4409
914.68	4318
914.793	4333
914.906	4188
915.019	4158
915.132	4128
915.245	4238
915.358	4196
915.47	4207
915.583	4306
915.696	4314
915.809	4405
915.921	4424
916.034	4261
916.146	4284
916.259	4276
916.371	4348
916.483	4360
916.595	4272
916.708	4341
916.82	4375
916.932	4405
917.044	4356
917.156	4325
917.268	4234
917.38	4268
917.491	4261
917.603	4333
917.715	4443
917.826	4394
917.938	4310
918.049	4253
918.161	4405
918.272	4546
918.384	4535
918.495	4451
918.606	4299
918.717	4299
918.828	4348
918.939	4398
919.05	4261
919.161	4375
919.272	4158
919.383	4284
919.494	4455
919.604	4596
919.715	4413
919.826	4344
919.936	4367
920.047	4523
920.157	4470
920.267	4736
920.378	4538
920.488	4512
920.598	4725
920.708	4877
920.818	4771
920.928	4736
921.038	4953
921.148	4923
921.258	4622
921.368	4554
921.477	4500
921.587	4459
921.697	4390
921.806	4558
921.916	4485
922.025	4253
922.134	4272
922.244	4238
922.353	4306
922.462	4211
922.571	4169
922.68	3991
922.789	4013
922.898	4059
923.007	4006
923.116	4131
923.224	4010
923.333	4101
923.442	3968
923.55	4002
923.659	4040
923.767	4124
923.876	4044
923.984	4135
924.092	3968
924.201	4067
924.309	4109
924.417	4139
924.525	4086
924.633	4086
924.741	4927
924.849	3930
924.956	4131
925.064	3983
925.172	3937
925.279	3960
925.387	4025
925.494	4071
925.602	4200
925.709	4181
925.816	4090
925.924	4150
926.031	4242
926.138	4158
926.245	4192
926.352	4078
926.459	4227
926.566	4325
926.673	4181
926.779	4040
926.886	4051
926.993	3998
927.099	3964
927.206	3964
927.312	3941
927.419	4055
927.525	3994
927.631	4086
927.737	3987
927.843	3960
927.95	3838
928.056	3972
928.162	3979
928.267	4044
928.373	4611
928.479	4150
928.585	3888
928.69	4006
928.796	4032
928.901	3983
929.007	3869
929.112	4032
929.218	3994
929.323	3972
929.428	3922
929.533	4093
929.638	3975
929.743	3956
929.848	4086
929.953	4002
930.058	3903
930.163	3808
930.267	3861
930.372	3987
930.477	3816
930.581	4143
930.685	3968
930.79	3835
930.894	3850
930.998	3831
931.103	4078
931.207	3713
931.311	3717
931.415	3694
931.519	3549
931.623	3564
