Data from test_V78500241_99.txt Node
Date: Fri Mar 25 16:49:41 CST 2022
User: usil
Spectrometer: V785-0024
Trigger mode: 0
Integration Time (sec): 4.000000E-1
Scans to average: 1
Nonlinearity correction enabled: false
Boxcar width: 0
Storing dark spectrum: false
XAxis mode: Wavelengths
Number of Pixels in Spectrum: 1024
>>>>>Begin Spectral Data<<<<<
801.071	8058
801.214	8001
801.356	7940
801.499	7921
801.641	7868
801.783	7849
801.926	8020
802.068	8001
802.211	7997
802.353	8024
802.496	7868
802.638	7940
802.78	8005
802.923	7986
803.065	7871
803.208	7837
803.35	7989
803.492	7993
803.635	8157
803.777	7913
803.919	8073
804.061	8404
804.204	8084
804.346	7963
804.488	7947
804.63	8031
804.773	8058
804.915	8039
805.057	8244
805.199	8183
805.341	8202
805.483	8195
805.626	8191
805.768	8115
805.91	8164
806.052	8145
806.194	8100
806.336	8336
806.478	8103
806.62	8126
806.762	8248
806.904	8324
807.046	8400
807.188	8305
807.33	8271
807.472	8279
807.614	8123
807.756	8145
807.898	7997
808.04	7928
808.182	7890
808.324	7917
808.465	7959
808.607	8039
808.749	8035
808.891	8237
809.033	8282
809.174	8214
809.316	8039
809.458	8088
809.6	7959
809.741	8020
809.883	8050
810.025	8149
810.166	8024
810.308	8096
810.45	8005
810.591	7951
810.733	7795
810.875	7719
811.016	7525
811.158	7499
811.299	7597
811.441	7803
811.582	7765
811.724	7639
811.865	7620
812.007	7658
812.148	7658
812.29	7685
812.431	7818
812.573	7913
812.714	8012
812.855	8233
812.997	8347
813.138	8347
813.279	8256
813.421	8119
813.562	8027
813.703	7940
813.845	7830
813.986	7453
814.127	7316
814.268	7236
814.41	7289
814.551	7164
814.692	7293
814.833	7114
814.974	7129
815.115	7164
815.256	6996
815.397	6981
815.539	6977
815.68	6852
815.821	6798
815.962	6928
816.103	6840
816.244	6768
816.385	6673
816.526	6658
816.666	6490
816.807	6338
816.948	6490
817.089	6483
817.23	6486
817.371	6410
817.512	6437
817.653	6467
817.793	6376
817.934	6414
818.075	6460
818.216	6467
818.356	6357
818.497	6296
818.638	6163
818.778	6194
818.919	6102
819.06	6159
819.2	6342
819.341	6350
819.481	6350
819.622	6536
819.762	6764
819.903	6749
820.043	6589
820.184	6608
820.324	6642
820.465	6722
820.605	6665
820.746	6726
820.886	6525
821.026	6703
821.167	6814
821.307	6848
821.447	6798
821.588	6722
821.728	6639
821.868	6490
822.008	6350
822.149	6395
822.289	6407
822.429	6178
822.569	6133
822.709	6106
822.849	5916
822.99	5912
823.13	5908
823.27	5908
823.41	5878
823.55	5828
823.69	5805
823.83	5821
823.97	5722
824.11	5551
824.25	5558
824.389	5535
824.529	5623
824.669	5577
824.809	5672
824.949	5699
825.089	5642
825.228	5585
825.368	5444
825.508	5383
825.648	5387
825.787	5421
825.927	5379
826.067	5322
826.206	5330
826.346	5345
826.485	5414
826.625	5478
826.765	5551
826.904	5497
827.044	5277
827.183	5246
827.323	5178
827.462	5242
827.601	5174
827.741	5155
827.88	5265
828.02	5109
828.159	5288
828.298	5322
828.437	5357
828.577	5318
828.716	5486
828.855	5326
828.994	5181
829.134	5189
829.273	5193
829.412	5159
829.551	5193
829.69	5193
829.829	5261
829.968	5379
830.107	5261
830.246	5311
830.385	5155
830.524	5170
830.663	5079
830.802	4980
830.941	4957
831.08	4870
831.219	4984
831.357	5006
831.496	5143
831.635	4980
831.774	4877
831.913	4824
832.051	4752
832.19	4755
832.329	4820
832.467	4698
832.606	4653
832.744	4736
832.883	4721
833.022	4778
833.16	4797
833.299	4828
833.437	4793
833.576	4854
833.714	4862
833.852	4866
833.991	4934
834.129	4972
834.267	5025
834.406	4942
834.544	5006
834.682	5048
834.821	5006
834.959	5181
835.097	4995
835.235	5162
835.373	5117
835.511	5056
835.65	5094
835.788	5048
835.926	4930
836.064	4870
836.202	4976
836.34	5212
836.478	5273
836.615	5128
836.753	5269
836.891	5311
837.029	5220
837.167	5193
837.305	5162
837.443	5170
837.58	5094
837.718	5273
837.856	5174
837.993	5185
838.131	5258
838.269	5242
838.406	5254
838.544	5231
838.681	5098
838.819	5086
838.956	4923
839.094	4976
839.231	4987
839.369	5086
839.506	5463
839.643	5296
839.781	5086
839.918	5037
840.055	5075
840.193	5090
840.33	5117
840.467	5185
840.604	5235
840.742	5406
840.879	5124
841.016	5166
841.153	5193
841.29	5353
841.427	5391
841.564	5357
841.701	5410
841.838	5296
841.975	5258
842.112	5280
842.249	5121
842.385	5155
842.522	5376
842.659	5170
842.796	5155
842.933	5185
843.069	5197
843.206	5162
843.343	5334
843.479	5277
843.616	5258
843.752	5018
843.889	5033
844.025	5197
844.162	5075
844.298	5216
844.435	5128
844.571	5090
844.708	5235
844.844	5326
844.98	5372
845.117	5269
845.253	5185
845.389	5056
845.525	5105
845.661	5140
845.798	5098
845.934	5102
846.07	5071
846.206	5265
846.342	5246
846.478	5178
846.614	5041
846.75	4984
846.886	4911
847.022	5128
847.158	5010
847.294	5083
847.429	5064
847.565	5045
847.701	5379
847.837	4873
847.972	4774
848.108	4980
848.244	4972
848.379	4809
848.515	4755
848.65	4763
848.786	4774
848.921	4782
849.057	4927
849.192	4927
849.328	4839
849.463	4858
849.598	4820
849.734	4767
849.869	4721
850.004	4615
850.14	4691
850.275	4599
850.41	4554
850.545	4592
850.68	4603
850.815	4641
850.95	4634
851.085	4870
851.22	4801
851.355	4679
851.49	4615
851.625	4645
851.76	4672
851.895	4577
852.03	4554
852.165	4698
852.299	4729
852.434	4774
852.569	4748
852.703	4752
852.838	4839
852.973	4984
853.107	4930
853.242	4774
853.376	4733
853.511	4577
853.645	4656
853.78	4793
853.914	4706
854.048	4679
854.183	4683
854.317	4721
854.451	4908
854.585	4721
854.72	4649
854.854	4771
854.988	4645
855.122	4687
855.256	4558
855.39	4683
855.524	4828
855.658	4759
855.792	4740
855.926	4679
856.06	4801
856.194	4862
856.327	4679
856.461	4672
856.595	4656
856.729	4599
856.862	4744
856.996	4683
857.13	4755
857.263	4793
857.397	4824
857.53	4664
857.664	4740
857.797	4771
857.931	4870
858.064	4725
858.197	4755
858.331	4649
858.464	4660
858.597	4519
858.731	4630
858.864	4679
858.997	4622
859.13	4694
859.263	4691
859.396	4691
859.529	4569
859.662	4592
859.795	4519
859.928	4694
860.061	4812
860.194	4767
860.327	4637
860.46	4588
860.592	4733
860.725	4771
860.858	4767
860.99	4615
861.123	4535
861.256	4584
861.388	4656
861.521	5250
861.653	4474
861.786	4432
861.918	4493
862.05	4535
862.183	4577
862.315	4615
862.447	4653
862.58	4538
862.712	4394
862.844	4367
862.976	4489
863.108	4455
863.24	4908
863.372	4367
863.504	4417
863.636	4424
863.768	4474
863.9	4455
864.032	4386
864.164	4352
864.296	4481
864.428	4554
864.559	4588
864.691	4538
864.823	4584
864.954	4489
865.086	4516
865.217	4508
865.349	4459
865.48	4440
865.612	4504
865.743	4618
865.875	4470
866.006	4451
866.137	4474
866.269	4466
866.4	4440
866.531	4428
866.662	4386
866.793	4413
866.924	4413
867.055	4523
867.186	4481
867.317	4405
867.448	4413
867.579	4413
867.71	4440
867.841	4413
867.972	4500
868.103	4489
868.233	4455
868.364	4474
868.495	4489
868.625	4710
868.756	4736
868.886	4603
869.017	4637
869.147	4793
869.278	4797
869.408	4668
869.539	4634
869.669	4733
869.799	4717
869.929	4748
870.06	4744
870.19	4972
870.32	4942
870.45	4972
870.58	5029
870.71	5098
870.84	5155
870.97	4976
871.1	4908
871.23	5136
871.36	5193
871.489	5022
871.619	5143
871.749	5155
871.879	5143
872.008	5204
872.138	5067
872.267	5025
872.397	4889
872.526	4831
872.656	4706
872.785	4835
872.915	4984
873.044	4965
873.173	4968
873.303	4980
873.432	4965
873.561	5029
873.69	4908
873.819	4889
873.948	4949
874.077	4812
874.206	4839
874.335	4816
874.464	5006
874.593	5098
874.722	4930
874.851	5140
874.979	4995
875.108	5060
875.237	4953
875.365	4900
875.494	4911
875.623	4976
875.751	4847
875.88	4915
876.008	5022
876.136	5052
876.265	5227
876.393	5398
876.521	5242
876.65	5246
876.778	5140
876.906	4987
877.034	5006
877.162	5064
877.29	5033
877.418	5045
877.546	5052
877.674	5018
877.802	5033
877.93	5083
878.058	4927
878.185	4881
878.313	4987
878.441	4957
878.568	4839
878.696	4881
878.824	4991
878.951	5025
879.079	5178
879.206	5296
879.333	5064
879.461	4953
879.588	4987
879.715	5090
879.842	5269
879.97	5067
880.097	4786
880.224	4729
880.351	4835
880.478	4896
880.605	4843
880.732	4782
880.859	5105
880.986	4873
881.112	4953
881.239	4778
881.366	4660
881.493	4611
881.619	4615
881.746	4672
881.872	4664
881.999	4660
882.125	4672
882.252	4790
882.378	4858
882.505	5006
882.631	4820
882.757	4725
882.883	4763
883.01	4733
883.136	4694
883.262	4615
883.388	4622
883.514	4870
883.64	4873
883.766	4801
883.892	4721
884.018	4733
884.143	4881
884.269	5086
884.395	4691
884.52	4664
884.646	4672
884.772	4561
884.897	4584
885.023	4679
885.148	4763
885.274	4847
885.399	4793
885.524	4763
885.65	4763
885.775	4790
885.9	4793
886.025	4927
886.15	4870
886.275	4733
886.4	4687
886.525	4721
886.65	4755
886.775	4778
886.9	4923
887.025	5071
887.149	4820
887.274	4679
887.399	4603
887.523	4664
887.648	4603
887.773	4584
887.897	4816
888.021	4820
888.146	4717
888.27	4877
888.395	4934
888.519	4896
888.643	4866
888.767	4801
888.891	4717
889.015	4645
889.139	4694
889.263	4645
889.387	4873
889.511	4949
889.635	4904
889.759	4698
889.883	4668
890.006	4744
890.13	4923
890.254	4679
890.377	4744
890.501	4577
890.624	4565
890.748	4733
890.871	4538
890.995	4489
891.118	4481
891.241	4618
891.364	4584
891.488	4656
891.611	4596
891.734	4607
891.857	4702
891.98	4622
892.103	4740
892.226	4672
892.349	4561
892.471	4485
892.594	4645
892.717	4653
892.839	4596
892.962	4664
893.085	4748
893.207	4694
893.33	4554
893.452	4565
893.575	4740
893.697	4656
893.819	4847
893.941	4904
894.064	4797
894.186	4622
894.308	4668
894.43	4843
894.552	4881
894.674	4816
894.796	4656
894.918	4729
895.04	4660
895.161	4752
895.283	4736
895.405	4637
895.526	4710
895.648	4782
895.769	4725
895.891	4763
896.012	4809
896.134	4774
896.255	4767
896.376	4721
896.498	4634
896.619	4740
896.74	4733
896.861	4675
896.982	5010
897.103	5159
897.224	4850
897.345	4824
897.466	4736
897.587	4774
897.708	4938
897.828	4850
897.949	4675
898.07	4580
898.19	4641
898.311	4900
898.431	4752
898.552	4793
898.672	4904
898.792	4862
898.913	4778
899.033	4672
899.153	4580
899.273	4508
899.393	4580
899.513	4592
899.633	4584
899.753	4641
899.873	4565
899.993	4645
900.113	4660
900.232	4615
900.352	4592
900.472	4561
900.591	4447
900.711	4569
900.83	4508
900.95	4687
901.069	4714
901.189	4618
901.308	4440
901.427	4383
901.546	4440
901.665	4565
901.784	4554
901.904	4436
902.023	4363
902.141	4200
902.26	4204
902.379	4405
902.498	4306
902.617	4295
902.735	4443
902.854	4455
902.973	4447
903.091	4253
903.21	4238
903.328	4394
903.446	4325
903.565	4268
903.683	4398
903.801	4344
903.919	4462
904.038	4504
904.156	4386
904.274	4485
904.392	4485
904.51	4497
904.627	4531
904.745	4637
904.863	4668
904.981	4405
905.098	4363
905.216	4409
905.334	4451
905.451	4474
905.569	4508
905.686	4561
905.803	4615
905.921	4481
906.038	4607
906.155	4519
906.272	4470
906.389	4508
906.506	4413
906.623	4436
906.74	4447
906.857	4375
906.974	4417
907.091	4634
907.208	4763
907.324	4607
907.441	4580
907.557	4413
907.674	4405
907.79	4413
907.907	4459
908.023	4573
908.139	4523
908.256	4504
908.372	4542
908.488	4531
908.604	4390
908.72	4367
908.836	4447
908.952	4402
909.068	4531
909.184	4637
909.3	4527
909.415	4683
909.531	4603
909.647	4390
909.762	4432
909.878	4375
909.993	4550
910.108	4519
910.224	4462
910.339	4550
910.454	4462
910.57	4428
910.685	4348
910.8	4714
910.915	4721
911.03	4554
911.145	4356
911.259	4367
911.374	4394
911.489	4341
911.604	4360
911.718	4230
911.833	4223
911.947	4131
912.062	4093
912.176	4284
912.291	4272
912.405	4318
912.519	4550
912.633	4603
912.748	4451
912.862	4371
912.976	4272
913.09	4147
913.204	4230
913.318	4268
913.431	4455
913.545	4432
913.659	4481
913.772	4363
913.886	4325
914	4253
914.113	4455
914.226	4481
914.34	4470
914.453	4329
914.566	4489
914.68	4386
914.793	4413
914.906	4207
915.019	4173
915.132	4112
915.245	4200
915.358	4299
915.47	4207
915.583	4337
915.696	4394
915.809	4424
915.921	4519
916.034	4299
916.146	4329
916.259	4306
916.371	4436
916.483	4432
916.595	4310
916.708	4379
916.82	4352
916.932	4409
917.044	4386
917.156	4421
917.268	4249
917.38	4371
917.491	4341
917.603	4405
917.715	4493
917.826	4478
917.938	4394
918.049	4344
918.161	4443
918.272	4615
918.384	4546
918.495	4550
918.606	4348
918.717	4268
918.828	4421
918.939	4390
919.05	4322
919.161	4375
919.272	4181
919.383	4276
919.494	4478
919.604	4641
919.715	4462
919.826	4386
919.936	4432
920.047	4607
920.157	4542
920.267	4729
920.378	4603
920.488	4584
920.598	4748
920.708	4942
920.818	4778
920.928	4759
921.038	4976
921.148	4980
921.258	4672
921.368	4626
921.477	4577
921.587	4497
921.697	4417
921.806	4596
921.916	4512
922.025	4272
922.134	4348
922.244	4310
922.353	4367
922.462	4272
922.571	4158
922.68	4067
922.789	4013
922.898	4063
923.007	4074
923.116	4116
923.224	4131
923.333	4150
923.442	4029
923.55	4029
923.659	4040
923.767	4135
923.876	4044
923.984	4158
924.092	3998
924.201	4147
924.309	4139
924.417	4173
924.525	4082
924.633	4192
924.741	4911
924.849	3956
924.956	4150
925.064	4002
925.172	3945
925.279	4032
925.387	4093
925.494	4109
925.602	4223
925.709	4242
925.816	4086
925.924	4154
926.031	4257
926.138	4249
926.245	4280
926.352	4143
926.459	4268
926.566	4322
926.673	4230
926.779	4120
926.886	4101
926.993	4036
927.099	3975
927.206	3979
927.312	4010
927.419	4067
927.525	4109
927.631	4154
927.737	4021
927.843	4032
927.95	3854
928.056	4002
928.162	4040
928.267	4131
928.373	4561
928.479	4158
928.585	3892
928.69	4074
928.796	4112
928.901	4036
929.007	3922
929.112	4063
929.218	4036
929.323	4017
929.428	3998
929.533	4177
929.638	3964
929.743	4013
929.848	4097
929.953	4067
930.058	3972
930.163	3835
930.267	3876
930.372	4025
930.477	3812
930.581	4158
930.685	3979
930.79	3880
930.894	3903
930.998	3926
931.103	4090
931.207	3755
931.311	3751
931.415	3728
931.519	3587
931.623	3599
