Data from test_V78500241_2336.txt Node
Date: Fri Mar 25 17:05:14 CST 2022
User: usil
Spectrometer: V785-0024
Trigger mode: 0
Integration Time (sec): 4.000000E-1
Scans to average: 1
Nonlinearity correction enabled: false
Boxcar width: 0
Storing dark spectrum: false
XAxis mode: Wavelengths
Number of Pixels in Spectrum: 1024
>>>>>Begin Spectral Data<<<<<
801.071	8130
801.214	8073
801.356	7951
801.499	7795
801.641	7830
801.783	7887
801.926	8046
802.068	7940
802.211	7982
802.353	8069
802.496	7818
802.638	7932
802.78	7921
802.923	7989
803.065	7837
803.208	7940
803.35	7970
803.492	8069
803.635	8168
803.777	8016
803.919	8065
804.061	8457
804.204	8180
804.346	8092
804.488	7932
804.63	8130
804.773	8031
804.915	8130
805.057	8370
805.199	8161
805.341	8218
805.483	8210
805.626	8324
805.768	8172
805.91	8218
806.052	8202
806.194	8081
806.336	8252
806.478	8107
806.62	8119
806.762	8172
806.904	8282
807.046	8454
807.188	8343
807.33	8317
807.472	8317
807.614	8199
807.756	8172
807.898	8005
808.04	7871
808.182	7860
808.324	7845
808.465	7986
808.607	8069
808.749	8100
808.891	8183
809.033	8225
809.174	8252
809.316	8035
809.458	8024
809.6	7989
809.741	8084
809.883	8050
810.025	8100
810.166	8065
810.308	8062
810.45	7978
810.591	7894
810.733	7803
810.875	7700
811.016	7559
811.158	7460
811.299	7544
811.441	7693
811.582	7700
811.724	7548
811.865	7537
812.007	7693
812.148	7655
812.29	7677
812.431	7704
812.573	7898
812.714	7963
812.855	8123
812.997	8199
813.138	8434
813.279	8202
813.421	8088
813.562	7967
813.703	7917
813.845	7761
813.986	7449
814.127	7225
814.268	7221
814.41	7228
814.551	7160
814.692	7225
814.833	7099
814.974	7080
815.115	7179
815.256	6989
815.397	6916
815.539	7000
815.68	6856
815.821	6802
815.962	6882
816.103	6787
816.244	6753
816.385	6692
816.526	6627
816.666	6490
816.807	6315
816.948	6437
817.089	6460
817.23	6513
817.371	6414
817.512	6464
817.653	6388
817.793	6365
817.934	6399
818.075	6464
818.216	6441
818.356	6429
818.497	6281
818.638	6102
818.778	6209
818.919	6152
819.06	6171
819.2	6346
819.341	6361
819.481	6384
819.622	6517
819.762	6753
819.903	6684
820.043	6681
820.184	6585
820.324	6631
820.465	6681
820.605	6623
820.746	6620
820.886	6566
821.026	6673
821.167	6749
821.307	6867
821.447	6681
821.588	6662
821.728	6570
821.868	6513
822.008	6395
822.149	6380
822.289	6380
822.429	6155
822.569	6106
822.709	6121
822.849	5935
822.99	5901
823.13	5882
823.27	5889
823.41	5802
823.55	5790
823.69	5771
823.83	5779
823.97	5710
824.11	5573
824.25	5471
824.389	5604
824.529	5562
824.669	5539
824.809	5596
824.949	5707
825.089	5615
825.228	5551
825.368	5414
825.508	5349
825.648	5368
825.787	5376
825.927	5360
826.067	5284
826.206	5318
826.346	5353
826.485	5474
826.625	5391
826.765	5524
826.904	5440
827.044	5242
827.183	5208
827.323	5124
827.462	5235
827.601	5178
827.741	5170
827.88	5246
828.02	5117
828.159	5223
828.298	5246
828.437	5425
828.577	5265
828.716	5478
828.855	5357
828.994	5174
829.134	5140
829.273	5201
829.412	5132
829.551	5193
829.69	5170
829.829	5223
829.968	5379
830.107	5254
830.246	5296
830.385	5170
830.524	5128
830.663	5037
830.802	4946
830.941	4919
831.08	4866
831.219	4938
831.357	5018
831.496	5189
831.635	4942
831.774	4896
831.913	4850
832.051	4691
832.19	4801
832.329	4835
832.467	4687
832.606	4653
832.744	4729
832.883	4721
833.022	4717
833.16	4824
833.299	4774
833.437	4801
833.576	4854
833.714	4870
833.852	4858
833.991	4847
834.129	4999
834.267	4965
834.406	4911
834.544	4987
834.682	5006
834.821	4965
834.959	5162
835.097	5064
835.235	5124
835.373	5071
835.511	5128
835.65	5056
835.788	4976
835.926	4904
836.064	4843
836.202	4889
836.34	5147
836.478	5231
836.615	5136
836.753	5208
836.891	5303
837.029	5254
837.167	5216
837.305	5223
837.443	5136
837.58	5094
837.718	5239
837.856	5239
837.993	5151
838.131	5246
838.269	5204
838.406	5204
838.544	5197
838.681	5056
838.819	4991
838.956	4892
839.094	4934
839.231	4980
839.369	5105
839.506	5478
839.643	5261
839.781	5060
839.918	5037
840.055	5098
840.193	5075
840.33	5090
840.467	5143
840.604	5216
840.742	5444
840.879	5075
841.016	5067
841.153	5136
841.29	5410
841.427	5353
841.564	5273
841.701	5391
841.838	5261
841.975	5223
842.112	5246
842.249	5147
842.385	5128
842.522	5299
842.659	5128
842.796	5170
842.933	5212
843.069	5121
843.206	5147
843.343	5284
843.479	5254
843.616	5280
843.752	5037
843.889	5037
844.025	5201
844.162	5022
844.298	5242
844.435	5075
844.571	5037
844.708	5166
844.844	5273
844.98	5318
845.117	5242
845.253	5136
845.389	5075
845.525	5216
845.661	5159
845.798	5071
845.934	5212
846.07	5060
846.206	5143
846.342	5261
846.478	5155
846.614	5006
846.75	4934
846.886	4953
847.022	5117
847.158	5071
847.294	5003
847.429	5121
847.565	5033
847.701	5296
847.837	4889
847.972	4873
848.108	4927
848.244	4885
848.379	4816
848.515	4714
848.65	4717
848.786	4755
848.921	4767
849.057	4870
849.192	4896
849.328	4805
849.463	4854
849.598	4797
849.734	4771
849.869	4698
850.004	4599
850.14	4694
850.275	4653
850.41	4474
850.545	4554
850.68	4626
850.815	4630
850.95	4645
851.085	4820
851.22	4733
851.355	4683
851.49	4554
851.625	4626
851.76	4626
851.895	4599
852.03	4558
852.165	4641
852.299	4748
852.434	4755
852.569	4721
852.703	4816
852.838	4839
852.973	4908
853.107	4889
853.242	4733
853.376	4660
853.511	4550
853.645	4630
853.78	4835
853.914	4721
854.048	4649
854.183	4599
854.317	4725
854.451	4809
854.585	4653
854.72	4675
854.854	4740
854.988	4588
855.122	4660
855.256	4527
855.39	4649
855.524	4721
855.658	4721
855.792	4717
855.926	4725
856.06	4790
856.194	4755
856.327	4656
856.461	4622
856.595	4599
856.729	4637
856.862	4748
856.996	4687
857.13	4714
857.263	4774
857.397	4763
857.53	4615
857.664	4706
857.797	4797
857.931	4774
858.064	4649
858.197	4698
858.331	4653
858.464	4622
858.597	4519
858.731	4618
858.864	4664
858.997	4615
859.13	4626
859.263	4694
859.396	4710
859.529	4596
859.662	4535
859.795	4538
859.928	4599
860.061	4748
860.194	4763
860.327	4603
860.46	4580
860.592	4687
860.725	4721
860.858	4710
860.99	4546
861.123	4535
861.256	4535
861.388	4622
861.521	5379
861.653	4405
861.786	4436
861.918	4459
862.05	4455
862.183	4577
862.315	4637
862.447	4599
862.58	4527
862.712	4447
862.844	4318
862.976	4421
863.108	4432
863.24	4919
863.372	4333
863.504	4409
863.636	4424
863.768	4432
863.9	4436
864.032	4383
864.164	4390
864.296	4516
864.428	4538
864.559	4546
864.691	4554
864.823	4531
864.954	4443
865.086	4516
865.217	4451
865.349	4363
865.48	4470
865.612	4546
865.743	4645
865.875	4504
866.006	4398
866.137	4440
866.269	4398
866.4	4413
866.531	4405
866.662	4363
866.793	4390
866.924	4436
867.055	4478
867.186	4470
867.317	4409
867.448	4360
867.579	4356
867.71	4375
867.841	4394
867.972	4466
868.103	4489
868.233	4527
868.364	4436
868.495	4504
868.625	4675
868.756	4774
868.886	4516
869.017	4615
869.147	4752
869.278	4774
869.408	4637
869.539	4664
869.669	4736
869.799	4706
869.929	4702
870.06	4725
870.19	4976
870.32	4911
870.45	4934
870.58	5037
870.71	5102
870.84	5067
870.97	4896
871.1	4881
871.23	5151
871.36	5143
871.489	5025
871.619	5090
871.749	5067
871.879	5083
872.008	5170
872.138	5037
872.267	4957
872.397	4870
872.526	4793
872.656	4733
872.785	4812
872.915	4923
873.044	5003
873.173	4919
873.303	4976
873.432	4896
873.561	4942
873.69	4862
873.819	4881
873.948	4896
874.077	4801
874.206	4752
874.335	4763
874.464	4927
874.593	5071
874.722	4957
874.851	5162
874.979	5048
875.108	5048
875.237	4896
875.365	4854
875.494	4885
875.623	4946
875.751	4816
875.88	4843
876.008	4949
876.136	5041
876.265	5223
876.393	5383
876.521	5258
876.65	5242
876.778	5159
876.906	5113
877.034	5025
877.162	5056
877.29	4927
877.418	5060
877.546	5045
877.674	5033
877.802	5064
877.93	5006
878.058	4896
878.185	4881
878.313	4991
878.441	4968
878.568	4793
878.696	4858
878.824	4972
878.951	5018
879.079	5113
879.206	5311
879.333	5102
879.461	4953
879.588	4999
879.715	5178
879.842	5181
879.97	5006
880.097	4759
880.224	4725
880.351	4767
880.478	4782
880.605	4824
880.732	4782
880.859	5090
880.986	4892
881.112	4873
881.239	4778
881.366	4694
881.493	4615
881.619	4569
881.746	4630
881.872	4656
881.999	4630
882.125	4683
882.252	4790
882.378	4847
882.505	4919
882.631	4797
882.757	4694
882.883	4733
883.01	4706
883.136	4691
883.262	4649
883.388	4634
883.514	4778
883.64	4847
883.766	4801
883.892	4637
884.018	4702
884.143	4892
884.269	5022
884.395	4630
884.52	4607
884.646	4618
884.772	4588
884.897	4550
885.023	4645
885.148	4809
885.274	4870
885.399	4831
885.524	4714
885.65	4702
885.775	4759
885.9	4744
886.025	4793
886.15	4763
886.275	4649
886.4	4691
886.525	4725
886.65	4641
886.775	4672
886.9	4854
887.025	5025
887.149	4805
887.274	4664
887.399	4558
887.523	4611
887.648	4538
887.773	4611
887.897	4763
888.021	4797
888.146	4691
888.27	4782
888.395	4854
888.519	4797
888.643	4816
888.767	4816
888.891	4668
889.015	4618
889.139	4664
889.263	4656
889.387	4774
889.511	4870
889.635	4702
889.759	4664
889.883	4630
890.006	4714
890.13	4854
890.254	4607
890.377	4664
890.501	4565
890.624	4542
890.748	4622
890.871	4497
890.995	4405
891.118	4405
891.241	4535
891.364	4542
891.488	4637
891.611	4504
891.734	4500
891.857	4599
891.98	4527
892.103	4611
892.226	4531
892.349	4550
892.471	4447
892.594	4546
892.717	4603
892.839	4565
892.962	4630
893.085	4687
893.207	4580
893.33	4390
893.452	4493
893.575	4672
893.697	4535
893.819	4812
893.941	4839
894.064	4782
894.186	4607
894.308	4573
894.43	4691
894.552	4782
894.674	4740
894.796	4550
894.918	4637
895.04	4546
895.161	4634
895.283	4653
895.405	4592
895.526	4653
895.648	4653
895.769	4679
895.891	4717
896.012	4763
896.134	4733
896.255	4653
896.376	4618
896.498	4618
896.619	4733
896.74	4607
896.861	4573
896.982	4919
897.103	5071
897.224	4831
897.345	4771
897.466	4675
897.587	4717
897.708	4805
897.828	4748
897.949	4672
898.07	4565
898.19	4645
898.311	4831
898.431	4691
898.552	4717
898.672	4805
898.792	4774
898.913	4740
899.033	4561
899.153	4558
899.273	4455
899.393	4462
899.513	4554
899.633	4485
899.753	4527
899.873	4504
899.993	4531
900.113	4500
900.232	4569
900.352	4554
900.472	4459
900.591	4413
900.711	4508
900.83	4436
900.95	4596
901.069	4675
901.189	4550
901.308	4363
901.427	4333
901.546	4402
901.665	4497
901.784	4500
901.904	4333
902.023	4337
902.141	4211
902.26	4143
902.379	4284
902.498	4223
902.617	4181
902.735	4356
902.854	4405
902.973	4348
903.091	4215
903.21	4211
903.328	4318
903.446	4242
903.565	4223
903.683	4413
903.801	4299
903.919	4348
904.038	4409
904.156	4318
904.274	4424
904.392	4363
904.51	4485
904.627	4443
904.745	4561
904.863	4626
904.981	4379
905.098	4246
905.216	4333
905.334	4421
905.451	4470
905.569	4466
905.686	4535
905.803	4531
905.921	4390
906.038	4592
906.155	4485
906.272	4398
906.389	4474
906.506	4325
906.623	4371
906.74	4371
906.857	4295
906.974	4386
907.091	4561
907.208	4634
907.324	4538
907.441	4508
907.557	4272
907.674	4287
907.79	4303
907.907	4386
908.023	4447
908.139	4436
908.256	4424
908.372	4440
908.488	4451
908.604	4352
908.72	4325
908.836	4348
908.952	4379
909.068	4409
909.184	4550
909.3	4478
909.415	4550
909.531	4580
909.647	4337
909.762	4356
909.878	4360
909.993	4409
910.108	4421
910.224	4390
910.339	4440
910.454	4375
910.57	4295
910.685	4257
910.8	4641
910.915	4577
911.03	4489
911.145	4303
911.259	4352
911.374	4352
911.489	4272
911.604	4303
911.718	4166
911.833	4181
911.947	4074
912.062	4025
912.176	4223
912.291	4227
912.405	4192
912.519	4443
912.633	4481
912.748	4325
912.862	4291
912.976	4227
913.09	4063
913.204	4147
913.318	4272
913.431	4344
913.545	4333
913.659	4409
913.772	4352
913.886	4246
914	4249
914.113	4375
914.226	4405
914.34	4394
914.453	4227
914.566	4440
914.68	4287
914.793	4371
914.906	4200
915.019	4166
915.132	4124
915.245	4173
915.358	4238
915.47	4242
915.583	4265
915.696	4280
915.809	4428
915.921	4440
916.034	4280
916.146	4242
916.259	4257
916.371	4394
916.483	4375
916.595	4238
916.708	4356
916.82	4386
916.932	4322
917.044	4360
917.156	4344
917.268	4299
917.38	4303
917.491	4310
917.603	4417
917.715	4447
917.826	4451
917.938	4352
918.049	4306
918.161	4440
918.272	4542
918.384	4561
918.495	4470
918.606	4322
918.717	4276
918.828	4379
918.939	4421
919.05	4284
919.161	4356
919.272	4207
919.383	4299
919.494	4535
919.604	4691
919.715	4489
919.826	4421
919.936	4485
920.047	4592
920.157	4538
920.267	4729
920.378	4592
920.488	4512
920.598	4786
920.708	4911
920.818	4812
920.928	4835
921.038	4972
921.148	4934
921.258	4668
921.368	4580
921.477	4531
921.587	4497
921.697	4466
921.806	4596
921.916	4512
922.025	4341
922.134	4360
922.244	4284
922.353	4348
922.462	4207
922.571	4162
922.68	4013
922.789	4013
922.898	4074
923.007	4051
923.116	4147
923.224	4124
923.333	4154
923.442	4013
923.55	4059
923.659	4090
923.767	4166
923.876	4055
923.984	4147
924.092	4013
924.201	4109
924.309	4139
924.417	4162
924.525	4124
924.633	4181
924.741	5128
924.849	3949
924.956	4139
925.064	3972
925.172	3968
925.279	4025
925.387	4093
925.494	4044
925.602	4219
925.709	4280
925.816	4112
925.924	4158
926.031	4272
926.138	4158
926.245	4249
926.352	4097
926.459	4303
926.566	4337
926.673	4192
926.779	4128
926.886	4071
926.993	4051
927.099	4044
927.206	3968
927.312	3972
927.419	4105
927.525	4071
927.631	4112
927.737	3964
927.843	3956
927.95	3892
928.056	4010
928.162	4013
928.267	4101
928.373	4584
928.479	4158
928.585	3930
928.69	4025
928.796	4120
928.901	4025
929.007	3873
929.112	4017
929.218	3994
929.323	3994
929.428	3979
929.533	4150
929.638	3918
929.743	3983
929.848	4071
929.953	4002
930.058	3972
930.163	3808
930.267	3880
930.372	4013
930.477	3854
930.581	4128
930.685	4013
930.79	3827
930.894	3937
930.998	3888
931.103	4044
931.207	3766
931.311	3743
931.415	3705
931.519	3534
931.623	3580
