Data from test_V78500241_60.txt Node
Date: Fri Mar 25 16:49:25 CST 2022
User: usil
Spectrometer: V785-0024
Trigger mode: 0
Integration Time (sec): 4.000000E-1
Scans to average: 1
Nonlinearity correction enabled: false
Boxcar width: 0
Storing dark spectrum: false
XAxis mode: Wavelengths
Number of Pixels in Spectrum: 1024
>>>>>Begin Spectral Data<<<<<
801.071	8024
801.214	8016
801.356	7974
801.499	7944
801.641	7833
801.783	7925
801.926	8005
802.068	7959
802.211	8039
802.353	8062
802.496	7936
802.638	7947
802.78	8058
802.923	8016
803.065	7925
803.208	7887
803.35	7989
803.492	8111
803.635	8145
803.777	7963
803.919	8100
804.061	8457
804.204	8149
804.346	8050
804.488	8016
804.63	8103
804.773	8020
804.915	8107
805.057	8343
805.199	8172
805.341	8237
805.483	8320
805.626	8240
805.768	8111
805.91	8252
806.052	8221
806.194	8103
806.336	8317
806.478	8126
806.62	8164
806.762	8248
806.904	8275
807.046	8511
807.188	8343
807.33	8282
807.472	8313
807.614	8168
807.756	8187
807.898	8092
808.04	7879
808.182	7978
808.324	7890
808.465	7887
808.607	8115
808.749	8096
808.891	8161
809.033	8275
809.174	8259
809.316	8096
809.458	8065
809.6	8016
809.741	8058
809.883	8035
810.025	8123
810.166	8134
810.308	8088
810.45	8084
810.591	7928
810.733	7727
810.875	7681
811.016	7578
811.158	7556
811.299	7677
811.441	7776
811.582	7784
811.724	7590
811.865	7636
812.007	7620
812.148	7632
812.29	7662
812.431	7784
812.573	7940
812.714	8043
812.855	8138
812.997	8286
813.138	8301
813.279	8187
813.421	8134
813.562	8039
813.703	7860
813.845	7727
813.986	7377
814.127	7305
814.268	7244
814.41	7255
814.551	7171
814.692	7251
814.833	7129
814.974	7126
815.115	7091
815.256	7008
815.397	6951
815.539	6920
815.68	6818
815.821	6802
815.962	6878
816.103	6825
816.244	6703
816.385	6658
816.526	6658
816.666	6582
816.807	6380
816.948	6490
817.089	6494
817.23	6498
817.371	6456
817.512	6414
817.653	6464
817.793	6445
817.934	6479
818.075	6521
818.216	6486
818.356	6437
818.497	6311
818.638	6209
818.778	6175
818.919	6175
819.06	6190
819.2	6353
819.341	6342
819.481	6369
819.622	6555
819.762	6810
819.903	6703
820.043	6635
820.184	6597
820.324	6616
820.465	6654
820.605	6703
820.746	6616
820.886	6521
821.026	6726
821.167	6741
821.307	6818
821.447	6768
821.588	6631
821.728	6650
821.868	6528
822.008	6357
822.149	6395
822.289	6350
822.429	6194
822.569	6125
822.709	6175
822.849	5904
822.99	5942
823.13	5935
823.27	5954
823.41	5817
823.55	5794
823.69	5863
823.83	5863
823.97	5805
824.11	5653
824.25	5547
824.389	5604
824.529	5718
824.669	5608
824.809	5657
824.949	5691
825.089	5680
825.228	5642
825.368	5436
825.508	5368
825.648	5425
825.787	5417
825.927	5398
826.067	5379
826.206	5318
826.346	5459
826.485	5433
826.625	5436
826.765	5623
826.904	5581
827.044	5284
827.183	5204
827.323	5204
827.462	5242
827.601	5227
827.741	5193
827.88	5303
828.02	5162
828.159	5326
828.298	5410
828.437	5417
828.577	5376
828.716	5570
828.855	5368
828.994	5197
829.134	5208
829.273	5235
829.412	5204
829.551	5197
829.69	5277
829.829	5311
829.968	5509
830.107	5372
830.246	5337
830.385	5269
830.524	5201
830.663	5143
830.802	5064
830.941	5014
831.08	4934
831.219	5067
831.357	5067
831.496	5246
831.635	5010
831.774	4919
831.913	4877
832.051	4805
832.19	4816
832.329	4953
832.467	4786
832.606	4714
832.744	4782
832.883	4763
833.022	4778
833.16	4877
833.299	4881
833.437	4881
833.576	4911
833.714	4923
833.852	4904
833.991	4965
834.129	5022
834.267	4980
834.406	4949
834.544	5064
834.682	5113
834.821	5048
834.959	5197
835.097	5060
835.235	5239
835.373	5109
835.511	5162
835.65	5075
835.788	5048
835.926	4976
836.064	4934
836.202	4957
836.34	5227
836.478	5269
836.615	5174
836.753	5288
836.891	5387
837.029	5330
837.167	5250
837.305	5235
837.443	5231
837.58	5143
837.718	5334
837.856	5246
837.993	5197
838.131	5299
838.269	5261
838.406	5235
838.544	5242
838.681	5048
838.819	5086
838.956	4984
839.094	5006
839.231	5033
839.369	5178
839.506	5505
839.643	5337
839.781	5143
839.918	5086
840.055	5140
840.193	5166
840.33	5178
840.467	5181
840.604	5242
840.742	5535
840.879	5201
841.016	5143
841.153	5193
841.29	5357
841.427	5459
841.564	5368
841.701	5452
841.838	5334
841.975	5337
842.112	5360
842.249	5254
842.385	5216
842.522	5417
842.659	5239
842.796	5189
842.933	5254
843.069	5261
843.206	5220
843.343	5349
843.479	5261
843.616	5387
843.752	5105
843.889	5052
844.025	5311
844.162	5071
844.298	5242
844.435	5140
844.571	5056
844.708	5254
844.844	5376
844.98	5471
845.117	5368
845.253	5212
845.389	5143
845.525	5174
845.661	5201
845.798	5083
845.934	5178
846.07	5151
846.206	5235
846.342	5334
846.478	5216
846.614	5105
846.75	5045
846.886	4965
847.022	5208
847.158	5090
847.294	5098
847.429	5197
847.565	5143
847.701	5387
847.837	4915
847.972	4847
848.108	5029
848.244	5010
848.379	4892
848.515	4831
848.65	4816
848.786	4831
848.921	4858
849.057	4953
849.192	4980
849.328	4908
849.463	4968
849.598	4896
849.734	4786
849.869	4805
850.004	4683
850.14	4774
850.275	4717
850.41	4599
850.545	4641
850.68	4687
850.815	4729
850.95	4702
851.085	4892
851.22	4812
851.355	4759
851.49	4710
851.625	4721
851.76	4653
851.895	4664
852.03	4622
852.165	4706
852.299	4786
852.434	4824
852.569	4801
852.703	4835
852.838	4953
852.973	5014
853.107	4942
853.242	4831
853.376	4752
853.511	4577
853.645	4641
853.78	4900
853.914	4748
854.048	4717
854.183	4710
854.317	4793
854.451	4919
854.585	4710
854.72	4721
854.854	4885
854.988	4710
855.122	4698
855.256	4615
855.39	4710
855.524	4858
855.658	4793
855.792	4755
855.926	4812
856.06	4816
856.194	4900
856.327	4759
856.461	4656
856.595	4675
856.729	4687
856.862	4870
856.996	4706
857.13	4771
857.263	4850
857.397	4858
857.53	4744
857.664	4793
857.797	4835
857.931	4835
858.064	4786
858.197	4771
858.331	4752
858.464	4649
858.597	4596
858.731	4721
858.864	4717
858.997	4622
859.13	4679
859.263	4710
859.396	4752
859.529	4672
859.662	4641
859.795	4596
859.928	4710
860.061	4801
860.194	4831
860.327	4653
860.46	4630
860.592	4748
860.725	4782
860.858	4793
860.99	4637
861.123	4599
861.256	4580
861.388	4679
861.521	5311
861.653	4531
861.786	4478
861.918	4500
862.05	4573
862.183	4634
862.315	4694
862.447	4717
862.58	4607
862.712	4493
862.844	4409
862.976	4519
863.108	4504
863.24	4968
863.372	4405
863.504	4474
863.636	4500
863.768	4550
863.9	4485
864.032	4440
864.164	4424
864.296	4558
864.428	4584
864.559	4603
864.691	4573
864.823	4588
864.954	4519
865.086	4573
865.217	4542
865.349	4417
865.48	4512
865.612	4546
865.743	4679
865.875	4584
866.006	4466
866.137	4519
866.269	4527
866.4	4497
866.531	4474
866.662	4455
866.793	4451
866.924	4466
867.055	4546
867.186	4546
867.317	4459
867.448	4417
867.579	4466
867.71	4413
867.841	4398
867.972	4535
868.103	4531
868.233	4508
868.364	4500
868.495	4508
868.625	4759
868.756	4820
868.886	4656
869.017	4679
869.147	4805
869.278	4862
869.408	4691
869.539	4675
869.669	4809
869.799	4717
869.929	4797
870.06	4850
870.19	5060
870.32	5014
870.45	5022
870.58	5064
870.71	5109
870.84	5162
870.97	4995
871.1	4968
871.23	5208
871.36	5212
871.489	5105
871.619	5094
871.749	5189
871.879	5178
872.008	5242
872.138	5086
872.267	5033
872.397	4900
872.526	4908
872.656	4786
872.785	4892
872.915	5025
873.044	5090
873.173	4972
873.303	5056
873.432	5010
873.561	5041
873.69	4927
873.819	4923
873.948	4972
874.077	4889
874.206	4828
874.335	4839
874.464	4942
874.593	5079
874.722	4980
874.851	5121
874.979	5098
875.108	5105
875.237	4965
875.365	4957
875.494	4946
875.623	4999
875.751	4908
875.88	4904
876.008	5041
876.136	5094
876.265	5235
876.393	5353
876.521	5292
876.65	5269
876.778	5178
876.906	5201
877.034	5086
877.162	5121
877.29	5018
877.418	5083
877.546	5124
877.674	5060
877.802	5067
877.93	5079
878.058	4934
878.185	4900
878.313	4991
878.441	4908
878.568	4892
878.696	4972
878.824	4995
878.951	5056
879.079	5201
879.206	5360
879.333	5121
879.461	5033
879.588	5037
879.715	5189
879.842	5280
879.97	5010
880.097	4828
880.224	4771
880.351	4805
880.478	4911
880.605	4847
880.732	4820
880.859	5124
880.986	4942
881.112	4991
881.239	4809
881.366	4698
881.493	4683
881.619	4611
881.746	4660
881.872	4660
881.999	4702
882.125	4752
882.252	4858
882.378	4858
882.505	5052
882.631	4911
882.757	4649
882.883	4767
883.01	4786
883.136	4706
883.262	4641
883.388	4660
883.514	4797
883.64	4930
883.766	4828
883.892	4714
884.018	4820
884.143	4949
884.269	5022
884.395	4675
884.52	4668
884.646	4672
884.772	4634
884.897	4645
885.023	4675
885.148	4850
885.274	4927
885.399	4870
885.524	4778
885.65	4714
885.775	4809
885.9	4710
886.025	4889
886.15	4839
886.275	4820
886.4	4710
886.525	4698
886.65	4771
886.775	4771
886.9	4927
887.025	5105
887.149	4854
887.274	4721
887.399	4599
887.523	4679
887.648	4615
887.773	4588
887.897	4835
888.021	4877
888.146	4714
888.27	4881
888.395	4930
888.519	4889
888.643	4866
888.767	4881
888.891	4702
889.015	4641
889.139	4736
889.263	4656
889.387	4839
889.511	4896
889.635	4850
889.759	4660
889.883	4710
890.006	4797
890.13	4900
890.254	4664
890.377	4805
890.501	4607
890.624	4569
890.748	4645
890.871	4493
890.995	4504
891.118	4470
891.241	4580
891.364	4622
891.488	4672
891.611	4569
891.734	4577
891.857	4653
891.98	4618
892.103	4733
892.226	4660
892.349	4554
892.471	4455
892.594	4565
892.717	4618
892.839	4603
892.962	4622
893.085	4706
893.207	4668
893.33	4462
893.452	4573
893.575	4706
893.697	4618
893.819	4786
893.941	4839
894.064	4843
894.186	4634
894.308	4611
894.43	4793
894.552	4831
894.674	4790
894.796	4565
894.918	4668
895.04	4588
895.161	4759
895.283	4714
895.405	4584
895.526	4694
895.648	4748
895.769	4721
895.891	4774
896.012	4797
896.134	4759
896.255	4725
896.376	4706
896.498	4664
896.619	4710
896.74	4664
896.861	4702
896.982	4934
897.103	5132
897.224	4843
897.345	4824
897.466	4626
897.587	4763
897.708	4896
897.828	4820
897.949	4778
898.07	4615
898.19	4702
898.311	4889
898.431	4721
898.552	4778
898.672	4809
898.792	4843
898.913	4820
899.033	4660
899.153	4535
899.273	4519
899.393	4558
899.513	4573
899.633	4538
899.753	4558
899.873	4508
899.993	4603
900.113	4592
900.232	4584
900.352	4611
900.472	4523
900.591	4455
900.711	4523
900.83	4466
900.95	4634
901.069	4733
901.189	4637
901.308	4424
901.427	4367
901.546	4447
901.665	4516
901.784	4546
901.904	4443
902.023	4371
902.141	4230
902.26	4192
902.379	4402
902.498	4287
902.617	4314
902.735	4432
902.854	4421
902.973	4424
903.091	4303
903.21	4280
903.328	4367
903.446	4379
903.565	4333
903.683	4424
903.801	4325
903.919	4474
904.038	4474
904.156	4390
904.274	4489
904.392	4493
904.51	4535
904.627	4546
904.745	4641
904.863	4725
904.981	4478
905.098	4379
905.216	4489
905.334	4531
905.451	4489
905.569	4493
905.686	4679
905.803	4687
905.921	4474
906.038	4649
906.155	4569
906.272	4447
906.389	4523
906.506	4424
906.623	4443
906.74	4451
906.857	4394
906.974	4409
907.091	4611
907.208	4752
907.324	4702
907.441	4588
907.557	4424
907.674	4386
907.79	4375
907.907	4421
908.023	4508
908.139	4558
908.256	4527
908.372	4546
908.488	4516
908.604	4417
908.72	4390
908.836	4443
908.952	4443
909.068	4470
909.184	4660
909.3	4516
909.415	4645
909.531	4645
909.647	4451
909.762	4424
909.878	4455
909.993	4542
910.108	4500
910.224	4569
910.339	4569
910.454	4440
910.57	4402
910.685	4424
910.8	4714
910.915	4664
911.03	4531
911.145	4344
911.259	4379
911.374	4440
911.489	4375
911.604	4344
911.718	4223
911.833	4299
911.947	4177
912.062	4093
912.176	4310
912.291	4306
912.405	4363
912.519	4512
912.633	4615
912.748	4459
912.862	4383
912.976	4306
913.09	4177
913.204	4223
913.318	4272
913.431	4402
913.545	4417
913.659	4481
913.772	4413
913.886	4325
914	4310
914.113	4443
914.226	4508
914.34	4474
914.453	4276
914.566	4474
914.68	4367
914.793	4424
914.906	4223
915.019	4234
915.132	4204
915.245	4211
915.358	4257
915.47	4337
915.583	4379
915.696	4341
915.809	4508
915.921	4478
916.034	4333
916.146	4253
916.259	4322
916.371	4470
916.483	4417
916.595	4337
916.708	4383
916.82	4375
916.932	4352
917.044	4383
917.156	4375
917.268	4310
917.38	4276
917.491	4314
917.603	4455
917.715	4512
917.826	4512
917.938	4421
918.049	4367
918.161	4455
918.272	4588
918.384	4645
918.495	4516
918.606	4344
918.717	4371
918.828	4383
918.939	4417
919.05	4295
919.161	4428
919.272	4230
919.383	4329
919.494	4489
919.604	4660
919.715	4519
919.826	4428
919.936	4462
920.047	4588
920.157	4565
920.267	4755
920.378	4603
920.488	4596
920.598	4782
920.708	4957
920.818	4862
920.928	4892
921.038	5010
921.148	4968
921.258	4687
921.368	4611
921.477	4565
921.587	4531
921.697	4390
921.806	4607
921.916	4478
922.025	4333
922.134	4348
922.244	4310
922.353	4405
922.462	4230
922.571	4185
922.68	4044
922.789	4059
922.898	4139
923.007	4078
923.116	4158
923.224	4150
923.333	4112
923.442	4078
923.55	4055
923.659	4086
923.767	4158
923.876	4051
923.984	4169
924.092	4032
924.201	4131
924.309	4150
924.417	4188
924.525	4109
924.633	4166
924.741	5121
924.849	3945
924.956	4177
925.064	4002
925.172	3953
925.279	4029
925.387	4158
925.494	4128
925.602	4265
925.709	4246
925.816	4124
925.924	4196
926.031	4261
926.138	4215
926.245	4280
926.352	4120
926.459	4352
926.566	4390
926.673	4196
926.779	4131
926.886	4147
926.993	4067
927.099	3998
927.206	4006
927.312	4025
927.419	4071
927.525	4143
927.631	4143
927.737	4059
927.843	3972
927.95	3899
928.056	4032
928.162	4078
928.267	4086
928.373	4782
928.479	4154
928.585	3956
928.69	4135
928.796	4120
928.901	4017
929.007	3918
929.112	4082
929.218	4044
929.323	4017
929.428	3979
929.533	4188
929.638	4025
929.743	4029
929.848	4124
929.953	4036
930.058	4006
930.163	3789
930.267	3896
930.372	4048
930.477	3861
930.581	4116
930.685	4025
930.79	3884
930.894	3964
930.998	3899
931.103	4112
931.207	3793
931.311	3728
931.415	3720
931.519	3629
931.623	3644
