Data from test_V78500241_2433.txt Node
Date: Fri Mar 25 17:05:55 CST 2022
User: usil
Spectrometer: V785-0024
Trigger mode: 0
Integration Time (sec): 4.000000E-1
Scans to average: 1
Nonlinearity correction enabled: false
Boxcar width: 0
Storing dark spectrum: false
XAxis mode: Wavelengths
Number of Pixels in Spectrum: 1024
>>>>>Begin Spectral Data<<<<<
801.071	8005
801.214	8012
801.356	7868
801.499	7845
801.641	7830
801.783	7811
801.926	8005
802.068	7940
802.211	7936
802.353	8001
802.496	7856
802.638	7803
802.78	7909
802.923	7890
803.065	8005
803.208	7906
803.35	7913
803.492	8096
803.635	8183
803.777	7989
803.919	8180
804.061	8457
804.204	8161
804.346	8046
804.488	8008
804.63	8092
804.773	8058
804.915	8138
805.057	8328
805.199	8157
805.341	8161
805.483	8313
805.626	8286
805.768	8092
805.91	8259
806.052	8271
806.194	8153
806.336	8355
806.478	8149
806.62	8065
806.762	8107
806.904	8252
807.046	8473
807.188	8374
807.33	8362
807.472	8355
807.614	8157
807.756	8157
807.898	8016
808.04	7913
808.182	7875
808.324	7898
808.465	7925
808.607	8084
808.749	8210
808.891	8233
809.033	8313
809.174	8259
809.316	8111
809.458	8016
809.6	8031
809.741	8046
809.883	8020
810.025	8142
810.166	8054
810.308	7993
810.45	8024
810.591	7906
810.733	7769
810.875	7639
811.016	7556
811.158	7514
811.299	7605
811.441	7784
811.582	7639
811.724	7601
811.865	7563
812.007	7613
812.148	7632
812.29	7708
812.431	7742
812.573	7902
812.714	7982
812.855	8161
812.997	8161
813.138	8324
813.279	8176
813.421	8100
813.562	7967
813.703	7860
813.845	7792
813.986	7449
814.127	7183
814.268	7202
814.41	7171
814.551	7187
814.692	7285
814.833	7133
814.974	7110
815.115	7156
815.256	6924
815.397	6928
815.539	6928
815.68	6802
815.821	6825
815.962	6913
816.103	6795
816.244	6779
816.385	6582
816.526	6620
816.666	6498
816.807	6391
816.948	6456
817.089	6513
817.23	6437
817.371	6357
817.512	6369
817.653	6357
817.793	6376
817.934	6441
818.075	6452
818.216	6498
818.356	6418
818.497	6319
818.638	6159
818.778	6213
818.919	6163
819.06	6220
819.2	6399
819.341	6388
819.481	6361
819.622	6559
819.762	6757
819.903	6787
820.043	6585
820.184	6540
820.324	6578
820.465	6791
820.605	6738
820.746	6627
820.886	6528
821.026	6715
821.167	6707
821.307	6840
821.447	6779
821.588	6658
821.728	6616
821.868	6509
822.008	6346
822.149	6304
822.289	6331
822.429	6155
822.569	6152
822.709	6125
822.849	5965
822.99	5927
823.13	5969
823.27	5904
823.41	5760
823.55	5832
823.69	5790
823.83	5779
823.97	5703
824.11	5570
824.25	5535
824.389	5589
824.529	5608
824.669	5573
824.809	5615
824.949	5657
825.089	5623
825.228	5562
825.368	5417
825.508	5436
825.648	5391
825.787	5391
825.927	5440
826.067	5322
826.206	5345
826.346	5398
826.485	5398
826.625	5379
826.765	5562
826.904	5482
827.044	5315
827.183	5296
827.323	5155
827.462	5265
827.601	5174
827.741	5216
827.88	5201
828.02	5109
828.159	5246
828.298	5349
828.437	5372
828.577	5273
828.716	5497
828.855	5334
828.994	5136
829.134	5170
829.273	5212
829.412	5166
829.551	5159
829.69	5212
829.829	5212
829.968	5357
830.107	5280
830.246	5303
830.385	5197
830.524	5155
830.663	5117
830.802	4987
830.941	4938
831.08	4881
831.219	5037
831.357	5022
831.496	5140
831.635	4938
831.774	4892
831.913	4881
832.051	4687
832.19	4752
832.329	4824
832.467	4729
832.606	4607
832.744	4759
832.883	4679
833.022	4797
833.16	4748
833.299	4824
833.437	4885
833.576	4885
833.714	4831
833.852	4919
833.991	4896
834.129	4968
834.267	4908
834.406	4919
834.544	4946
834.682	4957
834.821	4980
834.959	5166
835.097	5041
835.235	5204
835.373	5094
835.511	5162
835.65	4976
835.788	5056
835.926	4900
836.064	4847
836.202	4961
836.34	5162
836.478	5242
836.615	5113
836.753	5235
836.891	5280
837.029	5220
837.167	5189
837.305	5151
837.443	5155
837.58	5033
837.718	5258
837.856	5181
837.993	5162
838.131	5284
838.269	5216
838.406	5231
838.544	5155
838.681	5033
838.819	4953
838.956	4904
839.094	4885
839.231	5014
839.369	5079
839.506	5444
839.643	5307
839.781	5090
839.918	5086
840.055	5075
840.193	5090
840.33	5102
840.467	5181
840.604	5223
840.742	5509
840.879	5151
841.016	5109
841.153	5174
841.29	5360
841.427	5322
841.564	5349
841.701	5349
841.838	5322
841.975	5288
842.112	5303
842.249	5117
842.385	5166
842.522	5322
842.659	5178
842.796	5162
842.933	5170
843.069	5128
843.206	5170
843.343	5334
843.479	5204
843.616	5239
843.752	5018
843.889	4995
844.025	5216
844.162	4991
844.298	5231
844.435	5090
844.571	5086
844.708	5162
844.844	5318
844.98	5288
845.117	5315
845.253	5086
845.389	5083
845.525	5197
845.661	5143
845.798	5064
845.934	5147
846.07	5064
846.206	5197
846.342	5242
846.478	5178
846.614	5037
846.75	4957
846.886	4995
847.022	5159
847.158	5045
847.294	5075
847.429	5102
847.565	5086
847.701	5299
847.837	4866
847.972	4793
848.108	4953
848.244	4953
848.379	4786
848.515	4729
848.65	4729
848.786	4778
848.921	4771
849.057	4850
849.192	4923
849.328	4831
849.463	4877
849.598	4782
849.734	4767
849.869	4691
850.004	4630
850.14	4675
850.275	4634
850.41	4512
850.545	4550
850.68	4592
850.815	4622
850.95	4641
851.085	4824
851.22	4759
851.355	4740
851.49	4656
851.625	4622
851.76	4660
851.895	4573
852.03	4527
852.165	4672
852.299	4771
852.434	4767
852.569	4729
852.703	4790
852.838	4850
852.973	4965
853.107	4911
853.242	4797
853.376	4679
853.511	4519
853.645	4626
853.78	4805
853.914	4672
854.048	4679
854.183	4622
854.317	4691
854.451	4858
854.585	4706
854.72	4660
854.854	4805
854.988	4615
855.122	4656
855.256	4573
855.39	4653
855.524	4816
855.658	4698
855.792	4702
855.926	4755
856.06	4736
856.194	4786
856.327	4694
856.461	4603
856.595	4611
856.729	4630
856.862	4736
856.996	4694
857.13	4698
857.263	4733
857.397	4809
857.53	4641
857.664	4679
857.797	4801
857.931	4812
858.064	4717
858.197	4744
858.331	4645
858.464	4599
858.597	4546
858.731	4687
858.864	4611
858.997	4641
859.13	4683
859.263	4645
859.396	4714
859.529	4561
859.662	4558
859.795	4504
859.928	4615
860.061	4782
860.194	4771
860.327	4622
860.46	4542
860.592	4721
860.725	4714
860.858	4725
860.99	4546
861.123	4550
861.256	4523
861.388	4630
861.521	5364
861.653	4512
861.786	4402
861.918	4481
862.05	4523
862.183	4542
862.315	4641
862.447	4668
862.58	4569
862.712	4394
862.844	4314
862.976	4478
863.108	4478
863.24	4744
863.372	4310
863.504	4440
863.636	4383
863.768	4523
863.9	4440
864.032	4413
864.164	4402
864.296	4470
864.428	4584
864.559	4531
864.691	4550
864.823	4531
864.954	4470
865.086	4542
865.217	4504
865.349	4398
865.48	4478
865.612	4504
865.743	4618
865.875	4512
866.006	4379
866.137	4512
866.269	4462
866.4	4470
866.531	4428
866.662	4402
866.793	4455
866.924	4383
867.055	4459
867.186	4462
867.317	4436
867.448	4363
867.579	4360
867.71	4394
867.841	4360
867.972	4447
868.103	4466
868.233	4443
868.364	4459
868.495	4424
868.625	4687
868.756	4763
868.886	4580
869.017	4672
869.147	4771
869.278	4797
869.408	4637
869.539	4641
869.669	4729
869.799	4626
869.929	4782
870.06	4771
870.19	4957
870.32	4942
870.45	4900
870.58	5029
870.71	5090
870.84	5094
870.97	4968
871.1	4892
871.23	5204
871.36	5147
871.489	5067
871.619	5060
871.749	5033
871.879	5132
872.008	5204
872.138	5071
872.267	4961
872.397	4862
872.526	4759
872.656	4721
872.785	4812
872.915	4984
873.044	5022
873.173	4946
873.303	4965
873.432	5006
873.561	4972
873.69	4896
873.819	4854
873.948	4820
874.077	4816
874.206	4733
874.335	4801
874.464	4961
874.593	5075
874.722	4999
874.851	5075
874.979	5075
875.108	5010
875.237	4911
875.365	4870
875.494	4866
875.623	4965
875.751	4904
875.88	4866
876.008	4949
876.136	5079
876.265	5220
876.393	5337
876.521	5277
876.65	5242
876.778	5132
876.906	5033
877.034	5029
877.162	5037
877.29	5033
877.418	5029
877.546	5033
877.674	5052
877.802	5041
877.93	4980
878.058	4987
878.185	4923
878.313	4946
878.441	4980
878.568	4790
878.696	4877
878.824	4965
878.951	4953
879.079	5132
879.206	5330
879.333	5117
879.461	4987
879.588	5014
879.715	5147
879.842	5208
879.97	5010
880.097	4801
880.224	4793
880.351	4816
880.478	4812
880.605	4805
880.732	4805
880.859	5124
880.986	4885
881.112	4927
881.239	4763
881.366	4683
881.493	4603
881.619	4618
881.746	4630
881.872	4641
881.999	4615
882.125	4706
882.252	4767
882.378	4816
882.505	4968
882.631	4797
882.757	4679
882.883	4771
883.01	4706
883.136	4664
883.262	4599
883.388	4592
883.514	4824
883.64	4839
883.766	4812
883.892	4668
884.018	4740
884.143	4915
884.269	5025
884.395	4683
884.52	4611
884.646	4618
884.772	4615
884.897	4599
885.023	4645
885.148	4778
885.274	4873
885.399	4831
885.524	4698
885.65	4729
885.775	4755
885.9	4748
886.025	4831
886.15	4828
886.275	4698
886.4	4645
886.525	4744
886.65	4679
886.775	4679
886.9	4870
887.025	5022
887.149	4805
887.274	4653
887.399	4565
887.523	4599
887.648	4611
887.773	4550
887.897	4691
888.021	4793
888.146	4634
888.27	4782
888.395	4908
888.519	4809
888.643	4771
888.767	4816
888.891	4683
889.015	4599
889.139	4672
889.263	4596
889.387	4782
889.511	4877
889.635	4797
889.759	4618
889.883	4630
890.006	4752
890.13	4839
890.254	4634
890.377	4717
890.501	4573
890.624	4542
890.748	4634
890.871	4497
890.995	4459
891.118	4379
891.241	4493
891.364	4603
891.488	4599
891.611	4497
891.734	4573
891.857	4622
891.98	4626
892.103	4630
892.226	4588
892.349	4538
892.471	4417
892.594	4596
892.717	4596
892.839	4584
892.962	4588
893.085	4656
893.207	4573
893.33	4443
893.452	4558
893.575	4675
893.697	4554
893.819	4778
893.941	4793
894.064	4790
894.186	4580
894.308	4561
894.43	4774
894.552	4793
894.674	4744
894.796	4531
894.918	4599
895.04	4565
895.161	4729
895.283	4675
895.405	4592
895.526	4641
895.648	4706
895.769	4664
895.891	4706
896.012	4759
896.134	4736
896.255	4710
896.376	4630
896.498	4626
896.619	4702
896.74	4607
896.861	4622
896.982	4938
897.103	5079
897.224	4854
897.345	4748
897.466	4679
897.587	4710
897.708	4904
897.828	4748
897.949	4668
898.07	4561
898.19	4626
898.311	4820
898.431	4668
898.552	4752
898.672	4816
898.792	4774
898.913	4744
899.033	4656
899.153	4462
899.273	4424
899.393	4527
899.513	4519
899.633	4512
899.753	4577
899.873	4527
899.993	4599
900.113	4531
900.232	4618
900.352	4550
900.472	4500
900.591	4417
900.711	4527
900.83	4424
900.95	4603
901.069	4675
901.189	4550
901.308	4394
901.427	4314
901.546	4386
901.665	4500
901.784	4531
901.904	4443
902.023	4329
902.141	4188
902.26	4188
902.379	4295
902.498	4242
902.617	4238
902.735	4352
902.854	4383
902.973	4352
903.091	4204
903.21	4238
903.328	4249
903.446	4291
903.565	4249
903.683	4348
903.801	4280
903.919	4363
904.038	4398
904.156	4337
904.274	4436
904.392	4417
904.51	4432
904.627	4413
904.745	4573
904.863	4637
904.981	4394
905.098	4295
905.216	4333
905.334	4436
905.451	4443
905.569	4398
905.686	4573
905.803	4580
905.921	4421
906.038	4531
906.155	4459
906.272	4417
906.389	4417
906.506	4352
906.623	4379
906.74	4383
906.857	4306
906.974	4421
907.091	4626
907.208	4687
907.324	4538
907.441	4554
907.557	4337
907.674	4371
907.79	4325
907.907	4371
908.023	4504
908.139	4474
908.256	4421
908.372	4421
908.488	4459
908.604	4363
908.72	4363
908.836	4390
908.952	4352
909.068	4462
909.184	4554
909.3	4485
909.415	4558
909.531	4569
909.647	4379
909.762	4394
909.878	4310
909.993	4447
910.108	4443
910.224	4398
910.339	4500
910.454	4417
910.57	4421
910.685	4306
910.8	4672
910.915	4626
911.03	4417
911.145	4314
911.259	4322
911.374	4337
911.489	4318
911.604	4276
911.718	4200
911.833	4196
911.947	4105
912.062	3994
912.176	4196
912.291	4253
912.405	4227
912.519	4504
912.633	4497
912.748	4356
912.862	4322
912.976	4204
913.09	4128
913.204	4185
913.318	4261
913.431	4409
913.545	4379
913.659	4447
913.772	4394
913.886	4249
914	4230
914.113	4367
914.226	4405
914.34	4352
914.453	4223
914.566	4383
914.68	4284
914.793	4310
914.906	4185
915.019	4147
915.132	4112
915.245	4181
915.358	4242
915.47	4230
915.583	4234
915.696	4329
915.809	4424
915.921	4375
916.034	4249
916.146	4287
916.259	4207
916.371	4398
916.483	4371
916.595	4238
916.708	4329
916.82	4314
916.932	4325
917.044	4291
917.156	4310
917.268	4215
917.38	4306
917.491	4341
917.603	4371
917.715	4375
917.826	4466
917.938	4310
918.049	4261
918.161	4413
918.272	4512
918.384	4470
918.495	4447
918.606	4246
918.717	4246
918.828	4314
918.939	4398
919.05	4249
919.161	4333
919.272	4128
919.383	4234
919.494	4451
919.604	4675
919.715	4447
919.826	4379
919.936	4405
920.047	4516
920.157	4436
920.267	4664
920.378	4558
920.488	4523
920.598	4717
920.708	4915
920.818	4706
920.928	4763
921.038	4965
921.148	4896
921.258	4630
921.368	4527
921.477	4478
921.587	4447
921.697	4371
921.806	4535
921.916	4436
922.025	4268
922.134	4230
922.244	4223
922.353	4325
922.462	4188
922.571	4128
922.68	4010
922.789	3941
922.898	4044
923.007	3975
923.116	4074
923.224	4029
923.333	4071
923.442	4036
923.55	3968
923.659	4036
923.767	4139
923.876	4010
923.984	4109
924.092	3972
924.201	4067
924.309	4116
924.417	4101
924.525	4086
924.633	4143
924.741	5086
924.849	3918
924.956	4139
925.064	3975
925.172	3888
925.279	3956
925.387	4082
925.494	4048
925.602	4139
925.709	4173
925.816	4025
925.924	4086
926.031	4234
926.138	4166
926.245	4192
926.352	4135
926.459	4268
926.566	4295
926.673	4128
926.779	4116
926.886	4090
926.993	3960
927.099	4013
927.206	3922
927.312	3987
927.419	4105
927.525	4055
927.631	4105
927.737	3941
927.843	3937
927.95	3903
928.056	3972
928.162	3956
928.267	4067
928.373	4634
928.479	4128
928.585	3873
928.69	4032
928.796	4055
928.901	3968
929.007	3842
929.112	3968
929.218	3972
929.323	3926
929.428	3949
929.533	4128
929.638	3918
929.743	3960
929.848	4067
929.953	3987
930.058	3972
930.163	3774
930.267	3850
930.372	3930
930.477	3823
930.581	4078
930.685	3979
930.79	3789
930.894	3876
930.998	3861
931.103	4059
931.207	3709
931.311	3679
931.415	3660
931.519	3542
931.623	3564
